SpectraSuite Data File
++++++++++++++++++++++++++++++++++++
Date: Fri Oct 04 12:13:30 GMT-05:00 2013
User: price-jones
Dark Spectrum Present: No
Reference Spectrum Present: No
Number of Sampled Component Spectra: 1
Spectrometers: USB2+H05261
Integration Time (usec): 10000 (USB2+H05261)
Spectra Averaged: 1 (USB2+H05261)
Boxcar Smoothing: 0 (USB2+H05261)
Correct for Electrical Dark: No (USB2+H05261)
Strobe/Lamp Enabled: No (USB2+H05261)
Correct for Detector Non-linearity: No (USB2+H05261)
Correct for Stray Light: No (USB2+H05261)
Number of Pixels in Processed Spectrum: 2048
>>>>>Begin Processed Spectral Data<<<<<
365.73	0.00
365.92	0.00
366.12	0.00
366.32	0.00
366.52	0.00
366.72	0.00
366.91	0.00
367.11	0.00
367.31	0.00
367.51	0.00
367.70	0.00
367.90	0.00
368.10	0.00
368.30	0.00
368.49	0.00
368.69	0.00
368.89	0.00
369.09	0.00
369.28	0.00
369.48	0.00
369.68	0.00
369.87	0.00
370.07	0.00
370.27	0.00
370.47	0.00
370.66	0.00
370.86	0.00
371.06	0.00
371.25	0.00
371.45	0.00
371.65	0.00
371.84	0.00
372.04	0.00
372.24	0.00
372.44	0.00
372.63	30.43
372.83	21.06
373.03	0.00
373.22	35.11
373.42	0.00
373.62	74.90
373.81	0.00
374.01	28.09
374.21	93.62
374.40	56.17
374.60	39.79
374.79	105.32
374.99	0.00
375.19	72.56
375.38	0.00
375.58	0.00
375.78	32.77
375.97	35.11
376.17	18.72
376.37	44.47
376.56	21.06
376.76	0.00
376.95	7.02
377.15	18.72
377.35	72.56
377.54	30.43
377.74	9.36
377.93	0.00
378.13	53.83
378.33	4.68
378.52	23.41
378.72	79.58
378.91	23.41
379.11	11.70
379.31	51.49
379.50	25.75
379.70	2.34
379.89	0.00
380.09	0.00
380.28	56.17
380.48	23.41
380.68	0.00
380.87	9.36
381.07	9.36
381.26	35.11
381.46	0.00
381.65	0.00
381.85	32.77
382.04	0.00
382.24	0.00
382.43	42.13
382.63	0.00
382.83	0.00
383.02	23.41
383.22	14.04
383.41	0.00
383.61	11.70
383.80	2.34
384.00	11.70
384.19	14.04
384.39	77.24
384.58	9.36
384.78	28.09
384.97	0.00
385.17	0.00
385.36	39.79
385.56	0.00
385.75	0.00
385.95	23.41
386.14	0.00
386.34	4.68
386.53	0.00
386.72	0.00
386.92	77.24
387.11	86.60
387.31	53.83
387.50	88.94
387.70	21.06
387.89	0.00
388.09	28.09
388.28	56.17
388.48	0.00
388.67	11.70
388.86	35.11
389.06	0.00
389.25	9.36
389.45	0.00
389.64	72.56
389.84	35.11
390.03	0.00
390.22	21.06
390.42	0.00
390.61	32.77
390.81	0.00
391.00	4.68
391.19	0.00
391.39	100.64
391.58	37.45
391.78	63.19
391.97	0.00
392.16	53.83
392.36	4.68
392.55	37.45
392.75	0.00
392.94	0.00
393.13	21.06
393.33	23.41
393.52	32.77
393.71	91.28
393.91	67.88
394.10	124.05
394.29	0.00
394.49	58.51
394.68	32.77
394.88	23.41
395.07	23.41
395.26	30.43
395.46	9.36
395.65	7.02
395.84	16.38
396.04	32.77
396.23	28.09
396.42	16.38
396.62	49.15
396.81	14.04
397.00	30.43
397.19	74.90
397.39	32.77
397.58	58.51
397.77	81.92
397.97	32.77
398.16	30.43
398.35	95.96
398.55	44.47
398.74	28.09
398.93	37.45
399.12	18.72
399.32	53.83
399.51	98.30
399.70	28.09
399.90	4.68
400.09	0.00
400.28	67.88
400.47	42.13
400.67	44.47
400.86	4.68
401.05	14.04
401.24	0.00
401.44	53.83
401.63	58.51
401.82	49.15
402.01	0.00
402.21	32.77
402.40	14.04
402.59	0.00
402.78	65.54
402.97	105.32
403.17	4.68
403.36	35.11
403.55	63.19
403.74	7.02
403.93	11.70
404.13	18.72
404.32	30.43
404.51	35.11
404.70	16.38
404.89	28.09
405.09	0.00
405.28	0.00
405.47	14.04
405.66	79.58
405.85	39.79
406.05	51.49
406.24	65.54
406.43	32.77
406.62	0.00
406.81	25.75
407.00	39.79
407.20	18.72
407.39	32.77
407.58	21.06
407.77	0.00
407.96	70.22
408.15	95.96
408.34	9.36
408.54	0.00
408.73	23.41
408.92	30.43
409.11	37.45
409.30	51.49
409.49	74.90
409.68	37.45
409.87	14.04
410.07	39.79
410.26	14.04
410.45	0.00
410.64	14.04
410.83	53.83
411.02	16.38
411.21	39.79
411.40	74.90
411.59	0.00
411.78	30.43
411.98	63.19
412.17	46.81
412.36	67.88
412.55	58.51
412.74	49.15
412.93	70.22
413.12	30.43
413.31	23.41
413.50	44.47
413.69	16.38
413.88	0.00
414.07	7.02
414.26	16.38
414.45	9.36
414.64	0.00
414.83	30.43
415.02	39.79
415.22	35.11
415.41	11.70
415.60	51.49
415.79	58.51
415.98	32.77
416.17	44.47
416.36	32.77
416.55	44.47
416.74	0.00
416.93	58.51
417.12	4.68
417.31	16.38
417.50	0.00
417.69	21.06
417.88	56.17
418.07	46.81
418.26	28.09
418.45	37.45
418.64	56.17
418.83	0.00
419.02	67.88
419.21	84.26
419.39	21.06
419.58	2.34
419.77	32.77
419.96	70.22
420.15	74.90
420.34	2.34
420.53	105.32
420.72	107.66
420.91	93.62
421.10	0.00
421.29	58.51
421.48	2.34
421.67	42.13
421.86	28.09
422.05	65.54
422.24	30.43
422.43	65.54
422.61	56.17
422.80	30.43
422.99	0.00
423.18	35.11
423.37	28.09
423.56	25.75
423.75	100.64
423.94	0.00
424.13	0.00
424.32	107.66
424.50	49.15
424.69	0.00
424.88	32.77
425.07	49.15
425.26	86.60
425.45	2.34
425.64	53.83
425.83	14.04
426.01	32.77
426.20	46.81
426.39	11.70
426.58	11.70
426.77	23.41
426.96	84.26
427.15	49.15
427.33	14.04
427.52	60.85
427.71	7.02
427.90	107.66
428.09	0.00
428.28	0.00
428.46	51.49
428.65	11.70
428.84	67.88
429.03	44.47
429.22	0.00
429.40	9.36
429.59	56.17
429.78	56.17
429.97	77.24
430.16	7.02
430.34	18.72
430.53	56.17
430.72	72.56
430.91	79.58
431.10	37.45
431.28	72.56
431.47	35.11
431.66	0.00
431.85	0.00
432.03	0.00
432.22	44.47
432.41	39.79
432.60	0.00
432.79	70.22
432.97	49.15
433.16	42.13
433.35	60.85
433.54	65.54
433.72	4.68
433.91	35.11
434.10	72.56
434.28	46.81
434.47	35.11
434.66	32.77
434.85	65.54
435.03	21.06
435.22	91.28
435.41	0.00
435.59	53.83
435.78	9.36
435.97	107.66
436.16	79.58
436.34	0.00
436.53	14.04
436.72	49.15
436.90	0.00
437.09	51.49
437.28	32.77
437.46	30.43
437.65	60.85
437.84	74.90
438.02	98.30
438.21	100.64
438.40	72.56
438.58	4.68
438.77	0.00
438.96	77.24
439.14	0.00
439.33	23.41
439.52	18.72
439.70	7.02
439.89	14.04
440.08	60.85
440.26	4.68
440.45	53.83
440.63	9.36
440.82	56.17
441.01	0.00
441.19	23.41
441.38	21.06
441.57	0.00
441.75	0.00
441.94	0.00
442.12	63.19
442.31	23.41
442.50	4.68
442.68	11.70
442.87	72.56
443.05	56.17
443.24	21.06
443.43	60.85
443.61	32.77
443.80	63.19
443.98	56.17
444.17	7.02
444.35	39.79
444.54	18.72
444.73	51.49
444.91	0.00
445.10	0.00
445.28	37.45
445.47	28.09
445.65	0.00
445.84	84.26
446.02	46.81
446.21	44.47
446.39	93.62
446.58	39.79
446.77	49.15
446.95	79.58
447.14	0.00
447.32	9.36
447.51	14.04
447.69	44.47
447.88	30.43
448.06	14.04
448.25	28.09
448.43	58.51
448.62	39.79
448.80	46.81
448.99	28.09
449.17	88.94
449.36	110.01
449.54	0.00
449.73	0.00
449.91	0.00
450.10	0.00
450.28	0.00
450.46	51.49
450.65	0.00
450.83	9.36
451.02	0.00
451.20	49.15
451.39	60.85
451.57	28.09
451.76	49.15
451.94	4.68
452.13	0.00
452.31	67.88
452.49	60.85
452.68	39.79
452.86	79.58
453.05	60.85
453.23	49.15
453.42	7.02
453.60	60.85
453.78	18.72
453.97	30.43
454.15	42.13
454.34	23.41
454.52	79.58
454.70	63.19
454.89	11.70
455.07	25.75
455.26	53.83
455.44	2.34
455.62	70.22
455.81	63.19
455.99	74.90
456.17	16.38
456.36	0.00
456.54	23.41
456.73	0.00
456.91	44.47
457.09	18.72
457.28	30.43
457.46	25.75
457.64	70.22
457.83	0.00
458.01	16.38
458.19	65.54
458.38	32.77
458.56	4.68
458.74	23.41
458.93	56.17
459.11	56.17
459.29	79.58
459.48	25.75
459.66	14.04
459.84	21.06
460.03	72.56
460.21	37.45
460.39	7.02
460.57	51.49
460.76	39.79
460.94	58.51
461.12	35.11
461.31	23.41
461.49	7.02
461.67	21.06
461.85	0.00
462.04	42.13
462.22	65.54
462.40	56.17
462.59	77.24
462.77	67.88
462.95	0.00
463.13	79.58
463.32	25.75
463.50	0.00
463.68	60.85
463.86	30.43
464.05	37.45
464.23	133.41
464.41	39.79
464.59	39.79
464.78	53.83
464.96	56.17
465.14	102.98
465.32	0.00
465.50	63.19
465.69	32.77
465.87	0.00
466.05	44.47
466.23	14.04
466.41	70.22
466.60	42.13
466.78	4.68
466.96	25.75
467.14	25.75
467.32	46.81
467.51	16.38
467.69	63.19
467.87	37.45
468.05	16.38
468.23	18.72
468.41	49.15
468.60	4.68
468.78	0.00
468.96	42.13
469.14	63.19
469.32	35.11
469.50	4.68
469.69	51.49
469.87	30.43
470.05	63.19
470.23	112.35
470.41	7.02
470.59	4.68
470.77	18.72
470.95	0.00
471.14	0.00
471.32	9.36
471.50	65.54
471.68	39.79
471.86	0.00
472.04	70.22
472.22	56.17
472.40	79.58
472.58	0.00
472.77	35.11
472.95	70.22
473.13	100.64
473.31	0.00
473.49	77.24
473.67	14.04
473.85	0.00
474.03	70.22
474.21	86.60
474.39	84.26
474.57	16.38
474.75	37.45
474.93	0.00
475.12	14.04
475.30	9.36
475.48	102.98
475.66	53.83
475.84	93.62
476.02	63.19
476.20	70.22
476.38	0.00
476.56	30.43
476.74	0.00
476.92	53.83
477.10	9.36
477.28	0.00
477.46	0.00
477.64	65.54
477.82	0.00
478.00	53.83
478.18	16.38
478.36	98.30
478.54	18.72
478.72	4.68
478.90	21.06
479.08	0.00
479.26	60.85
479.44	114.69
479.62	88.94
479.80	72.56
479.98	32.77
480.16	28.09
480.34	0.00
480.52	4.68
480.70	0.00
480.88	30.43
481.06	39.79
481.24	0.00
481.41	0.00
481.59	105.32
481.77	44.47
481.95	0.00
482.13	21.06
482.31	0.00
482.49	18.72
482.67	28.09
482.85	46.81
483.03	63.19
483.21	0.00
483.39	0.00
483.57	25.75
483.74	30.43
483.92	23.41
484.10	37.45
484.28	32.77
484.46	28.09
484.64	0.00
484.82	0.00
485.00	28.09
485.18	0.00
485.35	81.92
485.53	39.79
485.71	0.00
485.89	23.41
486.07	0.00
486.25	16.38
486.43	65.54
486.61	9.36
486.78	0.00
486.96	7.02
487.14	0.00
487.32	30.43
487.50	42.13
487.68	0.00
487.85	79.58
488.03	117.03
488.21	56.17
488.39	0.00
488.57	51.49
488.75	44.47
488.92	81.92
489.10	0.00
489.28	79.58
489.46	84.26
489.64	51.49
489.81	60.85
489.99	60.85
490.17	2.34
490.35	9.36
490.53	9.36
490.70	9.36
490.88	23.41
491.06	35.11
491.24	79.58
491.41	30.43
491.59	0.00
491.77	32.77
491.95	9.36
492.13	23.41
492.30	28.09
492.48	2.34
492.66	60.85
492.84	32.77
493.01	42.13
493.19	9.36
493.37	23.41
493.54	35.11
493.72	25.75
493.90	0.00
494.08	28.09
494.25	0.00
494.43	25.75
494.61	35.11
494.79	81.92
494.96	72.56
495.14	126.39
495.32	28.09
495.49	23.41
495.67	37.45
495.85	39.79
496.02	0.00
496.20	65.54
496.38	105.32
496.55	56.17
496.73	46.81
496.91	4.68
497.09	0.00
497.26	65.54
497.44	77.24
497.62	65.54
497.79	60.85
497.97	32.77
498.14	0.00
498.32	11.70
498.50	88.94
498.67	35.11
498.85	21.06
499.03	70.22
499.20	28.09
499.38	0.00
499.56	0.00
499.73	95.96
499.91	70.22
500.08	0.00
500.26	23.41
500.44	53.83
500.61	35.11
500.79	65.54
500.97	79.58
501.14	37.45
501.32	56.17
501.49	32.77
501.67	11.70
501.84	60.85
502.02	58.51
502.20	14.04
502.37	39.79
502.55	23.41
502.72	79.58
502.90	11.70
503.07	77.24
503.25	2.34
503.43	9.36
503.60	0.00
503.78	58.51
503.95	67.88
504.13	37.45
504.30	70.22
504.48	0.00
504.65	7.02
504.83	65.54
505.01	44.47
505.18	16.38
505.36	0.00
505.53	0.00
505.71	42.13
505.88	35.11
506.06	42.13
506.23	49.15
506.41	37.45
506.58	7.02
506.76	84.26
506.93	37.45
507.11	49.15
507.28	21.06
507.46	32.77
507.63	0.00
507.81	49.15
507.98	44.47
508.16	53.83
508.33	0.00
508.50	56.17
508.68	46.81
508.85	0.00
509.03	42.13
509.20	23.41
509.38	53.83
509.55	23.41
509.73	37.45
509.90	77.24
510.08	100.64
510.25	138.09
510.42	0.00
510.60	32.77
510.77	72.56
510.95	39.79
511.12	0.00
511.30	42.13
511.47	37.45
511.64	39.79
511.82	93.62
511.99	18.72
512.17	0.00
512.34	0.00
512.51	65.54
512.69	2.34
512.86	0.00
513.04	25.75
513.21	46.81
513.38	35.11
513.56	18.72
513.73	0.00
513.90	0.00
514.08	0.00
514.25	0.00
514.43	21.06
514.60	30.43
514.77	39.79
514.95	23.41
515.12	119.37
515.29	42.13
515.47	49.15
515.64	117.03
515.81	51.49
515.99	0.00
516.16	32.77
516.33	0.00
516.51	0.00
516.68	84.26
516.85	74.90
517.03	53.83
517.20	42.13
517.37	53.83
517.54	65.54
517.72	67.88
517.89	0.00
518.06	74.90
518.24	51.49
518.41	84.26
518.58	39.79
518.75	39.79
518.93	117.03
519.10	63.19
519.27	58.51
519.45	49.15
519.62	84.26
519.79	79.58
519.96	11.70
520.14	84.26
520.31	46.81
520.48	32.77
520.65	53.83
520.83	53.83
521.00	37.45
521.17	23.41
521.34	30.43
521.52	88.94
521.69	51.49
521.86	60.85
522.03	21.06
522.20	9.36
522.38	51.49
522.55	9.36
522.72	102.98
522.89	105.32
523.07	35.11
523.24	102.98
523.41	0.00
523.58	16.38
523.75	44.47
523.92	161.50
524.10	72.56
524.27	16.38
524.44	88.94
524.61	91.28
524.78	0.00
524.96	65.54
525.13	42.13
525.30	84.26
525.47	9.36
525.64	49.15
525.81	63.19
525.98	9.36
526.16	30.43
526.33	14.04
526.50	77.24
526.67	25.75
526.84	42.13
527.01	72.56
527.18	14.04
527.36	2.34
527.53	46.81
527.70	86.60
527.87	14.04
528.04	9.36
528.21	0.00
528.38	30.43
528.55	51.49
528.72	0.00
528.89	0.00
529.07	0.00
529.24	35.11
529.41	30.43
529.58	9.36
529.75	49.15
529.92	0.00
530.09	63.19
530.26	72.56
530.43	67.88
530.60	16.38
530.77	56.17
530.94	44.47
531.11	58.51
531.28	58.51
531.46	30.43
531.63	91.28
531.80	39.79
531.97	0.00
532.14	32.77
532.31	4.68
532.48	9.36
532.65	72.56
532.82	81.92
532.99	16.38
533.16	93.62
533.33	81.92
533.50	14.04
533.67	79.58
533.84	51.49
534.01	37.45
534.18	70.22
534.35	51.49
534.52	23.41
534.69	14.04
534.86	98.30
535.03	49.15
535.20	0.00
535.37	102.98
535.54	35.11
535.71	53.83
535.88	95.96
536.05	74.90
536.22	0.00
536.38	86.60
536.55	18.72
536.72	119.37
536.89	18.72
537.06	0.00
537.23	14.04
537.40	56.17
537.57	9.36
537.74	93.62
537.91	25.75
538.08	44.47
538.25	18.72
538.42	84.26
538.59	46.81
538.75	91.28
538.92	49.15
539.09	35.11
539.26	70.22
539.43	65.54
539.60	74.90
539.77	98.30
539.94	60.85
540.11	51.49
540.28	35.11
540.44	2.34
540.61	18.72
540.78	88.94
540.95	18.72
541.12	65.54
541.29	72.56
541.46	14.04
541.62	70.22
541.79	7.02
541.96	23.41
542.13	21.06
542.30	74.90
542.47	25.75
542.63	0.00
542.80	0.00
542.97	0.00
543.14	102.98
543.31	28.09
543.48	77.24
543.64	81.92
543.81	56.17
543.98	51.49
544.15	0.00
544.32	9.36
544.48	32.77
544.65	84.26
544.82	35.11
544.99	0.00
545.16	23.41
545.32	37.45
545.49	25.75
545.66	42.13
545.83	14.04
546.00	0.00
546.16	46.81
546.33	4.68
546.50	18.72
546.67	67.88
546.83	91.28
547.00	53.83
547.17	35.11
547.34	102.98
547.50	60.85
547.67	42.13
547.84	18.72
548.00	0.00
548.17	65.54
548.34	46.81
548.51	161.50
548.67	58.51
548.84	16.38
549.01	2.34
549.18	4.68
549.34	105.32
549.51	7.02
549.68	11.70
549.84	72.56
550.01	2.34
550.18	67.88
550.34	46.81
550.51	28.09
550.68	53.83
550.84	4.68
551.01	58.51
551.18	37.45
551.34	74.90
551.51	79.58
551.68	110.01
551.84	0.00
552.01	0.00
552.18	56.17
552.34	56.17
552.51	63.19
552.68	9.36
552.84	0.00
553.01	53.83
553.18	28.09
553.34	81.92
553.51	30.43
553.67	0.00
553.84	44.47
554.01	88.94
554.17	7.02
554.34	49.15
554.51	30.43
554.67	0.00
554.84	0.00
555.00	53.83
555.17	2.34
555.33	58.51
555.50	28.09
555.67	21.06
555.83	70.22
556.00	53.83
556.16	124.05
556.33	21.06
556.50	30.43
556.66	28.09
556.83	51.49
556.99	49.15
557.16	91.28
557.32	79.58
557.49	30.43
557.65	42.13
557.82	53.83
557.98	56.17
558.15	46.81
558.32	0.00
558.48	11.70
558.65	60.85
558.81	81.92
558.98	74.90
559.14	56.17
559.31	0.00
559.47	53.83
559.64	95.96
559.80	2.34
559.97	44.47
560.13	35.11
560.30	114.69
560.46	32.77
560.63	9.36
560.79	21.06
560.96	21.06
561.12	63.19
561.29	74.90
561.45	0.00
561.61	0.00
561.78	70.22
561.94	0.00
562.11	28.09
562.27	32.77
562.44	154.48
562.60	63.19
562.77	0.00
562.93	77.24
563.10	30.43
563.26	4.68
563.42	21.06
563.59	67.88
563.75	23.41
563.92	32.77
564.08	14.04
564.24	72.56
564.41	39.79
564.57	23.41
564.74	0.00
564.90	46.81
565.07	95.96
565.23	63.19
565.39	25.75
565.56	0.00
565.72	53.83
565.88	0.00
566.05	18.72
566.21	0.00
566.38	0.00
566.54	58.51
566.70	18.72
566.87	0.00
567.03	56.17
567.19	49.15
567.36	0.00
567.52	56.17
567.68	0.00
567.85	65.54
568.01	51.49
568.17	65.54
568.34	30.43
568.50	74.90
568.66	74.90
568.83	23.41
568.99	30.43
569.15	0.00
569.32	67.88
569.48	9.36
569.64	16.38
569.81	44.47
569.97	44.47
570.13	30.43
570.30	37.45
570.46	0.00
570.62	53.83
570.78	7.02
570.95	81.92
571.11	0.00
571.27	67.88
571.43	110.01
571.60	77.24
571.76	23.41
571.92	4.68
572.09	72.56
572.25	0.00
572.41	95.96
572.57	58.51
572.74	0.00
572.90	35.11
573.06	0.00
573.22	18.72
573.38	44.47
573.55	44.47
573.71	7.02
573.87	18.72
574.03	35.11
574.20	42.13
574.36	0.00
574.52	0.00
574.68	21.06
574.84	72.56
575.01	14.04
575.17	70.22
575.33	9.36
575.49	63.19
575.65	74.90
575.82	46.81
575.98	28.09
576.14	84.26
576.30	35.11
576.46	14.04
576.62	42.13
576.79	0.00
576.95	0.00
577.11	49.15
577.27	67.88
577.43	39.79
577.59	16.38
577.75	44.47
577.92	4.68
578.08	28.09
578.24	28.09
578.40	9.36
578.56	35.11
578.72	32.77
578.88	63.19
579.04	14.04
579.21	0.00
579.37	44.47
579.53	39.79
579.69	63.19
579.85	21.06
580.01	72.56
580.17	79.58
580.33	58.51
580.49	56.17
580.65	21.06
580.82	79.58
580.98	119.37
581.14	72.56
581.30	65.54
581.46	70.22
581.62	81.92
581.78	18.72
581.94	49.15
582.10	44.47
582.26	0.00
582.42	35.11
582.58	21.06
582.74	63.19
582.90	42.13
583.06	117.03
583.22	9.36
583.38	11.70
583.54	63.19
583.70	58.51
583.86	51.49
584.02	46.81
584.18	0.00
584.34	58.51
584.50	131.07
584.66	695.14
584.82	1785.83
584.98	2303.09
585.14	1757.74
585.30	1224.10
585.46	748.97
585.62	557.05
585.78	280.86
585.94	88.94
586.10	44.47
586.26	121.71
586.42	88.94
586.58	9.36
586.74	63.19
586.90	0.00
587.06	0.00
587.22	86.60
587.38	0.00
587.54	112.35
587.70	142.77
587.86	205.97
588.02	168.52
588.18	177.88
588.34	161.50
588.49	159.16
588.65	35.11
588.81	70.22
588.97	46.81
589.13	32.77
589.29	0.00
589.45	9.36
589.61	63.19
589.77	70.22
589.93	4.68
590.08	18.72
590.24	0.00
590.40	53.83
590.56	18.72
590.72	0.00
590.88	51.49
591.04	0.00
591.20	21.06
591.35	74.90
591.51	58.51
591.67	28.09
591.83	42.13
591.99	56.17
592.15	4.68
592.31	39.79
592.46	70.22
592.62	100.64
592.78	56.17
592.94	18.72
593.10	74.90
593.26	28.09
593.41	53.83
593.57	51.49
593.73	7.02
593.89	126.39
594.05	227.03
594.20	318.31
594.36	248.10
594.52	227.03
594.68	124.05
594.84	70.22
594.99	100.64
595.15	65.54
595.31	67.88
595.47	0.00
595.62	0.00
595.78	11.70
595.94	2.34
596.10	28.09
596.25	67.88
596.41	11.70
596.57	0.00
596.73	16.38
596.88	14.04
597.04	140.43
597.20	133.41
597.36	154.48
597.51	161.50
597.67	88.94
597.83	35.11
597.99	37.45
598.14	51.49
598.30	25.75
598.46	58.51
598.61	9.36
598.77	35.11
598.93	79.58
599.09	0.00
599.24	42.13
599.40	56.17
599.56	49.15
599.71	21.06
599.87	42.13
600.03	42.13
600.18	56.17
600.34	65.54
600.50	16.38
600.65	39.79
600.81	86.60
600.97	0.00
601.12	32.77
601.28	11.70
601.44	67.88
601.59	0.00
601.75	77.24
601.91	51.49
602.06	63.19
602.22	30.43
602.37	42.13
602.53	70.22
602.69	126.39
602.84	126.39
603.00	121.71
603.16	81.92
603.31	46.81
603.47	7.02
603.62	63.19
603.78	65.54
603.94	0.00
604.09	44.47
604.25	9.36
604.40	14.04
604.56	14.04
604.71	28.09
604.87	44.47
605.03	21.06
605.18	28.09
605.34	0.00
605.49	65.54
605.65	30.43
605.80	4.68
605.96	42.13
606.12	0.00
606.27	0.00
606.43	2.34
606.58	0.00
606.74	53.83
606.89	177.88
607.05	241.08
607.20	234.05
607.36	266.82
607.51	126.39
607.67	142.77
607.82	133.41
607.98	32.77
608.13	0.00
608.29	84.26
608.44	77.24
608.60	49.15
608.75	0.00
608.91	39.79
609.06	257.46
609.22	386.19
609.37	400.23
609.53	318.31
609.68	243.42
609.84	255.12
609.99	163.84
610.15	79.58
610.30	105.32
610.46	107.66
610.61	86.60
610.76	77.24
610.92	11.70
611.07	2.34
611.23	11.70
611.38	44.47
611.54	46.81
611.69	63.19
611.84	58.51
612.00	9.36
612.15	100.64
612.31	37.45
612.46	21.06
612.62	28.09
612.77	86.60
612.92	131.07
613.08	30.43
613.23	93.62
613.39	39.79
613.54	91.28
613.69	243.42
613.85	503.22
614.00	645.99
614.15	617.90
614.31	447.04
614.46	369.80
614.62	245.76
614.77	170.86
614.92	16.38
615.08	72.56
615.23	46.81
615.38	18.72
615.54	77.24
615.69	49.15
615.84	135.75
616.00	191.92
616.15	182.56
616.30	170.86
616.46	105.32
616.61	107.66
616.76	37.45
616.92	88.94
617.07	91.28
617.22	70.22
617.37	0.00
617.53	53.83
617.68	42.13
617.83	51.49
617.99	35.11
618.14	25.75
618.29	37.45
618.45	0.00
618.60	46.81
618.75	112.35
618.90	35.11
619.06	91.28
619.21	81.92
619.36	53.83
619.51	28.09
619.67	37.45
619.82	49.15
619.97	30.43
620.12	18.72
620.28	0.00
620.43	98.30
620.58	74.90
620.73	0.00
620.89	0.00
621.04	58.51
621.19	72.56
621.34	138.09
621.49	114.69
621.65	182.56
621.80	51.49
621.95	107.66
622.10	51.49
622.25	81.92
622.41	28.09
622.56	72.56
622.71	91.28
622.86	74.90
623.01	44.47
623.16	18.72
623.32	53.83
623.47	25.75
623.62	63.19
623.77	0.00
623.92	46.81
624.07	0.00
624.23	72.56
624.38	58.51
624.53	74.90
624.68	70.22
624.83	7.02
624.98	4.68
625.13	72.56
625.29	0.00
625.44	37.45
625.59	60.85
625.74	0.00
625.89	25.75
626.04	149.79
626.19	217.67
626.34	362.78
626.49	414.27
626.65	266.82
626.80	194.26
626.95	142.77
627.10	39.79
627.25	56.17
627.40	98.30
627.55	51.49
627.70	105.32
627.85	0.00
628.00	65.54
628.15	42.13
628.30	32.77
628.45	0.00
628.60	25.75
628.76	39.79
628.91	100.64
629.06	53.83
629.21	60.85
629.36	0.00
629.51	23.41
629.66	0.00
629.81	84.26
629.96	105.32
630.11	140.43
630.26	177.88
630.41	131.07
630.56	60.85
630.71	37.45
630.86	107.66
631.01	67.88
631.16	67.88
631.31	51.49
631.46	37.45
631.61	77.24
631.76	0.00
631.91	133.41
632.06	30.43
632.21	72.56
632.36	60.85
632.51	16.38
632.66	0.00
632.81	44.47
632.96	173.20
633.10	241.08
633.25	227.03
633.40	262.14
633.55	156.82
633.70	37.45
633.85	121.71
634.00	0.00
634.15	58.51
634.30	25.75
634.45	56.17
634.60	91.28
634.75	23.41
634.90	37.45
635.05	2.34
635.19	65.54
635.34	37.45
635.49	23.41
635.64	35.11
635.79	53.83
635.94	0.00
636.09	35.11
636.24	0.00
636.39	28.09
636.53	23.41
636.68	39.79
636.83	0.00
636.98	0.00
637.13	0.00
637.28	53.83
637.43	88.94
637.57	39.79
637.72	194.26
637.87	346.40
638.02	472.79
638.17	456.40
638.32	304.27
638.46	241.08
638.61	212.99
638.76	159.16
638.91	93.62
639.06	107.66
639.20	32.77
639.35	39.79
639.50	60.85
639.65	220.01
639.80	449.38
639.94	683.44
640.09	688.12
640.24	554.71
640.39	372.15
640.54	308.95
640.68	154.48
640.83	25.75
640.98	65.54
641.13	51.49
641.27	124.05
641.42	0.00
641.57	32.77
641.72	39.79
641.86	53.83
642.01	39.79
642.16	63.19
642.31	7.02
642.45	88.94
642.60	21.06
642.75	0.00
642.90	37.45
643.04	0.00
643.19	14.04
643.34	0.00
643.48	37.45
643.63	86.60
643.78	18.72
643.93	65.54
644.07	42.13
644.22	65.54
644.37	7.02
644.51	0.00
644.66	81.92
644.81	37.45
644.95	11.70
645.10	46.81
645.25	32.77
645.39	128.73
645.54	16.38
645.69	42.13
645.83	37.45
645.98	72.56
646.13	112.35
646.27	0.00
646.42	46.81
646.57	23.41
646.71	7.02
646.86	18.72
647.00	0.00
647.15	28.09
647.30	16.38
647.44	81.92
647.59	86.60
647.74	0.00
647.88	23.41
648.03	86.60
648.17	56.17
648.32	42.13
648.47	11.70
648.61	16.38
648.76	53.83
648.90	0.00
649.05	63.19
649.20	37.45
649.34	30.43
649.49	42.13
649.63	16.38
649.78	49.15
649.92	105.32
650.07	117.03
650.21	217.67
650.36	269.16
650.51	369.80
650.65	360.44
650.80	231.71
650.94	142.77
651.09	72.56
651.23	42.13
651.38	30.43
651.52	79.58
651.67	7.02
651.81	51.49
651.96	77.24
652.10	35.11
652.25	25.75
652.39	0.00
652.54	86.60
652.68	124.05
652.83	117.03
652.97	110.01
653.12	117.03
653.26	140.43
653.41	114.69
653.55	128.73
653.70	140.43
653.84	74.90
653.99	23.41
654.13	51.49
654.27	112.35
654.42	102.98
654.56	0.00
654.71	49.15
654.85	37.45
655.00	74.90
655.14	30.43
655.29	25.75
655.43	23.41
655.57	11.70
655.72	58.51
655.86	30.43
656.01	14.04
656.15	25.75
656.30	0.00
656.44	37.45
656.58	58.51
656.73	4.68
656.87	23.41
657.01	58.51
657.16	81.92
657.30	23.41
657.45	18.72
657.59	0.00
657.73	0.00
657.88	0.00
658.02	74.90
658.16	16.38
658.31	56.17
658.45	25.75
658.60	16.38
658.74	37.45
658.88	79.58
659.03	58.51
659.17	0.00
659.31	49.15
659.46	117.03
659.60	173.20
659.74	145.11
659.89	208.31
660.03	112.35
660.17	46.81
660.32	60.85
660.46	74.90
660.60	32.77
660.74	4.68
660.89	42.13
661.03	91.28
661.17	42.13
661.32	14.04
661.46	0.00
661.60	30.43
661.74	100.64
661.89	63.19
662.03	49.15
662.17	23.41
662.31	67.88
662.46	70.22
662.60	30.43
662.74	2.34
662.88	51.49
663.03	81.92
663.17	30.43
663.31	39.79
663.45	107.66
663.60	81.92
663.74	0.00
663.88	2.34
664.02	49.15
664.17	88.94
664.31	0.00
664.45	67.88
664.59	51.49
664.73	0.00
664.88	49.15
665.02	28.09
665.16	53.83
665.30	28.09
665.44	72.56
665.59	49.15
665.73	18.72
665.87	60.85
666.01	23.41
666.15	7.02
666.29	81.92
666.44	44.47
666.58	60.85
666.72	32.77
666.86	46.81
667.00	95.96
667.14	117.03
667.28	49.15
667.43	184.90
667.57	301.93
667.71	353.42
667.85	266.82
667.99	271.50
668.13	159.16
668.27	65.54
668.41	79.58
668.56	35.11
668.70	49.15
668.84	35.11
668.98	32.77
669.12	0.00
669.26	23.41
669.40	42.13
669.54	84.26
669.68	0.00
669.82	93.62
669.96	105.32
670.10	14.04
670.25	30.43
670.39	63.19
670.53	0.00
670.67	9.36
670.81	49.15
670.95	0.00
671.09	58.51
671.23	194.26
671.37	220.01
671.51	257.46
671.65	187.24
671.79	196.60
671.93	65.54
672.07	168.52
672.21	74.90
672.35	0.00
672.49	65.54
672.63	9.36
672.77	65.54
672.91	81.92
673.05	0.00
673.19	32.77
673.33	11.70
673.47	67.88
673.61	42.13
673.75	7.02
673.89	53.83
674.03	67.88
674.17	72.56
674.31	49.15
674.45	121.71
674.59	149.79
674.73	65.54
674.87	65.54
675.01	0.00
675.15	44.47
675.29	72.56
675.43	18.72
675.56	63.19
675.70	44.47
675.84	77.24
675.98	23.41
676.12	30.43
676.26	35.11
676.40	49.15
676.54	37.45
676.68	56.17
676.82	0.00
676.96	60.85
677.10	49.15
677.23	21.06
677.37	63.19
677.51	60.85
677.65	14.04
677.79	30.43
677.93	65.54
678.07	0.00
678.21	58.51
678.34	91.28
678.48	53.83
678.62	42.13
678.76	72.56
678.90	28.09
679.04	0.00
679.18	21.06
679.31	74.90
679.45	58.51
679.59	98.30
679.73	32.77
679.87	58.51
680.00	9.36
680.14	0.00
680.28	56.17
680.42	0.00
680.56	56.17
680.70	28.09
680.83	21.06
680.97	95.96
681.11	65.54
681.25	32.77
681.39	32.77
681.52	63.19
681.66	0.00
681.80	0.00
681.94	0.00
682.07	112.35
682.21	46.81
682.35	110.01
682.49	0.00
682.62	39.79
682.76	4.68
682.90	2.34
683.04	81.92
683.17	98.30
683.31	0.00
683.45	28.09
683.59	84.26
683.72	100.64
683.86	102.98
684.00	28.09
684.13	30.43
684.27	0.00
684.41	18.72
684.55	102.98
684.68	60.85
684.82	42.13
684.96	14.04
685.09	28.09
685.23	28.09
685.37	79.58
685.50	93.62
685.64	11.70
685.78	0.00
685.91	0.00
686.05	0.00
686.19	37.45
686.32	14.04
686.46	30.43
686.60	72.56
686.73	56.17
686.87	14.04
687.01	25.75
687.14	60.85
687.28	30.43
687.42	58.51
687.55	30.43
687.69	30.43
687.82	44.47
687.96	35.11
688.10	53.83
688.23	14.04
688.37	58.51
688.50	72.56
688.64	93.62
688.78	28.09
688.91	39.79
689.05	28.09
689.18	0.00
689.32	46.81
689.46	21.06
689.59	58.51
689.73	4.68
689.86	0.00
690.00	4.68
690.13	39.79
690.27	9.36
690.41	11.70
690.54	0.00
690.68	2.34
690.81	11.70
690.95	11.70
691.08	67.88
691.22	25.75
691.35	0.00
691.49	95.96
691.62	88.94
691.76	81.92
691.89	58.51
692.03	51.49
692.16	44.47
692.30	0.00
692.43	49.15
692.57	102.98
692.70	173.20
692.84	135.75
692.97	147.45
693.11	133.41
693.24	65.54
693.38	88.94
693.51	53.83
693.65	81.92
693.78	21.06
693.92	51.49
694.05	4.68
694.19	81.92
694.32	42.13
694.45	35.11
694.59	0.00
694.72	46.81
694.86	0.00
694.99	0.00
695.13	0.00
695.26	0.00
695.39	37.45
695.53	46.81
695.66	95.96
695.80	56.17
695.93	18.72
696.07	4.68
696.20	56.17
696.33	74.90
696.47	0.00
696.60	70.22
696.73	117.03
696.87	0.00
697.00	72.56
697.14	0.00
697.27	11.70
697.40	53.83
697.54	0.00
697.67	37.45
697.80	0.00
697.94	74.90
698.07	32.77
698.21	39.79
698.34	35.11
698.47	63.19
698.61	93.62
698.74	2.34
698.87	81.92
699.01	18.72
699.14	65.54
699.27	25.75
699.40	65.54
699.54	72.56
699.67	53.83
699.80	9.36
699.94	67.88
700.07	138.09
700.20	14.04
700.34	42.13
700.47	70.22
700.60	72.56
700.73	32.77
700.87	0.00
701.00	0.00
701.13	0.00
701.26	35.11
701.40	0.00
701.53	42.13
701.66	18.72
701.79	0.00
701.93	0.00
702.06	39.79
702.19	91.28
702.32	114.69
702.46	56.17
702.59	23.41
702.72	51.49
702.85	93.62
702.99	220.01
703.12	220.01
703.25	358.10
703.38	203.63
703.51	154.48
703.65	126.39
703.78	152.13
703.91	60.85
704.04	60.85
704.17	39.79
704.31	0.00
704.44	56.17
704.57	0.00
704.70	23.41
704.83	39.79
704.96	4.68
705.10	67.88
705.23	0.00
>>>>>End Processed Spectral Data<<<<<
