SpectraSuite Data File
++++++++++++++++++++++++++++++++++++
Date: Fri Oct 04 12:13:39 GMT-05:00 2013
User: price-jones
Dark Spectrum Present: No
Reference Spectrum Present: No
Number of Sampled Component Spectra: 1
Spectrometers: USB2+H05261
Integration Time (usec): 10000 (USB2+H05261)
Spectra Averaged: 1 (USB2+H05261)
Boxcar Smoothing: 0 (USB2+H05261)
Correct for Electrical Dark: No (USB2+H05261)
Strobe/Lamp Enabled: No (USB2+H05261)
Correct for Detector Non-linearity: No (USB2+H05261)
Correct for Stray Light: No (USB2+H05261)
Number of Pixels in Processed Spectrum: 2048
>>>>>Begin Processed Spectral Data<<<<<
365.73	4.68
365.92	4.68
366.12	4.68
366.32	0.00
366.52	0.00
366.72	0.00
366.91	0.00
367.11	0.00
367.31	0.00
367.51	0.00
367.70	0.00
367.90	0.00
368.10	0.00
368.30	0.00
368.49	0.00
368.69	0.00
368.89	0.00
369.09	0.00
369.28	0.00
369.48	0.00
369.68	0.00
369.87	0.00
370.07	0.00
370.27	0.00
370.47	0.00
370.66	0.00
370.86	0.00
371.06	0.00
371.25	0.00
371.45	0.00
371.65	0.00
371.84	0.00
372.04	0.00
372.24	28.09
372.44	2.34
372.63	23.41
372.83	42.13
373.03	42.13
373.22	42.13
373.42	0.00
373.62	49.15
373.81	44.47
374.01	100.64
374.21	44.47
374.40	32.77
374.60	18.72
374.79	25.75
374.99	23.41
375.19	21.06
375.38	30.43
375.58	60.85
375.78	18.72
375.97	46.81
376.17	35.11
376.37	32.77
376.56	14.04
376.76	77.24
376.95	46.81
377.15	56.17
377.35	93.62
377.54	16.38
377.74	7.02
377.93	49.15
378.13	30.43
378.33	81.92
378.52	84.26
378.72	16.38
378.91	88.94
379.11	49.15
379.31	0.00
379.50	0.00
379.70	0.00
379.89	16.38
380.09	0.00
380.28	30.43
380.48	25.75
380.68	60.85
380.87	70.22
381.07	7.02
381.26	74.90
381.46	0.00
381.65	18.72
381.85	51.49
382.04	4.68
382.24	0.00
382.43	35.11
382.63	49.15
382.83	30.43
383.02	0.00
383.22	65.54
383.41	18.72
383.61	0.00
383.80	49.15
384.00	0.00
384.19	74.90
384.39	49.15
384.58	79.58
384.78	11.70
384.97	0.00
385.17	51.49
385.36	9.36
385.56	51.49
385.75	49.15
385.95	25.75
386.14	0.00
386.34	39.79
386.53	4.68
386.72	18.72
386.92	18.72
387.11	0.00
387.31	0.00
387.50	49.15
387.70	4.68
387.89	37.45
388.09	0.00
388.28	25.75
388.48	44.47
388.67	9.36
388.86	51.49
389.06	60.85
389.25	0.00
389.45	25.75
389.64	37.45
389.84	0.00
390.03	0.00
390.22	56.17
390.42	25.75
390.61	32.77
390.81	145.11
391.00	4.68
391.19	23.41
391.39	23.41
391.58	0.00
391.78	18.72
391.97	42.13
392.16	35.11
392.36	0.00
392.55	28.09
392.75	7.02
392.94	4.68
393.13	23.41
393.33	0.00
393.52	0.00
393.71	98.30
393.91	0.00
394.10	37.45
394.29	30.43
394.49	0.00
394.68	2.34
394.88	0.00
395.07	44.47
395.26	42.13
395.46	2.34
395.65	11.70
395.84	0.00
396.04	0.00
396.23	9.36
396.42	0.00
396.62	23.41
396.81	37.45
397.00	7.02
397.19	44.47
397.39	79.58
397.58	23.41
397.77	0.00
397.97	4.68
398.16	46.81
398.35	21.06
398.55	37.45
398.74	21.06
398.93	0.00
399.12	4.68
399.32	56.17
399.51	63.19
399.70	4.68
399.90	4.68
400.09	72.56
400.28	42.13
400.47	72.56
400.67	51.49
400.86	60.85
401.05	91.28
401.24	25.75
401.44	0.00
401.63	32.77
401.82	0.00
402.01	9.36
402.21	23.41
402.40	65.54
402.59	0.00
402.78	14.04
402.97	32.77
403.17	53.83
403.36	7.02
403.55	7.02
403.74	81.92
403.93	2.34
404.13	58.51
404.32	21.06
404.51	0.00
404.70	44.47
404.89	16.38
405.09	25.75
405.28	67.88
405.47	28.09
405.66	63.19
405.85	63.19
406.05	7.02
406.24	18.72
406.43	53.83
406.62	0.00
406.81	60.85
407.00	44.47
407.20	25.75
407.39	37.45
407.58	81.92
407.77	81.92
407.96	72.56
408.15	14.04
408.34	0.00
408.54	0.00
408.73	2.34
408.92	65.54
409.11	0.00
409.30	30.43
409.49	0.00
409.68	0.00
409.87	18.72
410.07	100.64
410.26	65.54
410.45	0.00
410.64	56.17
410.83	63.19
411.02	28.09
411.21	74.90
411.40	0.00
411.59	9.36
411.78	63.19
411.98	7.02
412.17	0.00
412.36	77.24
412.55	23.41
412.74	65.54
412.93	56.17
413.12	56.17
413.31	21.06
413.50	56.17
413.69	32.77
413.88	11.70
414.07	88.94
414.26	11.70
414.45	0.00
414.64	39.79
414.83	0.00
415.02	35.11
415.22	30.43
415.41	32.77
415.60	37.45
415.79	49.15
415.98	53.83
416.17	124.05
416.36	49.15
416.55	25.75
416.74	63.19
416.93	79.58
417.12	72.56
417.31	25.75
417.50	23.41
417.69	0.00
417.88	37.45
418.07	91.28
418.26	63.19
418.45	28.09
418.64	56.17
418.83	79.58
419.02	100.64
419.21	88.94
419.39	16.38
419.58	4.68
419.77	56.17
419.96	117.03
420.15	63.19
420.34	51.49
420.53	35.11
420.72	63.19
420.91	42.13
421.10	119.37
421.29	72.56
421.48	4.68
421.67	74.90
421.86	49.15
422.05	0.00
422.24	49.15
422.43	18.72
422.61	70.22
422.80	42.13
422.99	58.51
423.18	30.43
423.37	95.96
423.56	21.06
423.75	74.90
423.94	84.26
424.13	58.51
424.32	0.00
424.50	88.94
424.69	0.00
424.88	32.77
425.07	42.13
425.26	65.54
425.45	98.30
425.64	74.90
425.83	28.09
426.01	0.00
426.20	0.00
426.39	102.98
426.58	88.94
426.77	0.00
426.96	53.83
427.15	51.49
427.33	44.47
427.52	32.77
427.71	53.83
427.90	51.49
428.09	35.11
428.28	21.06
428.46	0.00
428.65	56.17
428.84	110.01
429.03	30.43
429.22	18.72
429.40	44.47
429.59	23.41
429.78	4.68
429.97	11.70
430.16	39.79
430.34	0.00
430.53	0.00
430.72	65.54
430.91	23.41
431.10	21.06
431.28	30.43
431.47	0.00
431.66	9.36
431.85	149.79
432.03	32.77
432.22	67.88
432.41	14.04
432.60	0.00
432.79	60.85
432.97	168.52
433.16	18.72
433.35	84.26
433.54	67.88
433.72	25.75
433.91	0.00
434.10	67.88
434.28	25.75
434.47	105.32
434.66	28.09
434.85	16.38
435.03	0.00
435.22	30.43
435.41	65.54
435.59	91.28
435.78	30.43
435.97	72.56
436.16	32.77
436.34	42.13
436.53	93.62
436.72	0.00
436.90	42.13
437.09	77.24
437.28	0.00
437.46	23.41
437.65	42.13
437.84	0.00
438.02	86.60
438.21	25.75
438.40	39.79
438.58	53.83
438.77	60.85
438.96	60.85
439.14	105.32
439.33	95.96
439.52	0.00
439.70	39.79
439.89	72.56
440.08	0.00
440.26	46.81
440.45	56.17
440.63	28.09
440.82	51.49
441.01	18.72
441.19	0.00
441.38	77.24
441.57	0.00
441.75	56.17
441.94	35.11
442.12	88.94
442.31	9.36
442.50	9.36
442.68	42.13
442.87	9.36
443.05	67.88
443.24	51.49
443.43	30.43
443.61	44.47
443.80	84.26
443.98	56.17
444.17	4.68
444.35	44.47
444.54	0.00
444.73	35.11
444.91	46.81
445.10	0.00
445.28	105.32
445.47	25.75
445.65	65.54
445.84	67.88
446.02	56.17
446.21	25.75
446.39	77.24
446.58	95.96
446.77	105.32
446.95	88.94
447.14	121.71
447.32	74.90
447.51	91.28
447.69	39.79
447.88	79.58
448.06	56.17
448.25	126.39
448.43	58.51
448.62	58.51
448.80	28.09
448.99	93.62
449.17	72.56
449.36	23.41
449.54	72.56
449.73	42.13
449.91	46.81
450.10	91.28
450.28	60.85
450.46	102.98
450.65	72.56
450.83	0.00
451.02	84.26
451.20	16.38
451.39	81.92
451.57	56.17
451.76	32.77
451.94	63.19
452.13	67.88
452.31	72.56
452.49	81.92
452.68	107.66
452.86	42.13
453.05	77.24
453.23	95.96
453.42	53.83
453.60	30.43
453.78	95.96
453.97	0.00
454.15	86.60
454.34	58.51
454.52	0.00
454.70	98.30
454.89	23.41
455.07	79.58
455.26	0.00
455.44	65.54
455.62	37.45
455.81	28.09
455.99	35.11
456.17	11.70
456.36	58.51
456.54	77.24
456.73	58.51
456.91	70.22
457.09	35.11
457.28	18.72
457.46	63.19
457.64	93.62
457.83	53.83
458.01	0.00
458.19	46.81
458.38	126.39
458.56	65.54
458.74	53.83
458.93	79.58
459.11	67.88
459.29	58.51
459.48	53.83
459.66	2.34
459.84	117.03
460.03	56.17
460.21	42.13
460.39	98.30
460.57	74.90
460.76	0.00
460.94	30.43
461.12	0.00
461.31	65.54
461.49	30.43
461.67	74.90
461.85	18.72
462.04	46.81
462.22	65.54
462.40	77.24
462.59	112.35
462.77	63.19
462.95	58.51
463.13	79.58
463.32	32.77
463.50	49.15
463.68	18.72
463.86	18.72
464.05	67.88
464.23	74.90
464.41	133.41
464.59	0.00
464.78	100.64
464.96	32.77
465.14	39.79
465.32	63.19
465.50	93.62
465.69	63.19
465.87	16.38
466.05	21.06
466.23	16.38
466.41	35.11
466.60	56.17
466.78	63.19
466.96	100.64
467.14	74.90
467.32	51.49
467.51	95.96
467.69	65.54
467.87	0.00
468.05	102.98
468.23	39.79
468.41	81.92
468.60	51.49
468.78	81.92
468.96	93.62
469.14	102.98
469.32	2.34
469.50	35.11
469.69	70.22
469.87	7.02
470.05	30.43
470.23	30.43
470.41	65.54
470.59	86.60
470.77	35.11
470.95	105.32
471.14	56.17
471.32	0.00
471.50	37.45
471.68	93.62
471.86	63.19
472.04	28.09
472.22	4.68
472.40	84.26
472.58	42.13
472.77	42.13
472.95	0.00
473.13	0.00
473.31	63.19
473.49	135.75
473.67	30.43
473.85	49.15
474.03	79.58
474.21	93.62
474.39	72.56
474.57	0.00
474.75	98.30
474.93	53.83
475.12	72.56
475.30	81.92
475.48	74.90
475.66	119.37
475.84	53.83
476.02	0.00
476.20	70.22
476.38	112.35
476.56	25.75
476.74	70.22
476.92	77.24
477.10	70.22
477.28	124.05
477.46	60.85
477.64	126.39
477.82	42.13
478.00	107.66
478.18	53.83
478.36	0.00
478.54	70.22
478.72	102.98
478.90	81.92
479.08	58.51
479.26	77.24
479.44	72.56
479.62	138.09
479.80	110.01
479.98	79.58
480.16	0.00
480.34	91.28
480.52	102.98
480.70	86.60
480.88	32.77
481.06	107.66
481.24	18.72
481.41	35.11
481.59	121.71
481.77	135.75
481.95	49.15
482.13	25.75
482.31	72.56
482.49	81.92
482.67	46.81
482.85	88.94
483.03	44.47
483.21	0.00
483.39	53.83
483.57	21.06
483.74	25.75
483.92	7.02
484.10	67.88
484.28	149.79
484.46	0.00
484.64	74.90
484.82	63.19
485.00	88.94
485.18	56.17
485.35	93.62
485.53	58.51
485.71	77.24
485.89	67.88
486.07	88.94
486.25	11.70
486.43	30.43
486.61	0.00
486.78	51.49
486.96	7.02
487.14	133.41
487.32	67.88
487.50	0.00
487.68	93.62
487.85	60.85
488.03	79.58
488.21	39.79
488.39	53.83
488.57	74.90
488.75	107.66
488.92	98.30
489.10	49.15
489.28	131.07
489.46	91.28
489.64	63.19
489.81	84.26
489.99	32.77
490.17	56.17
490.35	86.60
490.53	81.92
490.70	51.49
490.88	39.79
491.06	60.85
491.24	88.94
491.41	65.54
491.59	119.37
491.77	72.56
491.95	14.04
492.13	135.75
492.30	0.00
492.48	44.47
492.66	91.28
492.84	44.47
493.01	44.47
493.19	74.90
493.37	112.35
493.54	77.24
493.72	46.81
493.90	67.88
494.08	126.39
494.25	56.17
494.43	67.88
494.61	7.02
494.79	0.00
494.96	112.35
495.14	100.64
495.32	46.81
495.49	65.54
495.67	49.15
495.85	98.30
496.02	49.15
496.20	100.64
496.38	98.30
496.55	60.85
496.73	107.66
496.91	65.54
497.09	30.43
497.26	72.56
497.44	32.77
497.62	86.60
497.79	86.60
497.97	63.19
498.14	102.98
498.32	30.43
498.50	23.41
498.67	63.19
498.85	18.72
499.03	42.13
499.20	53.83
499.38	105.32
499.56	145.11
499.73	70.22
499.91	49.15
500.08	84.26
500.26	35.11
500.44	56.17
500.61	95.96
500.79	63.19
500.97	98.30
501.14	95.96
501.32	84.26
501.49	107.66
501.67	133.41
501.84	35.11
502.02	28.09
502.20	88.94
502.37	107.66
502.55	84.26
502.72	74.90
502.90	70.22
503.07	70.22
503.25	53.83
503.43	65.54
503.60	58.51
503.78	42.13
503.95	60.85
504.13	67.88
504.30	56.17
504.48	140.43
504.65	2.34
504.83	63.19
505.01	142.77
505.18	86.60
505.36	88.94
505.53	51.49
505.71	77.24
505.88	53.83
506.06	107.66
506.23	117.03
506.41	70.22
506.58	37.45
506.76	67.88
506.93	4.68
507.11	121.71
507.28	42.13
507.46	11.70
507.63	163.84
507.81	53.83
507.98	105.32
508.16	74.90
508.33	0.00
508.50	0.00
508.68	91.28
508.85	30.43
509.03	147.45
509.20	30.43
509.38	121.71
509.55	67.88
509.73	84.26
509.90	110.01
510.08	93.62
510.25	100.64
510.42	16.38
510.60	88.94
510.77	44.47
510.95	56.17
511.12	102.98
511.30	156.82
511.47	77.24
511.64	156.82
511.82	77.24
511.99	65.54
512.17	159.16
512.34	84.26
512.51	35.11
512.69	77.24
512.86	32.77
513.04	39.79
513.21	14.04
513.38	133.41
513.56	121.71
513.73	39.79
513.90	44.47
514.08	72.56
514.25	65.54
514.43	105.32
514.60	16.38
514.77	30.43
514.95	91.28
515.12	74.90
515.29	58.51
515.47	65.54
515.64	93.62
515.81	91.28
515.99	84.26
516.16	79.58
516.33	49.15
516.51	16.38
516.68	81.92
516.85	133.41
517.03	46.81
517.20	70.22
517.37	44.47
517.54	63.19
517.72	49.15
517.89	63.19
518.06	35.11
518.24	102.98
518.41	138.09
518.58	0.00
518.75	84.26
518.93	110.01
519.10	86.60
519.27	98.30
519.45	74.90
519.62	98.30
519.79	135.75
519.96	21.06
520.14	133.41
520.31	81.92
520.48	84.26
520.65	67.88
520.83	110.01
521.00	110.01
521.17	81.92
521.34	119.37
521.52	46.81
521.69	63.19
521.86	65.54
522.03	95.96
522.20	35.11
522.38	88.94
522.55	79.58
522.72	58.51
522.89	112.35
523.07	102.98
523.24	0.00
523.41	121.71
523.58	65.54
523.75	46.81
523.92	112.35
524.10	91.28
524.27	84.26
524.44	110.01
524.61	37.45
524.78	124.05
524.96	110.01
525.13	21.06
525.30	72.56
525.47	117.03
525.64	95.96
525.81	121.71
525.98	21.06
526.16	121.71
526.33	51.49
526.50	23.41
526.67	37.45
526.84	72.56
527.01	65.54
527.18	25.75
527.36	91.28
527.53	32.77
527.70	95.96
527.87	95.96
528.04	46.81
528.21	79.58
528.38	110.01
528.55	138.09
528.72	72.56
528.89	14.04
529.07	135.75
529.24	79.58
529.41	53.83
529.58	81.92
529.75	126.39
529.92	93.62
530.09	91.28
530.26	81.92
530.43	100.64
530.60	70.22
530.77	51.49
530.94	56.17
531.11	124.05
531.28	49.15
531.46	95.96
531.63	149.79
531.80	93.62
531.97	70.22
532.14	91.28
532.31	102.98
532.48	86.60
532.65	88.94
532.82	98.30
532.99	100.64
533.16	53.83
533.33	105.32
533.50	74.90
533.67	42.13
533.84	63.19
534.01	72.56
534.18	91.28
534.35	110.01
534.52	84.26
534.69	102.98
534.86	159.16
535.03	44.47
535.20	65.54
535.37	53.83
535.54	72.56
535.71	42.13
535.88	46.81
536.05	39.79
536.22	53.83
536.38	110.01
536.55	35.11
536.72	63.19
536.89	70.22
537.06	138.09
537.23	166.18
537.40	86.60
537.57	84.26
537.74	147.45
537.91	67.88
538.08	14.04
538.25	49.15
538.42	28.09
538.59	149.79
538.75	23.41
538.92	51.49
539.09	182.56
539.26	35.11
539.43	74.90
539.60	98.30
539.77	60.85
539.94	67.88
540.11	81.92
540.28	91.28
540.44	182.56
540.61	119.37
540.78	42.13
540.95	63.19
541.12	0.00
541.29	51.49
541.46	28.09
541.62	126.39
541.79	126.39
541.96	98.30
542.13	88.94
542.30	44.47
542.47	72.56
542.63	112.35
542.80	63.19
542.97	117.03
543.14	56.17
543.31	88.94
543.48	124.05
543.64	88.94
543.81	138.09
543.98	72.56
544.15	70.22
544.32	114.69
544.48	28.09
544.65	9.36
544.82	21.06
544.99	51.49
545.16	49.15
545.32	110.01
545.49	91.28
545.66	44.47
545.83	32.77
546.00	91.28
546.16	110.01
546.33	205.97
546.50	133.41
546.67	35.11
546.83	35.11
547.00	46.81
547.17	11.70
547.34	128.73
547.50	98.30
547.67	84.26
547.84	30.43
548.00	131.07
548.17	147.45
548.34	79.58
548.51	67.88
548.67	119.37
548.84	98.30
549.01	49.15
549.18	53.83
549.34	79.58
549.51	72.56
549.68	124.05
549.84	0.00
550.01	63.19
550.18	135.75
550.34	126.39
550.51	72.56
550.68	95.96
550.84	35.11
551.01	79.58
551.18	77.24
551.34	91.28
551.51	135.75
551.68	42.13
551.84	124.05
552.01	100.64
552.18	135.75
552.34	72.56
552.51	102.98
552.68	140.43
552.84	32.77
553.01	100.64
553.18	46.81
553.34	93.62
553.51	60.85
553.67	30.43
553.84	114.69
554.01	49.15
554.17	14.04
554.34	35.11
554.51	142.77
554.67	86.60
554.84	102.98
555.00	135.75
555.17	126.39
555.33	107.66
555.50	149.79
555.67	131.07
555.83	142.77
556.00	11.70
556.16	145.11
556.33	124.05
556.50	86.60
556.66	93.62
556.83	42.13
556.99	135.75
557.16	67.88
557.32	105.32
557.49	70.22
557.65	100.64
557.82	70.22
557.98	86.60
558.15	110.01
558.32	98.30
558.48	91.28
558.65	72.56
558.81	46.81
558.98	79.58
559.14	133.41
559.31	70.22
559.47	46.81
559.64	102.98
559.80	58.51
559.97	30.43
560.13	163.84
560.30	79.58
560.46	95.96
560.63	81.92
560.79	105.32
560.96	77.24
561.12	21.06
561.29	35.11
561.45	72.56
561.61	74.90
561.78	135.75
561.94	49.15
562.11	70.22
562.27	39.79
562.44	72.56
562.60	110.01
562.77	60.85
562.93	135.75
563.10	135.75
563.26	95.96
563.42	107.66
563.59	79.58
563.75	147.45
563.92	93.62
564.08	65.54
564.24	84.26
564.41	100.64
564.57	56.17
564.74	56.17
564.90	74.90
565.07	98.30
565.23	121.71
565.39	9.36
565.56	37.45
565.72	112.35
565.88	117.03
566.05	119.37
566.21	53.83
566.38	63.19
566.54	81.92
566.70	95.96
566.87	28.09
567.03	46.81
567.19	77.24
567.36	30.43
567.52	112.35
567.68	117.03
567.85	88.94
568.01	124.05
568.17	65.54
568.34	56.17
568.50	81.92
568.66	126.39
568.83	105.32
568.99	70.22
569.15	42.13
569.32	74.90
569.48	7.02
569.64	37.45
569.81	60.85
569.97	138.09
570.13	60.85
570.30	46.81
570.46	102.98
570.62	25.75
570.78	51.49
570.95	124.05
571.11	70.22
571.27	44.47
571.43	56.17
571.60	86.60
571.76	70.22
571.92	67.88
572.09	114.69
572.25	72.56
572.41	138.09
572.57	117.03
572.74	110.01
572.90	81.92
573.06	95.96
573.22	95.96
573.38	63.19
573.55	53.83
573.71	77.24
573.87	63.19
574.03	126.39
574.20	121.71
574.36	128.73
574.52	39.79
574.68	56.17
574.84	72.56
575.01	77.24
575.17	58.51
575.33	23.41
575.49	42.13
575.65	60.85
575.82	44.47
575.98	107.66
576.14	102.98
576.30	46.81
576.46	135.75
576.62	70.22
576.79	49.15
576.95	119.37
577.11	25.75
577.27	44.47
577.43	28.09
577.59	39.79
577.75	159.16
577.92	21.06
578.08	58.51
578.24	44.47
578.40	2.34
578.56	84.26
578.72	56.17
578.88	77.24
579.04	77.24
579.21	0.00
579.37	67.88
579.53	51.49
579.69	79.58
579.85	42.13
580.01	121.71
580.17	49.15
580.33	39.79
580.49	7.02
580.65	84.26
580.82	72.56
580.98	65.54
581.14	70.22
581.30	53.83
581.46	58.51
581.62	42.13
581.78	95.96
581.94	32.77
582.10	56.17
582.26	63.19
582.42	88.94
582.58	65.54
582.74	140.43
582.90	84.26
583.06	46.81
583.22	81.92
583.38	37.45
583.54	49.15
583.70	112.35
583.86	32.77
584.02	30.43
584.18	135.75
584.34	140.43
584.50	131.07
584.66	98.30
584.82	67.88
584.98	88.94
585.14	60.85
585.30	98.30
585.46	114.69
585.62	112.35
585.78	44.47
585.94	79.58
586.10	81.92
586.26	112.35
586.42	121.71
586.58	70.22
586.74	147.45
586.90	86.60
587.06	49.15
587.22	46.81
587.38	74.90
587.54	65.54
587.70	25.75
587.86	18.72
588.02	37.45
588.18	84.26
588.34	77.24
588.49	74.90
588.65	7.02
588.81	70.22
588.97	53.83
589.13	32.77
589.29	98.30
589.45	84.26
589.61	65.54
589.77	70.22
589.93	51.49
590.08	70.22
590.24	72.56
590.40	84.26
590.56	60.85
590.72	93.62
590.88	91.28
591.04	84.26
591.20	0.00
591.35	79.58
591.51	102.98
591.67	28.09
591.83	23.41
591.99	60.85
592.15	81.92
592.31	156.82
592.46	100.64
592.62	117.03
592.78	88.94
592.94	84.26
593.10	63.19
593.26	81.92
593.41	81.92
593.57	95.96
593.73	107.66
593.89	112.35
594.05	88.94
594.20	0.00
594.36	70.22
594.52	42.13
594.68	79.58
594.84	72.56
594.99	110.01
595.15	67.88
595.31	86.60
595.47	74.90
595.62	100.64
595.78	30.43
595.94	11.70
596.10	81.92
596.25	81.92
596.41	46.81
596.57	70.22
596.73	79.58
596.88	42.13
597.04	46.81
597.20	91.28
597.36	93.62
597.51	117.03
597.67	91.28
597.83	39.79
597.99	86.60
598.14	16.38
598.30	58.51
598.46	53.83
598.61	149.79
598.77	119.37
598.93	95.96
599.09	28.09
599.24	74.90
599.40	81.92
599.56	53.83
599.71	0.00
599.87	86.60
600.03	70.22
600.18	88.94
600.34	117.03
600.50	105.32
600.65	37.45
600.81	79.58
600.97	159.16
601.12	128.73
601.28	39.79
601.44	35.11
601.59	51.49
601.75	72.56
601.91	46.81
602.06	117.03
602.22	58.51
602.37	23.41
602.53	21.06
602.69	51.49
602.84	0.00
603.00	138.09
603.16	53.83
603.31	25.75
603.47	56.17
603.62	42.13
603.78	128.73
603.94	84.26
604.09	39.79
604.25	0.00
604.40	44.47
604.56	110.01
604.71	67.88
604.87	14.04
605.03	67.88
605.18	93.62
605.34	4.68
605.49	117.03
605.65	93.62
605.80	117.03
605.96	110.01
606.12	84.26
606.27	117.03
606.43	117.03
606.58	102.98
606.74	119.37
606.89	51.49
607.05	30.43
607.20	114.69
607.36	60.85
607.51	42.13
607.67	16.38
607.82	46.81
607.98	112.35
608.13	93.62
608.29	72.56
608.44	100.64
608.60	88.94
608.75	25.75
608.91	30.43
609.06	7.02
609.22	95.96
609.37	100.64
609.53	60.85
609.68	79.58
609.84	67.88
609.99	37.45
610.15	79.58
610.30	37.45
610.46	65.54
610.61	70.22
610.76	70.22
610.92	149.79
611.07	67.88
611.23	95.96
611.38	86.60
611.54	32.77
611.69	72.56
611.84	117.03
612.00	46.81
612.15	65.54
612.31	14.04
612.46	44.47
612.62	86.60
612.77	0.00
612.92	72.56
613.08	44.47
613.23	46.81
613.39	74.90
613.54	88.94
613.69	21.06
613.85	7.02
614.00	91.28
614.15	88.94
614.31	119.37
614.46	72.56
614.62	51.49
614.77	49.15
614.92	65.54
615.08	49.15
615.23	72.56
615.38	53.83
615.54	11.70
615.69	88.94
615.84	0.00
616.00	7.02
616.15	56.17
616.30	7.02
616.46	37.45
616.61	30.43
616.76	51.49
616.92	32.77
617.07	0.00
617.22	84.26
617.37	49.15
617.53	102.98
617.68	16.38
617.83	74.90
617.99	9.36
618.14	14.04
618.29	30.43
618.45	79.58
618.60	9.36
618.75	46.81
618.90	32.77
619.06	9.36
619.21	42.13
619.36	74.90
619.51	65.54
619.67	110.01
619.82	79.58
619.97	0.00
620.12	98.30
620.28	46.81
620.43	53.83
620.58	91.28
620.73	51.49
620.89	7.02
621.04	49.15
621.19	93.62
621.34	37.45
621.49	23.41
621.65	81.92
621.80	51.49
621.95	81.92
622.10	93.62
622.25	32.77
622.41	30.43
622.56	105.32
622.71	18.72
622.86	138.09
623.01	119.37
623.16	49.15
623.32	70.22
623.47	49.15
623.62	60.85
623.77	0.00
623.92	140.43
624.07	30.43
624.23	0.00
624.38	2.34
624.53	0.00
624.68	114.69
624.83	16.38
624.98	72.56
625.13	91.28
625.29	86.60
625.44	37.45
625.59	44.47
625.74	124.05
625.89	23.41
626.04	58.51
626.19	105.32
626.34	25.75
626.49	67.88
626.65	93.62
626.80	105.32
626.95	39.79
627.10	95.96
627.25	58.51
627.40	112.35
627.55	42.13
627.70	56.17
627.85	23.41
628.00	30.43
628.15	0.00
628.30	23.41
628.45	70.22
628.60	84.26
628.76	58.51
628.91	30.43
629.06	49.15
629.21	65.54
629.36	67.88
629.51	11.70
629.66	25.75
629.81	39.79
629.96	0.00
630.11	70.22
630.26	0.00
630.41	67.88
630.56	74.90
630.71	93.62
630.86	35.11
631.01	49.15
631.16	44.47
631.31	74.90
631.46	72.56
631.61	56.17
631.76	25.75
631.91	77.24
632.06	81.92
632.21	14.04
632.36	23.41
632.51	18.72
632.66	9.36
632.81	42.13
632.96	4.68
633.10	35.11
633.25	65.54
633.40	81.92
633.55	23.41
633.70	49.15
633.85	67.88
634.00	74.90
634.15	44.47
634.30	81.92
634.45	88.94
634.60	53.83
634.75	65.54
634.90	86.60
635.05	63.19
635.19	70.22
635.34	67.88
635.49	145.11
635.64	49.15
635.79	25.75
635.94	25.75
636.09	93.62
636.24	95.96
636.39	60.85
636.53	107.66
636.68	32.77
636.83	77.24
636.98	88.94
637.13	124.05
637.28	30.43
637.43	67.88
637.57	63.19
637.72	86.60
637.87	124.05
638.02	126.39
638.17	49.15
638.32	56.17
638.46	79.58
638.61	93.62
638.76	0.00
638.91	107.66
639.06	56.17
639.20	18.72
639.35	28.09
639.50	100.64
639.65	44.47
639.80	39.79
639.94	93.62
640.09	9.36
640.24	58.51
640.39	60.85
640.54	44.47
640.68	100.64
640.83	107.66
640.98	30.43
641.13	102.98
641.27	35.11
641.42	30.43
641.57	9.36
641.72	49.15
641.86	84.26
642.01	72.56
642.16	42.13
642.31	60.85
642.45	37.45
642.60	138.09
642.75	86.60
642.90	49.15
643.04	0.00
643.19	53.83
643.34	0.00
643.48	32.77
643.63	63.19
643.78	63.19
643.93	0.00
644.07	53.83
644.22	63.19
644.37	42.13
644.51	49.15
644.66	81.92
644.81	49.15
644.95	23.41
645.10	23.41
645.25	39.79
645.39	25.75
645.54	0.00
645.69	154.48
645.83	49.15
645.98	56.17
646.13	100.64
646.27	72.56
646.42	60.85
646.57	44.47
646.71	86.60
646.86	91.28
647.00	32.77
647.15	9.36
647.30	4.68
647.44	58.51
647.59	100.64
647.74	74.90
647.88	35.11
648.03	35.11
648.17	18.72
648.32	63.19
648.47	98.30
648.61	70.22
648.76	56.17
648.90	0.00
649.05	74.90
649.20	65.54
649.34	93.62
649.49	63.19
649.63	67.88
649.78	30.43
649.92	77.24
650.07	65.54
650.21	28.09
650.36	84.26
650.51	30.43
650.65	70.22
650.80	60.85
650.94	35.11
651.09	0.00
651.23	35.11
651.38	18.72
651.52	37.45
651.67	51.49
651.81	11.70
651.96	30.43
652.10	9.36
652.25	0.00
652.39	44.47
652.54	74.90
652.68	88.94
652.83	60.85
652.97	60.85
653.12	25.75
653.26	60.85
653.41	9.36
653.55	46.81
653.70	60.85
653.84	30.43
653.99	18.72
654.13	105.32
654.27	74.90
654.42	44.47
654.56	77.24
654.71	42.13
654.85	119.37
655.00	56.17
655.14	58.51
655.29	25.75
655.43	28.09
655.57	14.04
655.72	65.54
655.86	25.75
656.01	0.00
656.15	58.51
656.30	25.75
656.44	18.72
656.58	46.81
656.73	58.51
656.87	16.38
657.01	14.04
657.16	67.88
657.30	0.00
657.45	56.17
657.59	9.36
657.73	58.51
657.88	63.19
658.02	46.81
658.16	79.58
658.31	37.45
658.45	60.85
658.60	23.41
658.74	49.15
658.88	81.92
659.03	51.49
659.17	95.96
659.31	18.72
659.46	67.88
659.60	114.69
659.74	86.60
659.89	72.56
660.03	49.15
660.17	25.75
660.32	46.81
660.46	124.05
660.60	152.13
660.74	0.00
660.89	16.38
661.03	32.77
661.17	11.70
661.32	56.17
661.46	39.79
661.60	67.88
661.74	11.70
661.89	23.41
662.03	7.02
662.17	128.73
662.31	56.17
662.46	28.09
662.60	35.11
662.74	42.13
662.88	46.81
663.03	95.96
663.17	2.34
663.31	93.62
663.45	74.90
663.60	81.92
663.74	0.00
663.88	23.41
664.02	4.68
664.17	42.13
664.31	0.00
664.45	39.79
664.59	65.54
664.73	67.88
664.88	86.60
665.02	35.11
665.16	28.09
665.30	18.72
665.44	0.00
665.59	7.02
665.73	2.34
665.87	53.83
666.01	16.38
666.15	110.01
666.29	77.24
666.44	49.15
666.58	114.69
666.72	58.51
666.86	63.19
667.00	70.22
667.14	42.13
667.28	30.43
667.43	81.92
667.57	21.06
667.71	77.24
667.85	0.00
667.99	23.41
668.13	0.00
668.27	0.00
668.41	58.51
668.56	18.72
668.70	35.11
668.84	98.30
668.98	102.98
669.12	4.68
669.26	18.72
669.40	0.00
669.54	51.49
669.68	58.51
669.82	88.94
669.96	86.60
670.10	88.94
670.25	49.15
670.39	84.26
670.53	88.94
670.67	51.49
670.81	23.41
670.95	49.15
671.09	37.45
671.23	58.51
671.37	63.19
671.51	37.45
671.65	23.41
671.79	32.77
671.93	14.04
672.07	0.00
672.21	21.06
672.35	74.90
672.49	44.47
672.63	46.81
672.77	56.17
672.91	117.03
673.05	91.28
673.19	44.47
673.33	18.72
673.47	0.00
673.61	32.77
673.75	18.72
673.89	32.77
674.03	49.15
674.17	72.56
674.31	14.04
674.45	4.68
674.59	0.00
674.73	28.09
674.87	18.72
675.01	86.60
675.15	117.03
675.29	0.00
675.43	79.58
675.56	102.98
675.70	51.49
675.84	25.75
675.98	65.54
676.12	42.13
676.26	28.09
676.40	0.00
676.54	16.38
676.68	28.09
676.82	0.00
676.96	28.09
677.10	60.85
677.23	39.79
677.37	37.45
677.51	30.43
677.65	0.00
677.79	81.92
677.93	77.24
678.07	0.00
678.21	53.83
678.34	86.60
678.48	49.15
678.62	35.11
678.76	37.45
678.90	32.77
679.04	4.68
679.18	70.22
679.31	0.00
679.45	46.81
679.59	51.49
679.73	74.90
679.87	91.28
680.00	37.45
680.14	30.43
680.28	74.90
680.42	70.22
680.56	93.62
680.70	70.22
680.83	63.19
680.97	9.36
681.11	72.56
681.25	42.13
681.39	65.54
681.52	79.58
681.66	74.90
681.80	81.92
681.94	39.79
682.07	42.13
682.21	37.45
682.35	16.38
682.49	39.79
682.62	18.72
682.76	65.54
682.90	60.85
683.04	18.72
683.17	9.36
683.31	4.68
683.45	46.81
683.59	86.60
683.72	0.00
683.86	63.19
684.00	88.94
684.13	63.19
684.27	95.96
684.41	21.06
684.55	0.00
684.68	0.00
684.82	49.15
684.96	51.49
685.09	0.00
685.23	18.72
685.37	74.90
685.50	56.17
685.64	86.60
685.78	98.30
685.91	30.43
686.05	16.38
686.19	37.45
686.32	95.96
686.46	21.06
686.60	44.47
686.73	49.15
686.87	9.36
687.01	74.90
687.14	35.11
687.28	42.13
687.42	21.06
687.55	88.94
687.69	112.35
687.82	63.19
687.96	86.60
688.10	117.03
688.23	25.75
688.37	49.15
688.50	4.68
688.64	72.56
688.78	37.45
688.91	35.11
689.05	72.56
689.18	51.49
689.32	93.62
689.46	112.35
689.59	21.06
689.73	39.79
689.86	23.41
690.00	67.88
690.13	7.02
690.27	23.41
690.41	44.47
690.54	81.92
690.68	2.34
690.81	9.36
690.95	0.00
691.08	0.00
691.22	0.00
691.35	0.00
691.49	16.38
691.62	4.68
691.76	60.85
691.89	21.06
692.03	0.00
692.16	4.68
692.30	2.34
692.43	51.49
692.57	35.11
692.70	70.22
692.84	46.81
692.97	0.00
693.11	16.38
693.24	35.11
693.38	9.36
693.51	60.85
693.65	4.68
693.78	119.37
693.92	0.00
694.05	93.62
694.19	112.35
694.32	60.85
694.45	112.35
694.59	0.00
694.72	0.00
694.86	28.09
694.99	74.90
695.13	4.68
695.26	0.00
695.39	7.02
695.53	0.00
695.66	37.45
695.80	7.02
695.93	77.24
696.07	46.81
696.20	77.24
696.33	32.77
696.47	0.00
696.60	39.79
696.73	81.92
696.87	49.15
697.00	49.15
697.14	42.13
697.27	60.85
697.40	39.79
697.54	58.51
697.67	2.34
697.80	0.00
697.94	0.00
698.07	0.00
698.21	23.41
698.34	0.00
698.47	0.00
698.61	56.17
698.74	0.00
698.87	58.51
699.01	37.45
699.14	0.00
699.27	58.51
699.40	91.28
699.54	67.88
699.67	28.09
699.80	74.90
699.94	42.13
700.07	4.68
700.20	7.02
700.34	35.11
700.47	7.02
700.60	4.68
700.73	0.00
700.87	0.00
701.00	2.34
701.13	18.72
701.26	0.00
701.40	74.90
701.53	70.22
701.66	42.13
701.79	0.00
701.93	0.00
702.06	30.43
702.19	0.00
702.32	65.54
702.46	9.36
702.59	0.00
702.72	98.30
702.85	0.00
702.99	42.13
703.12	53.83
703.25	16.38
703.38	21.06
703.51	14.04
703.65	23.41
703.78	70.22
703.91	0.00
704.04	2.34
704.17	0.00
704.31	0.00
704.44	7.02
704.57	0.00
704.70	18.72
704.83	25.75
704.96	74.90
705.10	0.00
705.23	56.17
>>>>>End Processed Spectral Data<<<<<
