SpectraSuite Data File
++++++++++++++++++++++++++++++++++++
Date: Fri Oct 04 12:13:36 GMT-05:00 2013
User: price-jones
Dark Spectrum Present: No
Reference Spectrum Present: No
Number of Sampled Component Spectra: 1
Spectrometers: USB2+H05261
Integration Time (usec): 10000 (USB2+H05261)
Spectra Averaged: 1 (USB2+H05261)
Boxcar Smoothing: 0 (USB2+H05261)
Correct for Electrical Dark: No (USB2+H05261)
Strobe/Lamp Enabled: No (USB2+H05261)
Correct for Detector Non-linearity: No (USB2+H05261)
Correct for Stray Light: No (USB2+H05261)
Number of Pixels in Processed Spectrum: 2048
>>>>>Begin Processed Spectral Data<<<<<
365.73	0.00
365.92	0.00
366.12	0.00
366.32	0.00
366.52	0.00
366.72	0.00
366.91	0.00
367.11	0.00
367.31	0.00
367.51	0.00
367.70	0.00
367.90	0.00
368.10	0.00
368.30	0.00
368.49	0.00
368.69	0.00
368.89	0.00
369.09	0.00
369.28	0.00
369.48	0.00
369.68	0.00
369.87	0.00
370.07	0.00
370.27	0.00
370.47	0.00
370.66	0.00
370.86	0.00
371.06	0.00
371.25	0.00
371.45	53.83
371.65	0.00
371.84	0.00
372.04	60.85
372.24	0.00
372.44	11.70
372.63	39.79
372.83	0.00
373.03	2.34
373.22	58.51
373.42	9.36
373.62	44.47
373.81	58.51
374.01	42.13
374.21	16.38
374.40	67.88
374.60	0.00
374.79	32.77
374.99	0.00
375.19	14.04
375.38	21.06
375.58	32.77
375.78	0.00
375.97	58.51
376.17	0.00
376.37	28.09
376.56	86.60
376.76	81.92
376.95	0.00
377.15	0.00
377.35	77.24
377.54	0.00
377.74	0.00
377.93	51.49
378.13	23.41
378.33	21.06
378.52	0.00
378.72	65.54
378.91	44.47
379.11	30.43
379.31	18.72
379.50	14.04
379.70	46.81
379.89	0.00
380.09	18.72
380.28	0.00
380.48	110.01
380.68	23.41
380.87	84.26
381.07	0.00
381.26	44.47
381.46	81.92
381.65	11.70
381.85	25.75
382.04	35.11
382.24	44.47
382.43	11.70
382.63	39.79
382.83	21.06
383.02	0.00
383.22	0.00
383.41	0.00
383.61	7.02
383.80	30.43
384.00	21.06
384.19	53.83
384.39	0.00
384.58	0.00
384.78	28.09
384.97	49.15
385.17	58.51
385.36	51.49
385.56	0.00
385.75	39.79
385.95	30.43
386.14	7.02
386.34	14.04
386.53	0.00
386.72	28.09
386.92	35.11
387.11	37.45
387.31	0.00
387.50	37.45
387.70	39.79
387.89	23.41
388.09	7.02
388.28	0.00
388.48	0.00
388.67	0.00
388.86	11.70
389.06	70.22
389.25	0.00
389.45	56.17
389.64	0.00
389.84	16.38
390.03	21.06
390.22	7.02
390.42	11.70
390.61	0.00
390.81	35.11
391.00	25.75
391.19	25.75
391.39	86.60
391.58	46.81
391.78	0.00
391.97	32.77
392.16	16.38
392.36	46.81
392.55	0.00
392.75	0.00
392.94	7.02
393.13	35.11
393.33	0.00
393.52	4.68
393.71	0.00
393.91	0.00
394.10	0.00
394.29	11.70
394.49	37.45
394.68	25.75
394.88	9.36
395.07	0.00
395.26	9.36
395.46	0.00
395.65	81.92
395.84	25.75
396.04	23.41
396.23	65.54
396.42	65.54
396.62	25.75
396.81	32.77
397.00	37.45
397.19	49.15
397.39	51.49
397.58	4.68
397.77	56.17
397.97	23.41
398.16	7.02
398.35	25.75
398.55	0.00
398.74	67.88
398.93	39.79
399.12	0.00
399.32	0.00
399.51	23.41
399.70	0.00
399.90	39.79
400.09	0.00
400.28	74.90
400.47	63.19
400.67	35.11
400.86	32.77
401.05	32.77
401.24	72.56
401.44	65.54
401.63	30.43
401.82	23.41
402.01	65.54
402.21	93.62
402.40	44.47
402.59	35.11
402.78	37.45
402.97	102.98
403.17	56.17
403.36	51.49
403.55	0.00
403.74	98.30
403.93	32.77
404.13	32.77
404.32	0.00
404.51	30.43
404.70	32.77
404.89	72.56
405.09	0.00
405.28	0.00
405.47	0.00
405.66	79.58
405.85	49.15
406.05	0.00
406.24	84.26
406.43	28.09
406.62	11.70
406.81	0.00
407.00	58.51
407.20	93.62
407.39	37.45
407.58	25.75
407.77	53.83
407.96	28.09
408.15	84.26
408.34	39.79
408.54	51.49
408.73	63.19
408.92	7.02
409.11	37.45
409.30	0.00
409.49	23.41
409.68	7.02
409.87	0.00
410.07	112.35
410.26	39.79
410.45	67.88
410.64	23.41
410.83	42.13
411.02	16.38
411.21	88.94
411.40	7.02
411.59	4.68
411.78	0.00
411.98	32.77
412.17	56.17
412.36	25.75
412.55	44.47
412.74	79.58
412.93	25.75
413.12	65.54
413.31	70.22
413.50	44.47
413.69	46.81
413.88	72.56
414.07	37.45
414.26	46.81
414.45	65.54
414.64	30.43
414.83	37.45
415.02	14.04
415.22	63.19
415.41	102.98
415.60	35.11
415.79	58.51
415.98	30.43
416.17	42.13
416.36	35.11
416.55	0.00
416.74	21.06
416.93	49.15
417.12	14.04
417.31	105.32
417.50	0.00
417.69	53.83
417.88	51.49
418.07	53.83
418.26	44.47
418.45	14.04
418.64	51.49
418.83	81.92
419.02	14.04
419.21	18.72
419.39	63.19
419.58	102.98
419.77	0.00
419.96	105.32
420.15	18.72
420.34	63.19
420.53	21.06
420.72	7.02
420.91	16.38
421.10	39.79
421.29	65.54
421.48	58.51
421.67	93.62
421.86	133.41
422.05	44.47
422.24	46.81
422.43	107.66
422.61	37.45
422.80	23.41
422.99	58.51
423.18	74.90
423.37	37.45
423.56	9.36
423.75	84.26
423.94	91.28
424.13	93.62
424.32	21.06
424.50	44.47
424.69	121.71
424.88	53.83
425.07	35.11
425.26	28.09
425.45	25.75
425.64	98.30
425.83	72.56
426.01	35.11
426.20	37.45
426.39	0.00
426.58	32.77
426.77	65.54
426.96	0.00
427.15	46.81
427.33	25.75
427.52	53.83
427.71	70.22
427.90	32.77
428.09	14.04
428.28	23.41
428.46	91.28
428.65	114.69
428.84	67.88
429.03	140.43
429.22	42.13
429.40	63.19
429.59	14.04
429.78	53.83
429.97	28.09
430.16	37.45
430.34	0.00
430.53	0.00
430.72	18.72
430.91	0.00
431.10	77.24
431.28	65.54
431.47	105.32
431.66	14.04
431.85	53.83
432.03	21.06
432.22	44.47
432.41	91.28
432.60	49.15
432.79	58.51
432.97	51.49
433.16	51.49
433.35	39.79
433.54	0.00
433.72	42.13
433.91	70.22
434.10	42.13
434.28	60.85
434.47	21.06
434.66	30.43
434.85	35.11
435.03	81.92
435.22	7.02
435.41	25.75
435.59	39.79
435.78	112.35
435.97	35.11
436.16	79.58
436.34	0.00
436.53	25.75
436.72	93.62
436.90	74.90
437.09	0.00
437.28	16.38
437.46	30.43
437.65	74.90
437.84	7.02
438.02	21.06
438.21	56.17
438.40	72.56
438.58	0.00
438.77	30.43
438.96	37.45
439.14	7.02
439.33	44.47
439.52	42.13
439.70	56.17
439.89	35.11
440.08	88.94
440.26	0.00
440.45	56.17
440.63	91.28
440.82	60.85
441.01	51.49
441.19	107.66
441.38	65.54
441.57	14.04
441.75	70.22
441.94	56.17
442.12	84.26
442.31	65.54
442.50	21.06
442.68	16.38
442.87	65.54
443.05	58.51
443.24	67.88
443.43	0.00
443.61	81.92
443.80	51.49
443.98	51.49
444.17	25.75
444.35	23.41
444.54	152.13
444.73	0.00
444.91	46.81
445.10	53.83
445.28	0.00
445.47	39.79
445.65	86.60
445.84	74.90
446.02	37.45
446.21	105.32
446.39	0.00
446.58	35.11
446.77	30.43
446.95	86.60
447.14	88.94
447.32	46.81
447.51	28.09
447.69	39.79
447.88	32.77
448.06	25.75
448.25	60.85
448.43	58.51
448.62	81.92
448.80	42.13
448.99	63.19
449.17	32.77
449.36	81.92
449.54	46.81
449.73	2.34
449.91	51.49
450.10	81.92
450.28	84.26
450.46	126.39
450.65	0.00
450.83	79.58
451.02	9.36
451.20	86.60
451.39	67.88
451.57	70.22
451.76	14.04
451.94	58.51
452.13	95.96
452.31	21.06
452.49	102.98
452.68	51.49
452.86	63.19
453.05	9.36
453.23	44.47
453.42	18.72
453.60	37.45
453.78	0.00
453.97	88.94
454.15	39.79
454.34	67.88
454.52	37.45
454.70	42.13
454.89	131.07
455.07	56.17
455.26	77.24
455.44	142.77
455.62	63.19
455.81	107.66
455.99	102.98
456.17	18.72
456.36	88.94
456.54	110.01
456.73	11.70
456.91	16.38
457.09	74.90
457.28	14.04
457.46	79.58
457.64	88.94
457.83	51.49
458.01	98.30
458.19	107.66
458.38	65.54
458.56	14.04
458.74	84.26
458.93	25.75
459.11	110.01
459.29	51.49
459.48	58.51
459.66	14.04
459.84	117.03
460.03	72.56
460.21	63.19
460.39	0.00
460.57	110.01
460.76	18.72
460.94	21.06
461.12	37.45
461.31	0.00
461.49	35.11
461.67	86.60
461.85	56.17
462.04	56.17
462.22	117.03
462.40	44.47
462.59	42.13
462.77	72.56
462.95	70.22
463.13	0.00
463.32	74.90
463.50	21.06
463.68	72.56
463.86	67.88
464.05	53.83
464.23	28.09
464.41	53.83
464.59	53.83
464.78	49.15
464.96	63.19
465.14	4.68
465.32	25.75
465.50	0.00
465.69	21.06
465.87	18.72
466.05	145.11
466.23	67.88
466.41	74.90
466.60	44.47
466.78	35.11
466.96	0.00
467.14	28.09
467.32	25.75
467.51	9.36
467.69	86.60
467.87	2.34
468.05	131.07
468.23	124.05
468.41	100.64
468.60	60.85
468.78	35.11
468.96	107.66
469.14	0.00
469.32	60.85
469.50	53.83
469.69	0.00
469.87	84.26
470.05	28.09
470.23	56.17
470.41	63.19
470.59	42.13
470.77	44.47
470.95	119.37
471.14	105.32
471.32	42.13
471.50	53.83
471.68	51.49
471.86	138.09
472.04	95.96
472.22	63.19
472.40	9.36
472.58	58.51
472.77	2.34
472.95	7.02
473.13	32.77
473.31	100.64
473.49	84.26
473.67	0.00
473.85	11.70
474.03	107.66
474.21	49.15
474.39	72.56
474.57	44.47
474.75	60.85
474.93	16.38
475.12	56.17
475.30	14.04
475.48	79.58
475.66	21.06
475.84	74.90
476.02	39.79
476.20	32.77
476.38	0.00
476.56	9.36
476.74	70.22
476.92	100.64
477.10	84.26
477.28	44.47
477.46	70.22
477.64	65.54
477.82	42.13
478.00	42.13
478.18	21.06
478.36	23.41
478.54	0.00
478.72	44.47
478.90	0.00
479.08	74.90
479.26	39.79
479.44	56.17
479.62	84.26
479.80	25.75
479.98	93.62
480.16	51.49
480.34	49.15
480.52	117.03
480.70	86.60
480.88	42.13
481.06	32.77
481.24	107.66
481.41	63.19
481.59	105.32
481.77	53.83
481.95	77.24
482.13	72.56
482.31	91.28
482.49	53.83
482.67	67.88
482.85	117.03
483.03	37.45
483.21	23.41
483.39	60.85
483.57	0.00
483.74	63.19
483.92	0.00
484.10	65.54
484.28	79.58
484.46	95.96
484.64	95.96
484.82	77.24
485.00	81.92
485.18	98.30
485.35	67.88
485.53	70.22
485.71	35.11
485.89	100.64
486.07	0.00
486.25	98.30
486.43	91.28
486.61	121.71
486.78	65.54
486.96	4.68
487.14	46.81
487.32	0.00
487.50	53.83
487.68	70.22
487.85	23.41
488.03	84.26
488.21	18.72
488.39	121.71
488.57	86.60
488.75	77.24
488.92	124.05
489.10	63.19
489.28	95.96
489.46	32.77
489.64	79.58
489.81	46.81
489.99	107.66
490.17	88.94
490.35	28.09
490.53	56.17
490.70	39.79
490.88	44.47
491.06	117.03
491.24	51.49
491.41	72.56
491.59	63.19
491.77	2.34
491.95	77.24
492.13	63.19
492.30	18.72
492.48	72.56
492.66	124.05
492.84	173.20
493.01	49.15
493.19	60.85
493.37	42.13
493.54	39.79
493.72	56.17
493.90	35.11
494.08	65.54
494.25	86.60
494.43	35.11
494.61	128.73
494.79	53.83
494.96	117.03
495.14	58.51
495.32	70.22
495.49	117.03
495.67	70.22
495.85	84.26
496.02	30.43
496.20	63.19
496.38	135.75
496.55	112.35
496.73	44.47
496.91	37.45
497.09	91.28
497.26	53.83
497.44	91.28
497.62	93.62
497.79	4.68
497.97	93.62
498.14	91.28
498.32	117.03
498.50	126.39
498.67	88.94
498.85	56.17
499.03	51.49
499.20	65.54
499.38	21.06
499.56	51.49
499.73	100.64
499.91	194.26
500.08	105.32
500.26	86.60
500.44	32.77
500.61	42.13
500.79	74.90
500.97	147.45
501.14	114.69
501.32	65.54
501.49	30.43
501.67	105.32
501.84	70.22
502.02	53.83
502.20	182.56
502.37	91.28
502.55	84.26
502.72	117.03
502.90	88.94
503.07	121.71
503.25	63.19
503.43	72.56
503.60	81.92
503.78	49.15
503.95	53.83
504.13	74.90
504.30	86.60
504.48	86.60
504.65	86.60
504.83	44.47
505.01	49.15
505.18	53.83
505.36	32.77
505.53	102.98
505.71	65.54
505.88	74.90
506.06	95.96
506.23	88.94
506.41	98.30
506.58	39.79
506.76	84.26
506.93	133.41
507.11	42.13
507.28	65.54
507.46	119.37
507.63	58.51
507.81	110.01
507.98	74.90
508.16	67.88
508.33	14.04
508.50	100.64
508.68	203.63
508.85	110.01
509.03	79.58
509.20	51.49
509.38	156.82
509.55	95.96
509.73	88.94
509.90	159.16
510.08	56.17
510.25	28.09
510.42	65.54
510.60	140.43
510.77	49.15
510.95	102.98
511.12	14.04
511.30	98.30
511.47	100.64
511.64	138.09
511.82	65.54
511.99	102.98
512.17	86.60
512.34	107.66
512.51	42.13
512.69	88.94
512.86	42.13
513.04	86.60
513.21	81.92
513.38	74.90
513.56	11.70
513.73	72.56
513.90	65.54
514.08	86.60
514.25	30.43
514.43	74.90
514.60	72.56
514.77	102.98
514.95	117.03
515.12	60.85
515.29	51.49
515.47	72.56
515.64	51.49
515.81	79.58
515.99	119.37
516.16	84.26
516.33	72.56
516.51	119.37
516.68	81.92
516.85	56.17
517.03	67.88
517.20	140.43
517.37	65.54
517.54	102.98
517.72	35.11
517.89	42.13
518.06	107.66
518.24	100.64
518.41	88.94
518.58	28.09
518.75	53.83
518.93	119.37
519.10	67.88
519.27	126.39
519.45	56.17
519.62	114.69
519.79	67.88
519.96	42.13
520.14	70.22
520.31	67.88
520.48	91.28
520.65	25.75
520.83	51.49
521.00	95.96
521.17	112.35
521.34	65.54
521.52	112.35
521.69	53.83
521.86	60.85
522.03	65.54
522.20	91.28
522.38	74.90
522.55	51.49
522.72	114.69
522.89	102.98
523.07	91.28
523.24	93.62
523.41	84.26
523.58	91.28
523.75	124.05
523.92	114.69
524.10	93.62
524.27	124.05
524.44	166.18
524.61	117.03
524.78	107.66
524.96	77.24
525.13	67.88
525.30	124.05
525.47	105.32
525.64	133.41
525.81	91.28
525.98	124.05
526.16	126.39
526.33	140.43
526.50	131.07
526.67	53.83
526.84	49.15
527.01	56.17
527.18	110.01
527.36	126.39
527.53	72.56
527.70	72.56
527.87	58.51
528.04	30.43
528.21	63.19
528.38	114.69
528.55	191.92
528.72	133.41
528.89	79.58
529.07	81.92
529.24	98.30
529.41	67.88
529.58	65.54
529.75	121.71
529.92	161.50
530.09	126.39
530.26	102.98
530.43	86.60
530.60	140.43
530.77	100.64
530.94	35.11
531.11	105.32
531.28	121.71
531.46	100.64
531.63	180.22
531.80	140.43
531.97	100.64
532.14	114.69
532.31	100.64
532.48	56.17
532.65	126.39
532.82	49.15
532.99	39.79
533.16	72.56
533.33	42.13
533.50	65.54
533.67	60.85
533.84	35.11
534.01	166.18
534.18	110.01
534.35	67.88
534.52	72.56
534.69	100.64
534.86	107.66
535.03	91.28
535.20	147.45
535.37	131.07
535.54	147.45
535.71	72.56
535.88	98.30
536.05	77.24
536.22	93.62
536.38	102.98
536.55	147.45
536.72	37.45
536.89	135.75
537.06	91.28
537.23	102.98
537.40	32.77
537.57	65.54
537.74	74.90
537.91	88.94
538.08	63.19
538.25	79.58
538.42	77.24
538.59	112.35
538.75	56.17
538.92	100.64
539.09	105.32
539.26	93.62
539.43	46.81
539.60	53.83
539.77	117.03
539.94	142.77
540.11	23.41
540.28	84.26
540.44	74.90
540.61	77.24
540.78	18.72
540.95	46.81
541.12	30.43
541.29	88.94
541.46	107.66
541.62	74.90
541.79	4.68
541.96	121.71
542.13	72.56
542.30	121.71
542.47	60.85
542.63	93.62
542.80	95.96
542.97	112.35
543.14	74.90
543.31	131.07
543.48	86.60
543.64	37.45
543.81	9.36
543.98	42.13
544.15	119.37
544.32	110.01
544.48	119.37
544.65	114.69
544.82	25.75
544.99	86.60
545.16	88.94
545.32	51.49
545.49	81.92
545.66	49.15
545.83	100.64
546.00	37.45
546.16	88.94
546.33	39.79
546.50	117.03
546.67	79.58
546.83	53.83
547.00	51.49
547.17	107.66
547.34	102.98
547.50	72.56
547.67	46.81
547.84	88.94
548.00	51.49
548.17	60.85
548.34	91.28
548.51	79.58
548.67	49.15
548.84	128.73
549.01	21.06
549.18	18.72
549.34	93.62
549.51	95.96
549.68	84.26
549.84	58.51
550.01	60.85
550.18	145.11
550.34	117.03
550.51	93.62
550.68	84.26
550.84	107.66
551.01	91.28
551.18	138.09
551.34	32.77
551.51	65.54
551.68	100.64
551.84	93.62
552.01	81.92
552.18	74.90
552.34	72.56
552.51	168.52
552.68	51.49
552.84	114.69
553.01	74.90
553.18	107.66
553.34	60.85
553.51	46.81
553.67	145.11
553.84	145.11
554.01	39.79
554.17	93.62
554.34	70.22
554.51	168.52
554.67	60.85
554.84	70.22
555.00	173.20
555.17	91.28
555.33	88.94
555.50	88.94
555.67	145.11
555.83	105.32
556.00	138.09
556.16	79.58
556.33	91.28
556.50	117.03
556.66	91.28
556.83	91.28
556.99	112.35
557.16	67.88
557.32	74.90
557.49	67.88
557.65	32.77
557.82	21.06
557.98	25.75
558.15	100.64
558.32	117.03
558.48	0.00
558.65	65.54
558.81	114.69
558.98	58.51
559.14	72.56
559.31	60.85
559.47	86.60
559.64	51.49
559.80	72.56
559.97	70.22
560.13	84.26
560.30	77.24
560.46	67.88
560.63	56.17
560.79	74.90
560.96	74.90
561.12	107.66
561.29	84.26
561.45	44.47
561.61	117.03
561.78	70.22
561.94	107.66
562.11	70.22
562.27	77.24
562.44	30.43
562.60	51.49
562.77	21.06
562.93	112.35
563.10	149.79
563.26	91.28
563.42	56.17
563.59	93.62
563.75	0.00
563.92	51.49
564.08	49.15
564.24	98.30
564.41	72.56
564.57	39.79
564.74	79.58
564.90	42.13
565.07	102.98
565.23	65.54
565.39	107.66
565.56	117.03
565.72	32.77
565.88	77.24
566.05	91.28
566.21	135.75
566.38	121.71
566.54	32.77
566.70	95.96
566.87	98.30
567.03	114.69
567.19	119.37
567.36	70.22
567.52	2.34
567.68	72.56
567.85	107.66
568.01	72.56
568.17	2.34
568.34	135.75
568.50	93.62
568.66	93.62
568.83	119.37
568.99	88.94
569.15	77.24
569.32	74.90
569.48	70.22
569.64	7.02
569.81	138.09
569.97	42.13
570.13	88.94
570.30	70.22
570.46	67.88
570.62	56.17
570.78	100.64
570.95	67.88
571.11	70.22
571.27	86.60
571.43	152.13
571.60	81.92
571.76	88.94
571.92	107.66
572.09	63.19
572.25	77.24
572.41	112.35
572.57	112.35
572.74	93.62
572.90	32.77
573.06	84.26
573.22	77.24
573.38	100.64
573.55	58.51
573.71	81.92
573.87	86.60
574.03	84.26
574.20	9.36
574.36	72.56
574.52	35.11
574.68	58.51
574.84	72.56
575.01	42.13
575.17	86.60
575.33	81.92
575.49	67.88
575.65	72.56
575.82	79.58
575.98	70.22
576.14	37.45
576.30	74.90
576.46	60.85
576.62	152.13
576.79	126.39
576.95	91.28
577.11	32.77
577.27	98.30
577.43	60.85
577.59	72.56
577.75	79.58
577.92	117.03
578.08	105.32
578.24	98.30
578.40	0.00
578.56	100.64
578.72	93.62
578.88	107.66
579.04	102.98
579.21	0.00
579.37	58.51
579.53	49.15
579.69	138.09
579.85	65.54
580.01	112.35
580.17	84.26
580.33	44.47
580.49	93.62
580.65	21.06
580.82	107.66
580.98	112.35
581.14	46.81
581.30	0.00
581.46	42.13
581.62	107.66
581.78	107.66
581.94	81.92
582.10	32.77
582.26	32.77
582.42	77.24
582.58	79.58
582.74	77.24
582.90	140.43
583.06	77.24
583.22	100.64
583.38	51.49
583.54	51.49
583.70	9.36
583.86	32.77
584.02	114.69
584.18	60.85
584.34	100.64
584.50	16.38
584.66	79.58
584.82	46.81
584.98	58.51
585.14	131.07
585.30	142.77
585.46	53.83
585.62	51.49
585.78	142.77
585.94	117.03
586.10	67.88
586.26	102.98
586.42	35.11
586.58	142.77
586.74	28.09
586.90	37.45
587.06	95.96
587.22	84.26
587.38	30.43
587.54	35.11
587.70	77.24
587.86	21.06
588.02	32.77
588.18	74.90
588.34	105.32
588.49	72.56
588.65	98.30
588.81	81.92
588.97	74.90
589.13	37.45
589.29	46.81
589.45	0.00
589.61	86.60
589.77	112.35
589.93	117.03
590.08	56.17
590.24	67.88
590.40	67.88
590.56	16.38
590.72	105.32
590.88	102.98
591.04	72.56
591.20	67.88
591.35	81.92
591.51	39.79
591.67	58.51
591.83	177.88
591.99	0.00
592.15	16.38
592.31	74.90
592.46	0.00
592.62	86.60
592.78	51.49
592.94	81.92
593.10	124.05
593.26	84.26
593.41	67.88
593.57	112.35
593.73	88.94
593.89	46.81
594.05	42.13
594.20	67.88
594.36	37.45
594.52	65.54
594.68	44.47
594.84	105.32
594.99	142.77
595.15	119.37
595.31	53.83
595.47	110.01
595.62	18.72
595.78	98.30
595.94	117.03
596.10	60.85
596.25	117.03
596.41	72.56
596.57	67.88
596.73	49.15
596.88	112.35
597.04	23.41
597.20	30.43
597.36	114.69
597.51	63.19
597.67	88.94
597.83	117.03
597.99	91.28
598.14	107.66
598.30	28.09
598.46	98.30
598.61	79.58
598.77	65.54
598.93	88.94
599.09	112.35
599.24	86.60
599.40	14.04
599.56	65.54
599.71	21.06
599.87	58.51
600.03	86.60
600.18	86.60
600.34	56.17
600.50	30.43
600.65	114.69
600.81	126.39
600.97	95.96
601.12	86.60
601.28	110.01
601.44	79.58
601.59	79.58
601.75	88.94
601.91	72.56
602.06	39.79
602.22	74.90
602.37	14.04
602.53	65.54
602.69	14.04
602.84	74.90
603.00	74.90
603.16	42.13
603.31	63.19
603.47	35.11
603.62	86.60
603.78	44.47
603.94	18.72
604.09	65.54
604.25	107.66
604.40	65.54
604.56	65.54
604.71	70.22
604.87	23.41
605.03	0.00
605.18	91.28
605.34	88.94
605.49	81.92
605.65	117.03
605.80	65.54
605.96	37.45
606.12	58.51
606.27	119.37
606.43	77.24
606.58	46.81
606.74	46.81
606.89	39.79
607.05	91.28
607.20	49.15
607.36	86.60
607.51	28.09
607.67	58.51
607.82	105.32
607.98	79.58
608.13	91.28
608.29	105.32
608.44	42.13
608.60	81.92
608.75	81.92
608.91	117.03
609.06	91.28
609.22	56.17
609.37	105.32
609.53	0.00
609.68	79.58
609.84	67.88
609.99	100.64
610.15	74.90
610.30	77.24
610.46	35.11
610.61	65.54
610.76	9.36
610.92	60.85
611.07	53.83
611.23	100.64
611.38	107.66
611.54	74.90
611.69	74.90
611.84	67.88
612.00	42.13
612.15	63.19
612.31	72.56
612.46	39.79
612.62	63.19
612.77	56.17
612.92	0.00
613.08	35.11
613.23	63.19
613.39	84.26
613.54	56.17
613.69	37.45
613.85	9.36
614.00	53.83
614.15	86.60
614.31	95.96
614.46	93.62
614.62	114.69
614.77	53.83
614.92	42.13
615.08	32.77
615.23	117.03
615.38	110.01
615.54	18.72
615.69	77.24
615.84	110.01
616.00	140.43
616.15	32.77
616.30	88.94
616.46	51.49
616.61	119.37
616.76	126.39
616.92	156.82
617.07	84.26
617.22	168.52
617.37	30.43
617.53	114.69
617.68	56.17
617.83	110.01
617.99	107.66
618.14	88.94
618.29	58.51
618.45	140.43
618.60	65.54
618.75	86.60
618.90	65.54
619.06	30.43
619.21	67.88
619.36	51.49
619.51	86.60
619.67	72.56
619.82	63.19
619.97	84.26
620.12	72.56
620.28	42.13
620.43	56.17
620.58	25.75
620.73	65.54
620.89	77.24
621.04	0.00
621.19	105.32
621.34	25.75
621.49	39.79
621.65	93.62
621.80	23.41
621.95	117.03
622.10	58.51
622.25	18.72
622.41	9.36
622.56	63.19
622.71	95.96
622.86	4.68
623.01	88.94
623.16	98.30
623.32	91.28
623.47	51.49
623.62	63.19
623.77	0.00
623.92	51.49
624.07	44.47
624.23	86.60
624.38	88.94
624.53	77.24
624.68	79.58
624.83	56.17
624.98	23.41
625.13	63.19
625.29	114.69
625.44	74.90
625.59	107.66
625.74	23.41
625.89	152.13
626.04	35.11
626.19	81.92
626.34	86.60
626.49	63.19
626.65	39.79
626.80	81.92
626.95	0.00
627.10	30.43
627.25	9.36
627.40	58.51
627.55	28.09
627.70	51.49
627.85	56.17
628.00	65.54
628.15	60.85
628.30	28.09
628.45	86.60
628.60	42.13
628.76	9.36
628.91	35.11
629.06	18.72
629.21	16.38
629.36	74.90
629.51	74.90
629.66	72.56
629.81	37.45
629.96	44.47
630.11	65.54
630.26	70.22
630.41	0.00
630.56	35.11
630.71	121.71
630.86	37.45
631.01	0.00
631.16	21.06
631.31	74.90
631.46	30.43
631.61	35.11
631.76	131.07
631.91	14.04
632.06	107.66
632.21	16.38
632.36	2.34
632.51	67.88
632.66	91.28
632.81	37.45
632.96	32.77
633.10	25.75
633.25	32.77
633.40	21.06
633.55	21.06
633.70	14.04
633.85	44.47
634.00	32.77
634.15	0.00
634.30	49.15
634.45	32.77
634.60	28.09
634.75	86.60
634.90	72.56
635.05	79.58
635.19	16.38
635.34	0.00
635.49	18.72
635.64	51.49
635.79	0.00
635.94	0.00
636.09	0.00
636.24	86.60
636.39	53.83
636.53	86.60
636.68	44.47
636.83	86.60
636.98	49.15
637.13	77.24
637.28	25.75
637.43	37.45
637.57	56.17
637.72	100.64
637.87	44.47
638.02	39.79
638.17	70.22
638.32	131.07
638.46	121.71
638.61	0.00
638.76	84.26
638.91	105.32
639.06	18.72
639.20	86.60
639.35	16.38
639.50	37.45
639.65	65.54
639.80	74.90
639.94	65.54
640.09	170.86
640.24	37.45
640.39	32.77
640.54	77.24
640.68	65.54
640.83	14.04
640.98	65.54
641.13	63.19
641.27	37.45
641.42	32.77
641.57	74.90
641.72	63.19
641.86	74.90
642.01	9.36
642.16	0.00
642.31	84.26
642.45	44.47
642.60	88.94
642.75	58.51
642.90	65.54
643.04	74.90
643.19	93.62
643.34	0.00
643.48	32.77
643.63	56.17
643.78	25.75
643.93	44.47
644.07	0.00
644.22	63.19
644.37	14.04
644.51	28.09
644.66	9.36
644.81	56.17
644.95	72.56
645.10	95.96
645.25	44.47
645.39	18.72
645.54	2.34
645.69	58.51
645.83	4.68
645.98	4.68
646.13	67.88
646.27	112.35
646.42	81.92
646.57	25.75
646.71	79.58
646.86	37.45
647.00	0.00
647.15	60.85
647.30	11.70
647.44	49.15
647.59	67.88
647.74	44.47
647.88	21.06
648.03	72.56
648.17	42.13
648.32	0.00
648.47	0.00
648.61	0.00
648.76	138.09
648.90	119.37
649.05	30.43
649.20	86.60
649.34	105.32
649.49	63.19
649.63	51.49
649.78	46.81
649.92	95.96
650.07	63.19
650.21	93.62
650.36	42.13
650.51	79.58
650.65	0.00
650.80	98.30
650.94	53.83
651.09	14.04
651.23	25.75
651.38	49.15
651.52	30.43
651.67	37.45
651.81	65.54
651.96	154.48
652.10	93.62
652.25	86.60
652.39	25.75
652.54	32.77
652.68	51.49
652.83	25.75
652.97	77.24
653.12	0.00
653.26	93.62
653.41	70.22
653.55	100.64
653.70	51.49
653.84	95.96
653.99	100.64
654.13	28.09
654.27	42.13
654.42	72.56
654.56	81.92
654.71	112.35
654.85	39.79
655.00	65.54
655.14	65.54
655.29	0.00
655.43	32.77
655.57	2.34
655.72	65.54
655.86	72.56
656.01	23.41
656.15	44.47
656.30	51.49
656.44	0.00
656.58	95.96
656.73	70.22
656.87	95.96
657.01	46.81
657.16	63.19
657.30	0.00
657.45	79.58
657.59	0.00
657.73	142.77
657.88	0.00
658.02	0.00
658.16	0.00
658.31	81.92
658.45	149.79
658.60	0.00
658.74	63.19
658.88	56.17
659.03	70.22
659.17	58.51
659.31	23.41
659.46	84.26
659.60	84.26
659.74	72.56
659.89	35.11
660.03	0.00
660.17	53.83
660.32	42.13
660.46	2.34
660.60	63.19
660.74	14.04
660.89	81.92
661.03	53.83
661.17	35.11
661.32	131.07
661.46	95.96
661.60	77.24
661.74	91.28
661.89	49.15
662.03	51.49
662.17	16.38
662.31	0.00
662.46	16.38
662.60	56.17
662.74	28.09
662.88	28.09
663.03	65.54
663.17	32.77
663.31	72.56
663.45	56.17
663.60	35.11
663.74	63.19
663.88	46.81
664.02	0.00
664.17	0.00
664.31	9.36
664.45	53.83
664.59	37.45
664.73	18.72
664.88	21.06
665.02	42.13
665.16	51.49
665.30	46.81
665.44	18.72
665.59	42.13
665.73	63.19
665.87	131.07
666.01	46.81
666.15	60.85
666.29	53.83
666.44	81.92
666.58	65.54
666.72	32.77
666.86	53.83
667.00	21.06
667.14	70.22
667.28	32.77
667.43	191.92
667.57	42.13
667.71	42.13
667.85	58.51
667.99	49.15
668.13	81.92
668.27	142.77
668.41	72.56
668.56	51.49
668.70	28.09
668.84	18.72
668.98	0.00
669.12	28.09
669.26	81.92
669.40	84.26
669.54	0.00
669.68	25.75
669.82	79.58
669.96	42.13
670.10	4.68
670.25	16.38
670.39	0.00
670.53	56.17
670.67	63.19
670.81	32.77
670.95	42.13
671.09	65.54
671.23	30.43
671.37	88.94
671.51	81.92
671.65	11.70
671.79	11.70
671.93	7.02
672.07	93.62
672.21	86.60
672.35	67.88
672.49	28.09
672.63	72.56
672.77	124.05
672.91	23.41
673.05	23.41
673.19	49.15
673.33	46.81
673.47	42.13
673.61	63.19
673.75	70.22
673.89	79.58
674.03	39.79
674.17	37.45
674.31	4.68
674.45	23.41
674.59	16.38
674.73	46.81
674.87	14.04
675.01	70.22
675.15	84.26
675.29	110.01
675.43	107.66
675.56	0.00
675.70	18.72
675.84	42.13
675.98	11.70
676.12	53.83
676.26	46.81
676.40	0.00
676.54	0.00
676.68	65.54
676.82	21.06
676.96	37.45
677.10	107.66
677.23	91.28
677.37	0.00
677.51	0.00
677.65	119.37
677.79	53.83
677.93	65.54
678.07	72.56
678.21	21.06
678.34	25.75
678.48	65.54
678.62	0.00
678.76	11.70
678.90	0.00
679.04	37.45
679.18	60.85
679.31	93.62
679.45	86.60
679.59	0.00
679.73	53.83
679.87	51.49
680.00	86.60
680.14	133.41
680.28	77.24
680.42	53.83
680.56	0.00
680.70	86.60
680.83	16.38
680.97	72.56
681.11	39.79
681.25	25.75
681.39	126.39
681.52	70.22
681.66	18.72
681.80	18.72
681.94	65.54
682.07	86.60
682.21	107.66
682.35	56.17
682.49	70.22
682.62	16.38
682.76	32.77
682.90	114.69
683.04	35.11
683.17	0.00
683.31	9.36
683.45	7.02
683.59	58.51
683.72	35.11
683.86	84.26
684.00	0.00
684.13	65.54
684.27	51.49
684.41	117.03
684.55	84.26
684.68	98.30
684.82	53.83
684.96	56.17
685.09	86.60
685.23	58.51
685.37	98.30
685.50	91.28
685.64	49.15
685.78	88.94
685.91	58.51
686.05	98.30
686.19	0.00
686.32	7.02
686.46	112.35
686.60	16.38
686.73	44.47
686.87	60.85
687.01	70.22
687.14	72.56
687.28	102.98
687.42	58.51
687.55	0.00
687.69	107.66
687.82	35.11
687.96	70.22
688.10	58.51
688.23	119.37
688.37	11.70
688.50	46.81
688.64	79.58
688.78	93.62
688.91	39.79
689.05	16.38
689.18	74.90
689.32	74.90
689.46	0.00
689.59	11.70
689.73	53.83
689.86	63.19
690.00	30.43
690.13	2.34
690.27	84.26
690.41	79.58
690.54	105.32
690.68	30.43
690.81	32.77
690.95	46.81
691.08	72.56
691.22	18.72
691.35	42.13
691.49	70.22
691.62	0.00
691.76	35.11
691.89	84.26
692.03	0.00
692.16	0.00
692.30	35.11
692.43	60.85
692.57	49.15
692.70	70.22
692.84	0.00
692.97	11.70
693.11	23.41
693.24	0.00
693.38	72.56
693.51	58.51
693.65	142.77
693.78	60.85
693.92	2.34
694.05	72.56
694.19	72.56
694.32	65.54
694.45	70.22
694.59	18.72
694.72	51.49
694.86	72.56
694.99	79.58
695.13	63.19
695.26	42.13
695.39	30.43
695.53	72.56
695.66	30.43
695.80	11.70
695.93	7.02
696.07	46.81
696.20	58.51
696.33	35.11
696.47	77.24
696.60	11.70
696.73	0.00
696.87	51.49
697.00	42.13
697.14	21.06
697.27	117.03
697.40	35.11
697.54	0.00
697.67	14.04
697.80	46.81
697.94	74.90
698.07	9.36
698.21	35.11
698.34	28.09
698.47	35.11
698.61	18.72
698.74	0.00
698.87	0.00
699.01	44.47
699.14	9.36
699.27	7.02
699.40	0.00
699.54	67.88
699.67	23.41
699.80	56.17
699.94	42.13
700.07	44.47
700.20	65.54
700.34	53.83
700.47	37.45
700.60	35.11
700.73	11.70
700.87	74.90
701.00	67.88
701.13	28.09
701.26	2.34
701.40	9.36
701.53	21.06
701.66	23.41
701.79	60.85
701.93	79.58
702.06	44.47
702.19	0.00
702.32	117.03
702.46	42.13
702.59	88.94
702.72	110.01
702.85	49.15
702.99	53.83
703.12	2.34
703.25	37.45
703.38	72.56
703.51	86.60
703.65	4.68
703.78	4.68
703.91	28.09
704.04	23.41
704.17	44.47
704.31	42.13
704.44	53.83
704.57	0.00
704.70	4.68
704.83	46.81
704.96	9.36
705.10	0.00
705.23	0.00
>>>>>End Processed Spectral Data<<<<<
