SpectraSuite Data File
++++++++++++++++++++++++++++++++++++
Date: Fri Oct 04 12:13:39 GMT-05:00 2013
User: price-jones
Dark Spectrum Present: No
Reference Spectrum Present: No
Number of Sampled Component Spectra: 1
Spectrometers: USB2+H05261
Integration Time (usec): 10000 (USB2+H05261)
Spectra Averaged: 1 (USB2+H05261)
Boxcar Smoothing: 0 (USB2+H05261)
Correct for Electrical Dark: No (USB2+H05261)
Strobe/Lamp Enabled: No (USB2+H05261)
Correct for Detector Non-linearity: No (USB2+H05261)
Correct for Stray Light: No (USB2+H05261)
Number of Pixels in Processed Spectrum: 2048
>>>>>Begin Processed Spectral Data<<<<<
365.73	0.00
365.92	0.00
366.12	0.00
366.32	0.00
366.52	0.00
366.72	0.00
366.91	0.00
367.11	0.00
367.31	0.00
367.51	0.00
367.70	0.00
367.90	0.00
368.10	0.00
368.30	0.00
368.49	0.00
368.69	0.00
368.89	0.00
369.09	0.00
369.28	0.00
369.48	0.00
369.68	0.00
369.87	0.00
370.07	0.00
370.27	0.00
370.47	16.38
370.66	0.00
370.86	0.00
371.06	0.00
371.25	0.00
371.45	0.00
371.65	0.00
371.84	0.00
372.04	0.00
372.24	35.11
372.44	70.22
372.63	37.45
372.83	7.02
373.03	25.75
373.22	37.45
373.42	2.34
373.62	77.24
373.81	0.00
374.01	53.83
374.21	18.72
374.40	35.11
374.60	49.15
374.79	72.56
374.99	67.88
375.19	7.02
375.38	95.96
375.58	86.60
375.78	0.00
375.97	30.43
376.17	60.85
376.37	46.81
376.56	0.00
376.76	0.00
376.95	0.00
377.15	30.43
377.35	32.77
377.54	93.62
377.74	72.56
377.93	74.90
378.13	0.00
378.33	37.45
378.52	72.56
378.72	18.72
378.91	30.43
379.11	2.34
379.31	67.88
379.50	11.70
379.70	25.75
379.89	0.00
380.09	88.94
380.28	16.38
380.48	51.49
380.68	35.11
380.87	4.68
381.07	74.90
381.26	0.00
381.46	30.43
381.65	0.00
381.85	14.04
382.04	0.00
382.24	46.81
382.43	58.51
382.63	2.34
382.83	53.83
383.02	28.09
383.22	46.81
383.41	18.72
383.61	28.09
383.80	14.04
384.00	30.43
384.19	0.00
384.39	0.00
384.58	65.54
384.78	7.02
384.97	0.00
385.17	0.00
385.36	0.00
385.56	0.00
385.75	67.88
385.95	14.04
386.14	0.00
386.34	0.00
386.53	0.00
386.72	51.49
386.92	42.13
387.11	44.47
387.31	0.00
387.50	42.13
387.70	30.43
387.89	18.72
388.09	0.00
388.28	0.00
388.48	30.43
388.67	0.00
388.86	39.79
389.06	0.00
389.25	0.00
389.45	0.00
389.64	0.00
389.84	32.77
390.03	32.77
390.22	0.00
390.42	79.58
390.61	7.02
390.81	0.00
391.00	0.00
391.19	9.36
391.39	95.96
391.58	0.00
391.78	0.00
391.97	60.85
392.16	16.38
392.36	11.70
392.55	28.09
392.75	60.85
392.94	30.43
393.13	0.00
393.33	81.92
393.52	81.92
393.71	0.00
393.91	49.15
394.10	2.34
394.29	0.00
394.49	53.83
394.68	0.00
394.88	67.88
395.07	23.41
395.26	46.81
395.46	35.11
395.65	51.49
395.84	32.77
396.04	0.00
396.23	0.00
396.42	23.41
396.62	0.00
396.81	79.58
397.00	0.00
397.19	4.68
397.39	0.00
397.58	25.75
397.77	58.51
397.97	39.79
398.16	77.24
398.35	32.77
398.55	32.77
398.74	7.02
398.93	9.36
399.12	0.00
399.32	35.11
399.51	65.54
399.70	21.06
399.90	0.00
400.09	25.75
400.28	0.00
400.47	0.00
400.67	0.00
400.86	0.00
401.05	0.00
401.24	42.13
401.44	0.00
401.63	37.45
401.82	81.92
402.01	11.70
402.21	46.81
402.40	63.19
402.59	0.00
402.78	49.15
402.97	2.34
403.17	32.77
403.36	42.13
403.55	42.13
403.74	0.00
403.93	14.04
404.13	72.56
404.32	42.13
404.51	131.07
404.70	65.54
404.89	81.92
405.09	0.00
405.28	0.00
405.47	23.41
405.66	70.22
405.85	14.04
406.05	7.02
406.24	42.13
406.43	0.00
406.62	25.75
406.81	56.17
407.00	25.75
407.20	23.41
407.39	42.13
407.58	65.54
407.77	7.02
407.96	0.00
408.15	39.79
408.34	0.00
408.54	53.83
408.73	23.41
408.92	51.49
409.11	65.54
409.30	25.75
409.49	11.70
409.68	0.00
409.87	18.72
410.07	46.81
410.26	49.15
410.45	9.36
410.64	51.49
410.83	35.11
411.02	30.43
411.21	102.98
411.40	44.47
411.59	0.00
411.78	28.09
411.98	32.77
412.17	14.04
412.36	4.68
412.55	16.38
412.74	30.43
412.93	46.81
413.12	28.09
413.31	35.11
413.50	32.77
413.69	67.88
413.88	79.58
414.07	0.00
414.26	0.00
414.45	0.00
414.64	18.72
414.83	25.75
415.02	35.11
415.22	46.81
415.41	0.00
415.60	14.04
415.79	86.60
415.98	14.04
416.17	9.36
416.36	53.83
416.55	0.00
416.74	30.43
416.93	21.06
417.12	37.45
417.31	32.77
417.50	23.41
417.69	0.00
417.88	44.47
418.07	0.00
418.26	0.00
418.45	65.54
418.64	44.47
418.83	14.04
419.02	0.00
419.21	16.38
419.39	37.45
419.58	126.39
419.77	74.90
419.96	74.90
420.15	86.60
420.34	37.45
420.53	0.00
420.72	49.15
420.91	81.92
421.10	112.35
421.29	0.00
421.48	65.54
421.67	88.94
421.86	30.43
422.05	74.90
422.24	23.41
422.43	28.09
422.61	42.13
422.80	58.51
422.99	14.04
423.18	65.54
423.37	46.81
423.56	46.81
423.75	72.56
423.94	35.11
424.13	72.56
424.32	70.22
424.50	51.49
424.69	84.26
424.88	70.22
425.07	0.00
425.26	46.81
425.45	23.41
425.64	70.22
425.83	53.83
426.01	0.00
426.20	23.41
426.39	37.45
426.58	0.00
426.77	30.43
426.96	25.75
427.15	77.24
427.33	0.00
427.52	58.51
427.71	67.88
427.90	9.36
428.09	105.32
428.28	46.81
428.46	35.11
428.65	0.00
428.84	37.45
429.03	49.15
429.22	14.04
429.40	18.72
429.59	39.79
429.78	72.56
429.97	74.90
430.16	98.30
430.34	0.00
430.53	56.17
430.72	28.09
430.91	32.77
431.10	35.11
431.28	0.00
431.47	42.13
431.66	25.75
431.85	102.98
432.03	44.47
432.22	16.38
432.41	126.39
432.60	0.00
432.79	77.24
432.97	0.00
433.16	81.92
433.35	21.06
433.54	0.00
433.72	74.90
433.91	23.41
434.10	63.19
434.28	77.24
434.47	74.90
434.66	63.19
434.85	14.04
435.03	107.66
435.22	53.83
435.41	112.35
435.59	72.56
435.78	44.47
435.97	35.11
436.16	56.17
436.34	74.90
436.53	0.00
436.72	21.06
436.90	60.85
437.09	112.35
437.28	37.45
437.46	44.47
437.65	53.83
437.84	74.90
438.02	53.83
438.21	23.41
438.40	7.02
438.58	102.98
438.77	39.79
438.96	16.38
439.14	28.09
439.33	35.11
439.52	65.54
439.70	39.79
439.89	77.24
440.08	9.36
440.26	121.71
440.45	46.81
440.63	39.79
440.82	0.00
441.01	0.00
441.19	2.34
441.38	9.36
441.57	49.15
441.75	121.71
441.94	56.17
442.12	88.94
442.31	67.88
442.50	39.79
442.68	105.32
442.87	0.00
443.05	67.88
443.24	53.83
443.43	49.15
443.61	77.24
443.80	81.92
443.98	28.09
444.17	100.64
444.35	46.81
444.54	2.34
444.73	74.90
444.91	56.17
445.10	60.85
445.28	32.77
445.47	53.83
445.65	0.00
445.84	63.19
446.02	51.49
446.21	35.11
446.39	18.72
446.58	79.58
446.77	72.56
446.95	56.17
447.14	46.81
447.32	0.00
447.51	56.17
447.69	53.83
447.88	67.88
448.06	86.60
448.25	23.41
448.43	58.51
448.62	119.37
448.80	60.85
448.99	110.01
449.17	46.81
449.36	23.41
449.54	72.56
449.73	28.09
449.91	88.94
450.10	44.47
450.28	30.43
450.46	77.24
450.65	37.45
450.83	39.79
451.02	21.06
451.20	0.00
451.39	84.26
451.57	60.85
451.76	77.24
451.94	53.83
452.13	67.88
452.31	72.56
452.49	9.36
452.68	35.11
452.86	72.56
453.05	58.51
453.23	0.00
453.42	25.75
453.60	39.79
453.78	119.37
453.97	86.60
454.15	95.96
454.34	23.41
454.52	74.90
454.70	107.66
454.89	110.01
455.07	7.02
455.26	67.88
455.44	51.49
455.62	112.35
455.81	100.64
455.99	51.49
456.17	25.75
456.36	49.15
456.54	93.62
456.73	100.64
456.91	53.83
457.09	70.22
457.28	126.39
457.46	30.43
457.64	18.72
457.83	46.81
458.01	107.66
458.19	100.64
458.38	18.72
458.56	30.43
458.74	53.83
458.93	53.83
459.11	98.30
459.29	56.17
459.48	117.03
459.66	149.79
459.84	60.85
460.03	110.01
460.21	53.83
460.39	44.47
460.57	0.00
460.76	23.41
460.94	49.15
461.12	46.81
461.31	51.49
461.49	18.72
461.67	23.41
461.85	51.49
462.04	28.09
462.22	84.26
462.40	46.81
462.59	67.88
462.77	126.39
462.95	147.45
463.13	0.00
463.32	21.06
463.50	105.32
463.68	93.62
463.86	93.62
464.05	58.51
464.23	0.00
464.41	58.51
464.59	58.51
464.78	28.09
464.96	18.72
465.14	173.20
465.32	23.41
465.50	11.70
465.69	67.88
465.87	0.00
466.05	117.03
466.23	18.72
466.41	0.00
466.60	32.77
466.78	23.41
466.96	65.54
467.14	105.32
467.32	79.58
467.51	63.19
467.69	81.92
467.87	42.13
468.05	77.24
468.23	11.70
468.41	49.15
468.60	110.01
468.78	30.43
468.96	14.04
469.14	124.05
469.32	0.00
469.50	21.06
469.69	51.49
469.87	65.54
470.05	39.79
470.23	28.09
470.41	81.92
470.59	30.43
470.77	46.81
470.95	7.02
471.14	56.17
471.32	67.88
471.50	74.90
471.68	91.28
471.86	95.96
472.04	0.00
472.22	74.90
472.40	46.81
472.58	46.81
472.77	21.06
472.95	44.47
473.13	25.75
473.31	42.13
473.49	11.70
473.67	51.49
473.85	100.64
474.03	67.88
474.21	102.98
474.39	16.38
474.57	72.56
474.75	105.32
474.93	37.45
475.12	37.45
475.30	74.90
475.48	0.00
475.66	39.79
475.84	84.26
476.02	79.58
476.20	154.48
476.38	58.51
476.56	70.22
476.74	35.11
476.92	28.09
477.10	102.98
477.28	0.00
477.46	93.62
477.64	56.17
477.82	7.02
478.00	65.54
478.18	58.51
478.36	51.49
478.54	72.56
478.72	0.00
478.90	60.85
479.08	74.90
479.26	16.38
479.44	72.56
479.62	44.47
479.80	81.92
479.98	152.13
480.16	25.75
480.34	49.15
480.52	72.56
480.70	35.11
480.88	56.17
481.06	63.19
481.24	102.98
481.41	46.81
481.59	74.90
481.77	91.28
481.95	91.28
482.13	91.28
482.31	18.72
482.49	63.19
482.67	0.00
482.85	84.26
483.03	56.17
483.21	112.35
483.39	32.77
483.57	100.64
483.74	37.45
483.92	102.98
484.10	74.90
484.28	88.94
484.46	77.24
484.64	49.15
484.82	18.72
485.00	42.13
485.18	112.35
485.35	112.35
485.53	112.35
485.71	0.00
485.89	30.43
486.07	58.51
486.25	56.17
486.43	93.62
486.61	37.45
486.78	30.43
486.96	0.00
487.14	0.00
487.32	93.62
487.50	9.36
487.68	30.43
487.85	39.79
488.03	0.00
488.21	2.34
488.39	152.13
488.57	67.88
488.75	4.68
488.92	131.07
489.10	79.58
489.28	35.11
489.46	79.58
489.64	84.26
489.81	35.11
489.99	74.90
490.17	11.70
490.35	35.11
490.53	35.11
490.70	65.54
490.88	58.51
491.06	110.01
491.24	51.49
491.41	72.56
491.59	98.30
491.77	98.30
491.95	131.07
492.13	28.09
492.30	65.54
492.48	67.88
492.66	77.24
492.84	65.54
493.01	163.84
493.19	121.71
493.37	65.54
493.54	98.30
493.72	135.75
493.90	88.94
494.08	16.38
494.25	100.64
494.43	91.28
494.61	98.30
494.79	67.88
494.96	63.19
495.14	110.01
495.32	117.03
495.49	58.51
495.67	105.32
495.85	105.32
496.02	93.62
496.20	91.28
496.38	100.64
496.55	126.39
496.73	60.85
496.91	88.94
497.09	81.92
497.26	114.69
497.44	65.54
497.62	39.79
497.79	88.94
497.97	98.30
498.14	0.00
498.32	86.60
498.50	39.79
498.67	88.94
498.85	53.83
499.03	46.81
499.20	70.22
499.38	65.54
499.56	30.43
499.73	117.03
499.91	25.75
500.08	44.47
500.26	37.45
500.44	93.62
500.61	102.98
500.79	126.39
500.97	77.24
501.14	25.75
501.32	105.32
501.49	100.64
501.67	133.41
501.84	56.17
502.02	60.85
502.20	88.94
502.37	79.58
502.55	72.56
502.72	44.47
502.90	67.88
503.07	18.72
503.25	72.56
503.43	117.03
503.60	44.47
503.78	21.06
503.95	46.81
504.13	42.13
504.30	53.83
504.48	121.71
504.65	112.35
504.83	112.35
505.01	95.96
505.18	74.90
505.36	63.19
505.53	105.32
505.71	58.51
505.88	88.94
506.06	98.30
506.23	100.64
506.41	121.71
506.58	37.45
506.76	25.75
506.93	46.81
507.11	84.26
507.28	30.43
507.46	39.79
507.63	145.11
507.81	67.88
507.98	88.94
508.16	81.92
508.33	79.58
508.50	77.24
508.68	65.54
508.85	60.85
509.03	63.19
509.20	79.58
509.38	91.28
509.55	100.64
509.73	110.01
509.90	70.22
510.08	133.41
510.25	105.32
510.42	79.58
510.60	84.26
510.77	65.54
510.95	63.19
511.12	86.60
511.30	114.69
511.47	70.22
511.64	142.77
511.82	49.15
511.99	128.73
512.17	0.00
512.34	84.26
512.51	140.43
512.69	25.75
512.86	91.28
513.04	46.81
513.21	107.66
513.38	91.28
513.56	49.15
513.73	131.07
513.90	53.83
514.08	60.85
514.25	70.22
514.43	46.81
514.60	74.90
514.77	91.28
514.95	49.15
515.12	37.45
515.29	100.64
515.47	95.96
515.64	93.62
515.81	145.11
515.99	58.51
516.16	140.43
516.33	44.47
516.51	124.05
516.68	46.81
516.85	65.54
517.03	114.69
517.20	42.13
517.37	102.98
517.54	51.49
517.72	105.32
517.89	131.07
518.06	126.39
518.24	102.98
518.41	105.32
518.58	117.03
518.75	32.77
518.93	138.09
519.10	119.37
519.27	49.15
519.45	84.26
519.62	77.24
519.79	72.56
519.96	152.13
520.14	81.92
520.31	100.64
520.48	95.96
520.65	145.11
520.83	58.51
521.00	93.62
521.17	100.64
521.34	88.94
521.52	37.45
521.69	138.09
521.86	166.18
522.03	81.92
522.20	88.94
522.38	51.49
522.55	25.75
522.72	72.56
522.89	9.36
523.07	18.72
523.24	74.90
523.41	121.71
523.58	93.62
523.75	114.69
523.92	133.41
524.10	74.90
524.27	86.60
524.44	81.92
524.61	81.92
524.78	124.05
524.96	102.98
525.13	44.47
525.30	74.90
525.47	42.13
525.64	67.88
525.81	44.47
525.98	100.64
526.16	135.75
526.33	70.22
526.50	145.11
526.67	95.96
526.84	79.58
527.01	46.81
527.18	168.52
527.36	51.49
527.53	81.92
527.70	72.56
527.87	53.83
528.04	91.28
528.21	84.26
528.38	105.32
528.55	44.47
528.72	72.56
528.89	138.09
529.07	84.26
529.24	135.75
529.41	74.90
529.58	79.58
529.75	119.37
529.92	142.77
530.09	63.19
530.26	53.83
530.43	100.64
530.60	77.24
530.77	18.72
530.94	88.94
531.11	126.39
531.28	58.51
531.46	107.66
531.63	95.96
531.80	100.64
531.97	88.94
532.14	81.92
532.31	117.03
532.48	110.01
532.65	100.64
532.82	187.24
532.99	114.69
533.16	81.92
533.33	142.77
533.50	84.26
533.67	110.01
533.84	91.28
534.01	58.51
534.18	46.81
534.35	107.66
534.52	39.79
534.69	119.37
534.86	77.24
535.03	77.24
535.20	121.71
535.37	95.96
535.54	126.39
535.71	74.90
535.88	70.22
536.05	46.81
536.22	88.94
536.38	86.60
536.55	88.94
536.72	131.07
536.89	46.81
537.06	135.75
537.23	21.06
537.40	107.66
537.57	119.37
537.74	121.71
537.91	67.88
538.08	105.32
538.25	119.37
538.42	135.75
538.59	60.85
538.75	102.98
538.92	105.32
539.09	117.03
539.26	114.69
539.43	49.15
539.60	77.24
539.77	152.13
539.94	4.68
540.11	117.03
540.28	21.06
540.44	86.60
540.61	23.41
540.78	110.01
540.95	124.05
541.12	154.48
541.29	133.41
541.46	56.17
541.62	58.51
541.79	51.49
541.96	32.77
542.13	63.19
542.30	135.75
542.47	119.37
542.63	63.19
542.80	100.64
542.97	93.62
543.14	25.75
543.31	105.32
543.48	112.35
543.64	142.77
543.81	37.45
543.98	46.81
544.15	91.28
544.32	58.51
544.48	88.94
544.65	79.58
544.82	79.58
544.99	117.03
545.16	81.92
545.32	42.13
545.49	105.32
545.66	9.36
545.83	147.45
546.00	142.77
546.16	133.41
546.33	86.60
546.50	37.45
546.67	114.69
546.83	88.94
547.00	131.07
547.17	98.30
547.34	23.41
547.50	88.94
547.67	98.30
547.84	72.56
548.00	77.24
548.17	77.24
548.34	35.11
548.51	105.32
548.67	112.35
548.84	79.58
549.01	93.62
549.18	72.56
549.34	102.98
549.51	84.26
549.68	88.94
549.84	56.17
550.01	58.51
550.18	86.60
550.34	46.81
550.51	112.35
550.68	84.26
550.84	2.34
551.01	102.98
551.18	91.28
551.34	91.28
551.51	65.54
551.68	84.26
551.84	46.81
552.01	56.17
552.18	147.45
552.34	88.94
552.51	51.49
552.68	84.26
552.84	84.26
553.01	70.22
553.18	49.15
553.34	95.96
553.51	25.75
553.67	81.92
553.84	131.07
554.01	117.03
554.17	107.66
554.34	39.79
554.51	0.00
554.67	91.28
554.84	131.07
555.00	98.30
555.17	131.07
555.33	49.15
555.50	25.75
555.67	124.05
555.83	100.64
556.00	16.38
556.16	72.56
556.33	51.49
556.50	131.07
556.66	100.64
556.83	105.32
556.99	117.03
557.16	110.01
557.32	0.00
557.49	53.83
557.65	65.54
557.82	86.60
557.98	53.83
558.15	58.51
558.32	70.22
558.48	124.05
558.65	91.28
558.81	32.77
558.98	49.15
559.14	72.56
559.31	114.69
559.47	65.54
559.64	49.15
559.80	67.88
559.97	81.92
560.13	117.03
560.30	86.60
560.46	138.09
560.63	91.28
560.79	56.17
560.96	63.19
561.12	84.26
561.29	98.30
561.45	102.98
561.61	67.88
561.78	86.60
561.94	159.16
562.11	133.41
562.27	131.07
562.44	124.05
562.60	18.72
562.77	133.41
562.93	74.90
563.10	74.90
563.26	131.07
563.42	37.45
563.59	102.98
563.75	79.58
563.92	84.26
564.08	65.54
564.24	156.82
564.41	133.41
564.57	105.32
564.74	0.00
564.90	77.24
565.07	81.92
565.23	0.00
565.39	58.51
565.56	117.03
565.72	74.90
565.88	112.35
566.05	95.96
566.21	88.94
566.38	107.66
566.54	72.56
566.70	0.00
566.87	107.66
567.03	46.81
567.19	72.56
567.36	32.77
567.52	93.62
567.68	74.90
567.85	110.01
568.01	105.32
568.17	11.70
568.34	81.92
568.50	107.66
568.66	114.69
568.83	44.47
568.99	49.15
569.15	102.98
569.32	114.69
569.48	91.28
569.64	81.92
569.81	0.00
569.97	86.60
570.13	138.09
570.30	56.17
570.46	84.26
570.62	131.07
570.78	28.09
570.95	79.58
571.11	126.39
571.27	138.09
571.43	67.88
571.60	77.24
571.76	84.26
571.92	133.41
572.09	145.11
572.25	65.54
572.41	149.79
572.57	117.03
572.74	74.90
572.90	105.32
573.06	112.35
573.22	16.38
573.38	32.77
573.55	102.98
573.71	74.90
573.87	91.28
574.03	95.96
574.20	107.66
574.36	79.58
574.52	28.09
574.68	77.24
574.84	32.77
575.01	60.85
575.17	86.60
575.33	138.09
575.49	126.39
575.65	93.62
575.82	88.94
575.98	79.58
576.14	110.01
576.30	140.43
576.46	77.24
576.62	147.45
576.79	88.94
576.95	58.51
577.11	86.60
577.27	112.35
577.43	72.56
577.59	0.00
577.75	93.62
577.92	67.88
578.08	16.38
578.24	39.79
578.40	112.35
578.56	100.64
578.72	110.01
578.88	138.09
579.04	163.84
579.21	4.68
579.37	0.00
579.53	60.85
579.69	74.90
579.85	58.51
580.01	79.58
580.17	110.01
580.33	0.00
580.49	30.43
580.65	67.88
580.82	53.83
580.98	105.32
581.14	42.13
581.30	145.11
581.46	110.01
581.62	147.45
581.78	114.69
581.94	65.54
582.10	49.15
582.26	86.60
582.42	37.45
582.58	39.79
582.74	81.92
582.90	84.26
583.06	77.24
583.22	81.92
583.38	46.81
583.54	67.88
583.70	117.03
583.86	51.49
584.02	9.36
584.18	65.54
584.34	32.77
584.50	95.96
584.66	63.19
584.82	39.79
584.98	44.47
585.14	67.88
585.30	114.69
585.46	156.82
585.62	58.51
585.78	63.19
585.94	98.30
586.10	23.41
586.26	86.60
586.42	74.90
586.58	86.60
586.74	91.28
586.90	49.15
587.06	105.32
587.22	0.00
587.38	98.30
587.54	37.45
587.70	49.15
587.86	30.43
588.02	67.88
588.18	74.90
588.34	44.47
588.49	58.51
588.65	88.94
588.81	16.38
588.97	53.83
589.13	145.11
589.29	145.11
589.45	112.35
589.61	56.17
589.77	60.85
589.93	49.15
590.08	28.09
590.24	81.92
590.40	110.01
590.56	88.94
590.72	18.72
590.88	60.85
591.04	119.37
591.20	91.28
591.35	58.51
591.51	30.43
591.67	0.00
591.83	67.88
591.99	0.00
592.15	16.38
592.31	84.26
592.46	72.56
592.62	100.64
592.78	32.77
592.94	0.00
593.10	65.54
593.26	119.37
593.41	0.00
593.57	35.11
593.73	88.94
593.89	74.90
594.05	72.56
594.20	0.00
594.36	81.92
594.52	53.83
594.68	0.00
594.84	79.58
594.99	95.96
595.15	107.66
595.31	117.03
595.47	86.60
595.62	53.83
595.78	114.69
595.94	11.70
596.10	77.24
596.25	46.81
596.41	74.90
596.57	88.94
596.73	58.51
596.88	60.85
597.04	100.64
597.20	56.17
597.36	49.15
597.51	56.17
597.67	142.77
597.83	124.05
597.99	95.96
598.14	110.01
598.30	102.98
598.46	112.35
598.61	67.88
598.77	67.88
598.93	0.00
599.09	105.32
599.24	32.77
599.40	32.77
599.56	117.03
599.71	79.58
599.87	28.09
600.03	0.00
600.18	0.00
600.34	4.68
600.50	44.47
600.65	79.58
600.81	37.45
600.97	77.24
601.12	58.51
601.28	79.58
601.44	117.03
601.59	21.06
601.75	51.49
601.91	53.83
602.06	56.17
602.22	100.64
602.37	91.28
602.53	30.43
602.69	74.90
602.84	37.45
603.00	70.22
603.16	79.58
603.31	51.49
603.47	180.22
603.62	79.58
603.78	63.19
603.94	95.96
604.09	16.38
604.25	119.37
604.40	42.13
604.56	35.11
604.71	42.13
604.87	53.83
605.03	95.96
605.18	63.19
605.34	100.64
605.49	98.30
605.65	95.96
605.80	91.28
605.96	100.64
606.12	67.88
606.27	86.60
606.43	121.71
606.58	110.01
606.74	49.15
606.89	93.62
607.05	93.62
607.20	37.45
607.36	53.83
607.51	121.71
607.67	102.98
607.82	117.03
607.98	35.11
608.13	49.15
608.29	53.83
608.44	51.49
608.60	86.60
608.75	74.90
608.91	135.75
609.06	67.88
609.22	23.41
609.37	65.54
609.53	147.45
609.68	16.38
609.84	79.58
609.99	91.28
610.15	63.19
610.30	60.85
610.46	56.17
610.61	135.75
610.76	145.11
610.92	42.13
611.07	100.64
611.23	16.38
611.38	67.88
611.54	81.92
611.69	65.54
611.84	70.22
612.00	42.13
612.15	124.05
612.31	25.75
612.46	65.54
612.62	46.81
612.77	72.56
612.92	18.72
613.08	121.71
613.23	25.75
613.39	95.96
613.54	65.54
613.69	102.98
613.85	81.92
614.00	70.22
614.15	44.47
614.31	91.28
614.46	51.49
614.62	35.11
614.77	72.56
614.92	86.60
615.08	74.90
615.23	77.24
615.38	23.41
615.54	93.62
615.69	51.49
615.84	63.19
616.00	0.00
616.15	63.19
616.30	119.37
616.46	56.17
616.61	49.15
616.76	60.85
616.92	49.15
617.07	21.06
617.22	140.43
617.37	42.13
617.53	74.90
617.68	102.98
617.83	81.92
617.99	0.00
618.14	30.43
618.29	114.69
618.45	126.39
618.60	63.19
618.75	119.37
618.90	37.45
619.06	9.36
619.21	86.60
619.36	44.47
619.51	98.30
619.67	67.88
619.82	107.66
619.97	79.58
620.12	51.49
620.28	81.92
620.43	0.00
620.58	98.30
620.73	107.66
620.89	2.34
621.04	93.62
621.19	30.43
621.34	28.09
621.49	70.22
621.65	70.22
621.80	65.54
621.95	42.13
622.10	25.75
622.25	88.94
622.41	102.98
622.56	98.30
622.71	14.04
622.86	65.54
623.01	154.48
623.16	72.56
623.32	32.77
623.47	79.58
623.62	124.05
623.77	11.70
623.92	21.06
624.07	72.56
624.23	138.09
624.38	72.56
624.53	107.66
624.68	91.28
624.83	74.90
624.98	81.92
625.13	51.49
625.29	72.56
625.44	114.69
625.59	140.43
625.74	70.22
625.89	84.26
626.04	0.00
626.19	77.24
626.34	91.28
626.49	86.60
626.65	46.81
626.80	60.85
626.95	32.77
627.10	35.11
627.25	60.85
627.40	70.22
627.55	117.03
627.70	25.75
627.85	7.02
628.00	18.72
628.15	107.66
628.30	86.60
628.45	18.72
628.60	79.58
628.76	39.79
628.91	65.54
629.06	30.43
629.21	112.35
629.36	131.07
629.51	51.49
629.66	51.49
629.81	32.77
629.96	121.71
630.11	58.51
630.26	28.09
630.41	7.02
630.56	35.11
630.71	46.81
630.86	28.09
631.01	121.71
631.16	18.72
631.31	25.75
631.46	86.60
631.61	49.15
631.76	37.45
631.91	16.38
632.06	91.28
632.21	135.75
632.36	67.88
632.51	91.28
632.66	84.26
632.81	126.39
632.96	107.66
633.10	86.60
633.25	21.06
633.40	51.49
633.55	102.98
633.70	49.15
633.85	74.90
634.00	0.00
634.15	21.06
634.30	70.22
634.45	168.52
634.60	0.00
634.75	58.51
634.90	86.60
635.05	93.62
635.19	11.70
635.34	39.79
635.49	105.32
635.64	77.24
635.79	91.28
635.94	63.19
636.09	53.83
636.24	77.24
636.39	0.00
636.53	32.77
636.68	0.00
636.83	30.43
636.98	81.92
637.13	9.36
637.28	72.56
637.43	60.85
637.57	28.09
637.72	56.17
637.87	74.90
638.02	51.49
638.17	35.11
638.32	44.47
638.46	2.34
638.61	65.54
638.76	65.54
638.91	25.75
639.06	133.41
639.20	44.47
639.35	35.11
639.50	51.49
639.65	58.51
639.80	63.19
639.94	0.00
640.09	56.17
640.24	77.24
640.39	72.56
640.54	133.41
640.68	56.17
640.83	74.90
640.98	25.75
641.13	53.83
641.27	93.62
641.42	126.39
641.57	49.15
641.72	32.77
641.86	30.43
642.01	30.43
642.16	86.60
642.31	140.43
642.45	14.04
642.60	42.13
642.75	44.47
642.90	16.38
643.04	65.54
643.19	37.45
643.34	35.11
643.48	63.19
643.63	0.00
643.78	44.47
643.93	18.72
644.07	25.75
644.22	0.00
644.37	4.68
644.51	0.00
644.66	102.98
644.81	53.83
644.95	133.41
645.10	18.72
645.25	28.09
645.39	100.64
645.54	49.15
645.69	37.45
645.83	2.34
645.98	46.81
646.13	56.17
646.27	53.83
646.42	9.36
646.57	88.94
646.71	49.15
646.86	65.54
647.00	102.98
647.15	0.00
647.30	0.00
647.44	49.15
647.59	39.79
647.74	0.00
647.88	105.32
648.03	49.15
648.17	98.30
648.32	39.79
648.47	0.00
648.61	72.56
648.76	88.94
648.90	138.09
649.05	107.66
649.20	67.88
649.34	30.43
649.49	11.70
649.63	0.00
649.78	77.24
649.92	65.54
650.07	86.60
650.21	74.90
650.36	74.90
650.51	86.60
650.65	117.03
650.80	35.11
650.94	49.15
651.09	35.11
651.23	79.58
651.38	35.11
651.52	39.79
651.67	39.79
651.81	0.00
651.96	49.15
652.10	58.51
652.25	100.64
652.39	51.49
652.54	7.02
652.68	77.24
652.83	102.98
652.97	81.92
653.12	100.64
653.26	117.03
653.41	86.60
653.55	84.26
653.70	86.60
653.84	30.43
653.99	60.85
654.13	11.70
654.27	32.77
654.42	56.17
654.56	39.79
654.71	63.19
654.85	49.15
655.00	93.62
655.14	107.66
655.29	46.81
655.43	42.13
655.57	14.04
655.72	67.88
655.86	60.85
656.01	42.13
656.15	102.98
656.30	105.32
656.44	93.62
656.58	9.36
656.73	14.04
656.87	7.02
657.01	21.06
657.16	16.38
657.30	37.45
657.45	84.26
657.59	37.45
657.73	37.45
657.88	23.41
658.02	72.56
658.16	98.30
658.31	9.36
658.45	2.34
658.60	11.70
658.74	60.85
658.88	86.60
659.03	37.45
659.17	30.43
659.31	30.43
659.46	30.43
659.60	0.00
659.74	2.34
659.89	30.43
660.03	81.92
660.17	84.26
660.32	44.47
660.46	70.22
660.60	93.62
660.74	65.54
660.89	63.19
661.03	79.58
661.17	60.85
661.32	93.62
661.46	51.49
661.60	49.15
661.74	63.19
661.89	60.85
662.03	39.79
662.17	91.28
662.31	30.43
662.46	49.15
662.60	25.75
662.74	0.00
662.88	53.83
663.03	44.47
663.17	53.83
663.31	9.36
663.45	56.17
663.60	107.66
663.74	42.13
663.88	58.51
664.02	77.24
664.17	81.92
664.31	58.51
664.45	91.28
664.59	88.94
664.73	98.30
664.88	46.81
665.02	119.37
665.16	28.09
665.30	63.19
665.44	79.58
665.59	63.19
665.73	49.15
665.87	72.56
666.01	79.58
666.15	9.36
666.29	0.00
666.44	74.90
666.58	117.03
666.72	0.00
666.86	65.54
667.00	49.15
667.14	102.98
667.28	53.83
667.43	0.00
667.57	0.00
667.71	28.09
667.85	60.85
667.99	145.11
668.13	98.30
668.27	37.45
668.41	37.45
668.56	65.54
668.70	93.62
668.84	91.28
668.98	21.06
669.12	88.94
669.26	7.02
669.40	100.64
669.54	110.01
669.68	37.45
669.82	0.00
669.96	42.13
670.10	135.75
670.25	46.81
670.39	84.26
670.53	95.96
670.67	72.56
670.81	102.98
670.95	98.30
671.09	0.00
671.23	25.75
671.37	39.79
671.51	35.11
671.65	18.72
671.79	28.09
671.93	0.00
672.07	65.54
672.21	37.45
672.35	46.81
672.49	0.00
672.63	9.36
672.77	102.98
672.91	72.56
673.05	42.13
673.19	23.41
673.33	0.00
673.47	49.15
673.61	98.30
673.75	84.26
673.89	53.83
674.03	98.30
674.17	56.17
674.31	63.19
674.45	124.05
674.59	46.81
674.73	70.22
674.87	74.90
675.01	86.60
675.15	21.06
675.29	14.04
675.43	0.00
675.56	131.07
675.70	37.45
675.84	93.62
675.98	37.45
676.12	4.68
676.26	16.38
676.40	21.06
676.54	23.41
676.68	105.32
676.82	93.62
676.96	63.19
677.10	44.47
677.23	44.47
677.37	4.68
677.51	51.49
677.65	0.00
677.79	37.45
677.93	77.24
678.07	51.49
678.21	72.56
678.34	11.70
678.48	0.00
678.62	0.00
678.76	0.00
678.90	25.75
679.04	30.43
679.18	0.00
679.31	121.71
679.45	56.17
679.59	53.83
679.73	39.79
679.87	77.24
680.00	21.06
680.14	0.00
680.28	84.26
680.42	39.79
680.56	18.72
680.70	58.51
680.83	72.56
680.97	53.83
681.11	67.88
681.25	25.75
681.39	72.56
681.52	100.64
681.66	63.19
681.80	0.00
681.94	39.79
682.07	16.38
682.21	0.00
682.35	51.49
682.49	14.04
682.62	21.06
682.76	25.75
682.90	46.81
683.04	56.17
683.17	25.75
683.31	9.36
683.45	39.79
683.59	56.17
683.72	70.22
683.86	65.54
684.00	65.54
684.13	4.68
684.27	53.83
684.41	28.09
684.55	70.22
684.68	23.41
684.82	7.02
684.96	28.09
685.09	49.15
685.23	105.32
685.37	88.94
685.50	124.05
685.64	70.22
685.78	0.00
685.91	112.35
686.05	42.13
686.19	77.24
686.32	58.51
686.46	0.00
686.60	11.70
686.73	0.00
686.87	0.00
687.01	30.43
687.14	0.00
687.28	42.13
687.42	9.36
687.55	23.41
687.69	11.70
687.82	11.70
687.96	0.00
688.10	16.38
688.23	0.00
688.37	51.49
688.50	42.13
688.64	16.38
688.78	86.60
688.91	77.24
689.05	49.15
689.18	0.00
689.32	0.00
689.46	60.85
689.59	30.43
689.73	58.51
689.86	30.43
690.00	51.49
690.13	88.94
690.27	0.00
690.41	32.77
690.54	39.79
690.68	0.00
690.81	112.35
690.95	79.58
691.08	95.96
691.22	21.06
691.35	110.01
691.49	30.43
691.62	100.64
691.76	81.92
691.89	49.15
692.03	16.38
692.16	74.90
692.30	23.41
692.43	39.79
692.57	4.68
692.70	39.79
692.84	21.06
692.97	37.45
693.11	51.49
693.24	42.13
693.38	63.19
693.51	46.81
693.65	51.49
693.78	23.41
693.92	37.45
694.05	91.28
694.19	107.66
694.32	37.45
694.45	58.51
694.59	44.47
694.72	63.19
694.86	16.38
694.99	4.68
695.13	18.72
695.26	60.85
695.39	51.49
695.53	88.94
695.66	0.00
695.80	37.45
695.93	28.09
696.07	30.43
696.20	37.45
696.33	18.72
696.47	105.32
696.60	35.11
696.73	88.94
696.87	46.81
697.00	37.45
697.14	72.56
697.27	42.13
697.40	0.00
697.54	42.13
697.67	25.75
697.80	7.02
697.94	70.22
698.07	72.56
698.21	133.41
698.34	35.11
698.47	23.41
698.61	91.28
698.74	0.00
698.87	42.13
699.01	0.00
699.14	124.05
699.27	102.98
699.40	65.54
699.54	0.00
699.67	23.41
699.80	39.79
699.94	67.88
700.07	0.00
700.20	0.00
700.34	0.00
700.47	77.24
700.60	11.70
700.73	95.96
700.87	42.13
701.00	46.81
701.13	35.11
701.26	51.49
701.40	42.13
701.53	56.17
701.66	0.00
701.79	0.00
701.93	60.85
702.06	39.79
702.19	23.41
702.32	14.04
702.46	18.72
702.59	28.09
702.72	21.06
702.85	79.58
702.99	32.77
703.12	2.34
703.25	4.68
703.38	32.77
703.51	0.00
703.65	0.00
703.78	30.43
703.91	0.00
704.04	74.90
704.17	42.13
704.31	114.69
704.44	63.19
704.57	70.22
704.70	0.00
704.83	28.09
704.96	0.00
705.10	39.79
705.23	32.77
>>>>>End Processed Spectral Data<<<<<
