SpectraSuite Data File
++++++++++++++++++++++++++++++++++++
Date: Fri Oct 04 12:13:41 GMT-05:00 2013
User: price-jones
Dark Spectrum Present: No
Reference Spectrum Present: No
Number of Sampled Component Spectra: 1
Spectrometers: USB2+H05261
Integration Time (usec): 10000 (USB2+H05261)
Spectra Averaged: 1 (USB2+H05261)
Boxcar Smoothing: 0 (USB2+H05261)
Correct for Electrical Dark: No (USB2+H05261)
Strobe/Lamp Enabled: No (USB2+H05261)
Correct for Detector Non-linearity: No (USB2+H05261)
Correct for Stray Light: No (USB2+H05261)
Number of Pixels in Processed Spectrum: 2048
>>>>>Begin Processed Spectral Data<<<<<
365.73	60.85
365.92	60.85
366.12	60.85
366.32	0.00
366.52	0.00
366.72	0.00
366.91	0.00
367.11	0.00
367.31	0.00
367.51	0.00
367.70	0.00
367.90	0.00
368.10	0.00
368.30	0.00
368.49	0.00
368.69	0.00
368.89	0.00
369.09	0.00
369.28	0.00
369.48	0.00
369.68	18.72
369.87	0.00
370.07	0.00
370.27	0.00
370.47	0.00
370.66	0.00
370.86	0.00
371.06	0.00
371.25	53.83
371.45	7.02
371.65	0.00
371.84	0.00
372.04	0.00
372.24	0.00
372.44	0.00
372.63	0.00
372.83	21.06
373.03	51.49
373.22	0.00
373.42	72.56
373.62	25.75
373.81	79.58
374.01	0.00
374.21	25.75
374.40	65.54
374.60	79.58
374.79	74.90
374.99	0.00
375.19	67.88
375.38	0.00
375.58	21.06
375.78	4.68
375.97	28.09
376.17	46.81
376.37	110.01
376.56	81.92
376.76	95.96
376.95	135.75
377.15	51.49
377.35	7.02
377.54	4.68
377.74	0.00
377.93	39.79
378.13	14.04
378.33	37.45
378.52	0.00
378.72	14.04
378.91	49.15
379.11	7.02
379.31	58.51
379.50	42.13
379.70	0.00
379.89	18.72
380.09	0.00
380.28	32.77
380.48	46.81
380.68	11.70
380.87	49.15
381.07	4.68
381.26	0.00
381.46	49.15
381.65	49.15
381.85	72.56
382.04	0.00
382.24	14.04
382.43	7.02
382.63	30.43
382.83	16.38
383.02	79.58
383.22	11.70
383.41	32.77
383.61	0.00
383.80	2.34
384.00	105.32
384.19	77.24
384.39	0.00
384.58	0.00
384.78	18.72
384.97	0.00
385.17	11.70
385.36	42.13
385.56	49.15
385.75	37.45
385.95	28.09
386.14	16.38
386.34	21.06
386.53	0.00
386.72	0.00
386.92	0.00
387.11	4.68
387.31	42.13
387.50	63.19
387.70	32.77
387.89	0.00
388.09	42.13
388.28	32.77
388.48	32.77
388.67	42.13
388.86	44.47
389.06	63.19
389.25	0.00
389.45	42.13
389.64	35.11
389.84	23.41
390.03	16.38
390.22	23.41
390.42	46.81
390.61	0.00
390.81	16.38
391.00	0.00
391.19	16.38
391.39	11.70
391.58	30.43
391.78	72.56
391.97	110.01
392.16	0.00
392.36	84.26
392.55	44.47
392.75	35.11
392.94	128.73
393.13	16.38
393.33	0.00
393.52	23.41
393.71	44.47
393.91	39.79
394.10	35.11
394.29	30.43
394.49	93.62
394.68	72.56
394.88	88.94
395.07	121.71
395.26	84.26
395.46	0.00
395.65	2.34
395.84	21.06
396.04	63.19
396.23	49.15
396.42	23.41
396.62	37.45
396.81	65.54
397.00	0.00
397.19	60.85
397.39	91.28
397.58	39.79
397.77	23.41
397.97	84.26
398.16	4.68
398.35	0.00
398.55	16.38
398.74	28.09
398.93	107.66
399.12	30.43
399.32	0.00
399.51	0.00
399.70	7.02
399.90	42.13
400.09	39.79
400.28	9.36
400.47	67.88
400.67	0.00
400.86	0.00
401.05	102.98
401.24	128.73
401.44	21.06
401.63	37.45
401.82	35.11
402.01	60.85
402.21	37.45
402.40	30.43
402.59	23.41
402.78	0.00
402.97	4.68
403.17	0.00
403.36	35.11
403.55	72.56
403.74	67.88
403.93	70.22
404.13	0.00
404.32	65.54
404.51	114.69
404.70	37.45
404.89	74.90
405.09	56.17
405.28	53.83
405.47	56.17
405.66	67.88
405.85	32.77
406.05	30.43
406.24	63.19
406.43	44.47
406.62	49.15
406.81	0.00
407.00	0.00
407.20	81.92
407.39	9.36
407.58	0.00
407.77	0.00
407.96	21.06
408.15	18.72
408.34	124.05
408.54	23.41
408.73	98.30
408.92	102.98
409.11	18.72
409.30	30.43
409.49	0.00
409.68	16.38
409.87	44.47
410.07	74.90
410.26	74.90
410.45	86.60
410.64	46.81
410.83	0.00
411.02	16.38
411.21	74.90
411.40	39.79
411.59	39.79
411.78	4.68
411.98	0.00
412.17	0.00
412.36	0.00
412.55	42.13
412.74	49.15
412.93	98.30
413.12	46.81
413.31	53.83
413.50	0.00
413.69	0.00
413.88	84.26
414.07	65.54
414.26	11.70
414.45	79.58
414.64	53.83
414.83	0.00
415.02	65.54
415.22	0.00
415.41	67.88
415.60	44.47
415.79	74.90
415.98	25.75
416.17	23.41
416.36	25.75
416.55	11.70
416.74	0.00
416.93	23.41
417.12	63.19
417.31	37.45
417.50	21.06
417.69	21.06
417.88	112.35
418.07	49.15
418.26	0.00
418.45	84.26
418.64	39.79
418.83	32.77
419.02	0.00
419.21	42.13
419.39	39.79
419.58	74.90
419.77	9.36
419.96	46.81
420.15	0.00
420.34	23.41
420.53	2.34
420.72	100.64
420.91	81.92
421.10	74.90
421.29	0.00
421.48	30.43
421.67	86.60
421.86	4.68
422.05	112.35
422.24	35.11
422.43	4.68
422.61	91.28
422.80	77.24
422.99	32.77
423.18	0.00
423.37	35.11
423.56	0.00
423.75	7.02
423.94	84.26
424.13	23.41
424.32	25.75
424.50	0.00
424.69	37.45
424.88	35.11
425.07	67.88
425.26	70.22
425.45	16.38
425.64	2.34
425.83	14.04
426.01	117.03
426.20	0.00
426.39	9.36
426.58	53.83
426.77	9.36
426.96	30.43
427.15	23.41
427.33	28.09
427.52	91.28
427.71	70.22
427.90	9.36
428.09	37.45
428.28	53.83
428.46	51.49
428.65	42.13
428.84	84.26
429.03	117.03
429.22	7.02
429.40	56.17
429.59	60.85
429.78	121.71
429.97	35.11
430.16	91.28
430.34	30.43
430.53	39.79
430.72	39.79
430.91	21.06
431.10	0.00
431.28	0.00
431.47	25.75
431.66	145.11
431.85	53.83
432.03	105.32
432.22	9.36
432.41	14.04
432.60	9.36
432.79	11.70
432.97	77.24
433.16	63.19
433.35	39.79
433.54	9.36
433.72	56.17
433.91	46.81
434.10	63.19
434.28	74.90
434.47	58.51
434.66	72.56
434.85	0.00
435.03	79.58
435.22	72.56
435.41	30.43
435.59	23.41
435.78	63.19
435.97	56.17
436.16	11.70
436.34	72.56
436.53	74.90
436.72	81.92
436.90	49.15
437.09	42.13
437.28	100.64
437.46	25.75
437.65	51.49
437.84	77.24
438.02	79.58
438.21	107.66
438.40	14.04
438.58	53.83
438.77	16.38
438.96	51.49
439.14	65.54
439.33	16.38
439.52	23.41
439.70	2.34
439.89	39.79
440.08	32.77
440.26	56.17
440.45	74.90
440.63	77.24
440.82	84.26
441.01	65.54
441.19	70.22
441.38	28.09
441.57	98.30
441.75	30.43
441.94	58.51
442.12	0.00
442.31	79.58
442.50	70.22
442.68	30.43
442.87	107.66
443.05	72.56
443.24	0.00
443.43	2.34
443.61	65.54
443.80	65.54
443.98	21.06
444.17	0.00
444.35	60.85
444.54	65.54
444.73	102.98
444.91	11.70
445.10	86.60
445.28	79.58
445.47	84.26
445.65	28.09
445.84	46.81
446.02	21.06
446.21	114.69
446.39	112.35
446.58	77.24
446.77	32.77
446.95	58.51
447.14	42.13
447.32	131.07
447.51	72.56
447.69	46.81
447.88	72.56
448.06	2.34
448.25	44.47
448.43	28.09
448.62	46.81
448.80	0.00
448.99	0.00
449.17	2.34
449.36	51.49
449.54	39.79
449.73	98.30
449.91	56.17
450.10	128.73
450.28	49.15
450.46	79.58
450.65	79.58
450.83	0.00
451.02	21.06
451.20	32.77
451.39	42.13
451.57	65.54
451.76	46.81
451.94	30.43
452.13	119.37
452.31	72.56
452.49	0.00
452.68	70.22
452.86	39.79
453.05	21.06
453.23	49.15
453.42	65.54
453.60	107.66
453.78	114.69
453.97	0.00
454.15	25.75
454.34	65.54
454.52	74.90
454.70	152.13
454.89	35.11
455.07	44.47
455.26	84.26
455.44	23.41
455.62	65.54
455.81	35.11
455.99	56.17
456.17	0.00
456.36	79.58
456.54	0.00
456.73	44.47
456.91	42.13
457.09	32.77
457.28	60.85
457.46	35.11
457.64	49.15
457.83	0.00
458.01	79.58
458.19	72.56
458.38	7.02
458.56	37.45
458.74	53.83
458.93	25.75
459.11	35.11
459.29	21.06
459.48	102.98
459.66	88.94
459.84	58.51
460.03	58.51
460.21	39.79
460.39	110.01
460.57	84.26
460.76	0.00
460.94	0.00
461.12	2.34
461.31	88.94
461.49	63.19
461.67	112.35
461.85	110.01
462.04	100.64
462.22	72.56
462.40	70.22
462.59	114.69
462.77	0.00
462.95	91.28
463.13	91.28
463.32	58.51
463.50	46.81
463.68	53.83
463.86	37.45
464.05	74.90
464.23	0.00
464.41	11.70
464.59	28.09
464.78	51.49
464.96	102.98
465.14	67.88
465.32	46.81
465.50	114.69
465.69	60.85
465.87	30.43
466.05	100.64
466.23	74.90
466.41	56.17
466.60	110.01
466.78	44.47
466.96	74.90
467.14	35.11
467.32	16.38
467.51	72.56
467.69	126.39
467.87	0.00
468.05	53.83
468.23	67.88
468.41	46.81
468.60	105.32
468.78	7.02
468.96	60.85
469.14	58.51
469.32	121.71
469.50	11.70
469.69	107.66
469.87	84.26
470.05	25.75
470.23	32.77
470.41	30.43
470.59	51.49
470.77	98.30
470.95	28.09
471.14	44.47
471.32	72.56
471.50	70.22
471.68	88.94
471.86	28.09
472.04	98.30
472.22	16.38
472.40	0.00
472.58	28.09
472.77	37.45
472.95	110.01
473.13	60.85
473.31	86.60
473.49	53.83
473.67	44.47
473.85	107.66
474.03	42.13
474.21	18.72
474.39	67.88
474.57	0.00
474.75	7.02
474.93	58.51
475.12	18.72
475.30	105.32
475.48	105.32
475.66	58.51
475.84	112.35
476.02	74.90
476.20	58.51
476.38	65.54
476.56	56.17
476.74	51.49
476.92	46.81
477.10	77.24
477.28	39.79
477.46	0.00
477.64	37.45
477.82	121.71
478.00	74.90
478.18	35.11
478.36	16.38
478.54	28.09
478.72	72.56
478.90	81.92
479.08	79.58
479.26	30.43
479.44	84.26
479.62	46.81
479.80	140.43
479.98	58.51
480.16	18.72
480.34	65.54
480.52	91.28
480.70	112.35
480.88	93.62
481.06	23.41
481.24	39.79
481.41	63.19
481.59	81.92
481.77	35.11
481.95	95.96
482.13	35.11
482.31	30.43
482.49	46.81
482.67	51.49
482.85	44.47
483.03	49.15
483.21	35.11
483.39	42.13
483.57	42.13
483.74	70.22
483.92	32.77
484.10	93.62
484.28	126.39
484.46	105.32
484.64	18.72
484.82	23.41
485.00	9.36
485.18	112.35
485.35	37.45
485.53	51.49
485.71	63.19
485.89	49.15
486.07	117.03
486.25	93.62
486.43	88.94
486.61	79.58
486.78	32.77
486.96	60.85
487.14	56.17
487.32	107.66
487.50	121.71
487.68	74.90
487.85	128.73
488.03	25.75
488.21	110.01
488.39	140.43
488.57	81.92
488.75	58.51
488.92	149.79
489.10	0.00
489.28	37.45
489.46	154.48
489.64	0.00
489.81	114.69
489.99	95.96
490.17	56.17
490.35	95.96
490.53	168.52
490.70	37.45
490.88	56.17
491.06	39.79
491.24	124.05
491.41	58.51
491.59	49.15
491.77	18.72
491.95	63.19
492.13	49.15
492.30	98.30
492.48	60.85
492.66	72.56
492.84	60.85
493.01	98.30
493.19	35.11
493.37	70.22
493.54	86.60
493.72	63.19
493.90	84.26
494.08	67.88
494.25	18.72
494.43	18.72
494.61	84.26
494.79	16.38
494.96	91.28
495.14	25.75
495.32	23.41
495.49	93.62
495.67	131.07
495.85	11.70
496.02	39.79
496.20	28.09
496.38	154.48
496.55	81.92
496.73	49.15
496.91	72.56
497.09	0.00
497.26	121.71
497.44	91.28
497.62	107.66
497.79	42.13
497.97	84.26
498.14	32.77
498.32	102.98
498.50	117.03
498.67	67.88
498.85	74.90
499.03	112.35
499.20	56.17
499.38	65.54
499.56	74.90
499.73	91.28
499.91	46.81
500.08	105.32
500.26	49.15
500.44	147.45
500.61	102.98
500.79	81.92
500.97	14.04
501.14	28.09
501.32	65.54
501.49	128.73
501.67	30.43
501.84	53.83
502.02	95.96
502.20	0.00
502.37	42.13
502.55	100.64
502.72	56.17
502.90	16.38
503.07	37.45
503.25	91.28
503.43	93.62
503.60	21.06
503.78	0.00
503.95	152.13
504.13	9.36
504.30	46.81
504.48	42.13
504.65	70.22
504.83	65.54
505.01	180.22
505.18	105.32
505.36	42.13
505.53	88.94
505.71	84.26
505.88	77.24
506.06	77.24
506.23	84.26
506.41	100.64
506.58	95.96
506.76	126.39
506.93	166.18
507.11	63.19
507.28	81.92
507.46	35.11
507.63	86.60
507.81	58.51
507.98	0.00
508.16	60.85
508.33	98.30
508.50	60.85
508.68	42.13
508.85	23.41
509.03	72.56
509.20	112.35
509.38	93.62
509.55	93.62
509.73	46.81
509.90	98.30
510.08	86.60
510.25	74.90
510.42	145.11
510.60	128.73
510.77	88.94
510.95	142.77
511.12	88.94
511.30	88.94
511.47	81.92
511.64	140.43
511.82	84.26
511.99	65.54
512.17	70.22
512.34	11.70
512.51	72.56
512.69	74.90
512.86	42.13
513.04	110.01
513.21	72.56
513.38	84.26
513.56	88.94
513.73	32.77
513.90	126.39
514.08	79.58
514.25	58.51
514.43	67.88
514.60	121.71
514.77	58.51
514.95	98.30
515.12	124.05
515.29	110.01
515.47	105.32
515.64	105.32
515.81	107.66
515.99	86.60
516.16	84.26
516.33	58.51
516.51	58.51
516.68	28.09
516.85	37.45
517.03	58.51
517.20	79.58
517.37	72.56
517.54	161.50
517.72	105.32
517.89	0.00
518.06	110.01
518.24	37.45
518.41	135.75
518.58	133.41
518.75	98.30
518.93	74.90
519.10	102.98
519.27	79.58
519.45	79.58
519.62	30.43
519.79	117.03
519.96	86.60
520.14	30.43
520.31	81.92
520.48	86.60
520.65	102.98
520.83	145.11
521.00	65.54
521.17	0.00
521.34	128.73
521.52	72.56
521.69	14.04
521.86	44.47
522.03	86.60
522.20	100.64
522.38	84.26
522.55	58.51
522.72	65.54
522.89	105.32
523.07	88.94
523.24	112.35
523.41	49.15
523.58	88.94
523.75	135.75
523.92	110.01
524.10	131.07
524.27	25.75
524.44	93.62
524.61	46.81
524.78	135.75
524.96	95.96
525.13	30.43
525.30	65.54
525.47	138.09
525.64	95.96
525.81	25.75
525.98	114.69
526.16	21.06
526.33	46.81
526.50	37.45
526.67	0.00
526.84	91.28
527.01	163.84
527.18	93.62
527.36	119.37
527.53	152.13
527.70	39.79
527.87	98.30
528.04	72.56
528.21	14.04
528.38	100.64
528.55	51.49
528.72	145.11
528.89	154.48
529.07	23.41
529.24	105.32
529.41	128.73
529.58	114.69
529.75	133.41
529.92	91.28
530.09	98.30
530.26	84.26
530.43	149.79
530.60	102.98
530.77	86.60
530.94	65.54
531.11	95.96
531.28	35.11
531.46	65.54
531.63	79.58
531.80	79.58
531.97	86.60
532.14	70.22
532.31	102.98
532.48	135.75
532.65	126.39
532.82	79.58
532.99	25.75
533.16	107.66
533.33	81.92
533.50	182.56
533.67	39.79
533.84	60.85
534.01	98.30
534.18	51.49
534.35	70.22
534.52	135.75
534.69	105.32
534.86	86.60
535.03	67.88
535.20	32.77
535.37	98.30
535.54	74.90
535.71	117.03
535.88	58.51
536.05	91.28
536.22	102.98
536.38	86.60
536.55	107.66
536.72	53.83
536.89	4.68
537.06	70.22
537.23	63.19
537.40	58.51
537.57	110.01
537.74	126.39
537.91	42.13
538.08	42.13
538.25	105.32
538.42	110.01
538.59	49.15
538.75	72.56
538.92	138.09
539.09	65.54
539.26	95.96
539.43	42.13
539.60	138.09
539.77	88.94
539.94	32.77
540.11	53.83
540.28	70.22
540.44	37.45
540.61	77.24
540.78	84.26
540.95	107.66
541.12	84.26
541.29	112.35
541.46	35.11
541.62	114.69
541.79	159.16
541.96	70.22
542.13	65.54
542.30	102.98
542.47	128.73
542.63	35.11
542.80	88.94
542.97	128.73
543.14	46.81
543.31	53.83
543.48	49.15
543.64	46.81
543.81	65.54
543.98	60.85
544.15	58.51
544.32	88.94
544.48	44.47
544.65	88.94
544.82	135.75
544.99	86.60
545.16	98.30
545.32	81.92
545.49	95.96
545.66	72.56
545.83	65.54
546.00	11.70
546.16	107.66
546.33	0.00
546.50	84.26
546.67	56.17
546.83	135.75
547.00	86.60
547.17	30.43
547.34	32.77
547.50	23.41
547.67	16.38
547.84	56.17
548.00	102.98
548.17	51.49
548.34	79.58
548.51	77.24
548.67	98.30
548.84	84.26
549.01	56.17
549.18	63.19
549.34	107.66
549.51	18.72
549.68	121.71
549.84	63.19
550.01	42.13
550.18	65.54
550.34	93.62
550.51	156.82
550.68	110.01
550.84	79.58
551.01	56.17
551.18	102.98
551.34	60.85
551.51	142.77
551.68	60.85
551.84	70.22
552.01	154.48
552.18	70.22
552.34	72.56
552.51	93.62
552.68	110.01
552.84	79.58
553.01	95.96
553.18	110.01
553.34	70.22
553.51	98.30
553.67	49.15
553.84	93.62
554.01	126.39
554.17	7.02
554.34	105.32
554.51	105.32
554.67	107.66
554.84	81.92
555.00	102.98
555.17	37.45
555.33	91.28
555.50	63.19
555.67	102.98
555.83	112.35
556.00	86.60
556.16	74.90
556.33	93.62
556.50	95.96
556.66	126.39
556.83	95.96
556.99	102.98
557.16	100.64
557.32	105.32
557.49	70.22
557.65	28.09
557.82	30.43
557.98	49.15
558.15	72.56
558.32	110.01
558.48	145.11
558.65	105.32
558.81	81.92
558.98	142.77
559.14	28.09
559.31	63.19
559.47	0.00
559.64	114.69
559.80	58.51
559.97	58.51
560.13	28.09
560.30	65.54
560.46	74.90
560.63	30.43
560.79	100.64
560.96	91.28
561.12	110.01
561.29	81.92
561.45	107.66
561.61	74.90
561.78	93.62
561.94	81.92
562.11	81.92
562.27	44.47
562.44	16.38
562.60	114.69
562.77	110.01
562.93	77.24
563.10	53.83
563.26	28.09
563.42	84.26
563.59	95.96
563.75	72.56
563.92	88.94
564.08	126.39
564.24	77.24
564.41	70.22
564.57	98.30
564.74	42.13
564.90	112.35
565.07	121.71
565.23	105.32
565.39	100.64
565.56	168.52
565.72	72.56
565.88	30.43
566.05	58.51
566.21	98.30
566.38	170.86
566.54	114.69
566.70	93.62
566.87	32.77
567.03	72.56
567.19	56.17
567.36	72.56
567.52	95.96
567.68	88.94
567.85	44.47
568.01	88.94
568.17	81.92
568.34	79.58
568.50	42.13
568.66	65.54
568.83	51.49
568.99	63.19
569.15	79.58
569.32	44.47
569.48	53.83
569.64	88.94
569.81	63.19
569.97	95.96
570.13	72.56
570.30	93.62
570.46	63.19
570.62	95.96
570.78	74.90
570.95	0.00
571.11	84.26
571.27	49.15
571.43	28.09
571.60	25.75
571.76	44.47
571.92	56.17
572.09	133.41
572.25	35.11
572.41	35.11
572.57	46.81
572.74	107.66
572.90	163.84
573.06	9.36
573.22	114.69
573.38	119.37
573.55	112.35
573.71	88.94
573.87	114.69
574.03	93.62
574.20	79.58
574.36	124.05
574.52	77.24
574.68	128.73
574.84	56.17
575.01	110.01
575.17	105.32
575.33	39.79
575.49	60.85
575.65	95.96
575.82	159.16
575.98	49.15
576.14	133.41
576.30	84.26
576.46	107.66
576.62	102.98
576.79	177.88
576.95	84.26
577.11	9.36
577.27	117.03
577.43	35.11
577.59	91.28
577.75	56.17
577.92	86.60
578.08	74.90
578.24	58.51
578.40	117.03
578.56	95.96
578.72	77.24
578.88	124.05
579.04	21.06
579.21	70.22
579.37	35.11
579.53	166.18
579.69	184.90
579.85	35.11
580.01	0.00
580.17	126.39
580.33	91.28
580.49	30.43
580.65	119.37
580.82	16.38
580.98	74.90
581.14	65.54
581.30	74.90
581.46	133.41
581.62	28.09
581.78	112.35
581.94	25.75
582.10	110.01
582.26	67.88
582.42	56.17
582.58	112.35
582.74	110.01
582.90	37.45
583.06	88.94
583.22	67.88
583.38	42.13
583.54	79.58
583.70	0.00
583.86	60.85
584.02	102.98
584.18	107.66
584.34	133.41
584.50	114.69
584.66	95.96
584.82	51.49
584.98	74.90
585.14	86.60
585.30	39.79
585.46	156.82
585.62	91.28
585.78	81.92
585.94	63.19
586.10	35.11
586.26	51.49
586.42	81.92
586.58	4.68
586.74	74.90
586.90	25.75
587.06	88.94
587.22	42.13
587.38	93.62
587.54	49.15
587.70	28.09
587.86	93.62
588.02	102.98
588.18	88.94
588.34	46.81
588.49	51.49
588.65	7.02
588.81	81.92
588.97	37.45
589.13	32.77
589.29	105.32
589.45	53.83
589.61	0.00
589.77	65.54
589.93	32.77
590.08	86.60
590.24	67.88
590.40	67.88
590.56	65.54
590.72	70.22
590.88	60.85
591.04	91.28
591.20	86.60
591.35	88.94
591.51	95.96
591.67	81.92
591.83	84.26
591.99	81.92
592.15	98.30
592.31	25.75
592.46	95.96
592.62	74.90
592.78	51.49
592.94	110.01
593.10	100.64
593.26	32.77
593.41	93.62
593.57	93.62
593.73	58.51
593.89	107.66
594.05	126.39
594.20	46.81
594.36	11.70
594.52	81.92
594.68	35.11
594.84	49.15
594.99	35.11
595.15	0.00
595.31	77.24
595.47	110.01
595.62	91.28
595.78	79.58
595.94	79.58
596.10	65.54
596.25	67.88
596.41	9.36
596.57	56.17
596.73	18.72
596.88	110.01
597.04	56.17
597.20	14.04
597.36	72.56
597.51	70.22
597.67	117.03
597.83	65.54
597.99	60.85
598.14	84.26
598.30	84.26
598.46	70.22
598.61	117.03
598.77	70.22
598.93	135.75
599.09	44.47
599.24	107.66
599.40	72.56
599.56	98.30
599.71	100.64
599.87	93.62
600.03	112.35
600.18	23.41
600.34	112.35
600.50	65.54
600.65	121.71
600.81	84.26
600.97	105.32
601.12	39.79
601.28	124.05
601.44	128.73
601.59	42.13
601.75	37.45
601.91	67.88
602.06	65.54
602.22	70.22
602.37	98.30
602.53	0.00
602.69	86.60
602.84	72.56
603.00	81.92
603.16	46.81
603.31	56.17
603.47	112.35
603.62	35.11
603.78	51.49
603.94	58.51
604.09	72.56
604.25	58.51
604.40	88.94
604.56	142.77
604.71	65.54
604.87	105.32
605.03	72.56
605.18	14.04
605.34	23.41
605.49	81.92
605.65	124.05
605.80	44.47
605.96	58.51
606.12	42.13
606.27	110.01
606.43	91.28
606.58	53.83
606.74	86.60
606.89	84.26
607.05	86.60
607.20	56.17
607.36	100.64
607.51	37.45
607.67	72.56
607.82	49.15
607.98	56.17
608.13	93.62
608.29	65.54
608.44	42.13
608.60	86.60
608.75	142.77
608.91	67.88
609.06	107.66
609.22	86.60
609.37	67.88
609.53	67.88
609.68	16.38
609.84	65.54
609.99	44.47
610.15	0.00
610.30	93.62
610.46	56.17
610.61	60.85
610.76	81.92
610.92	23.41
611.07	0.00
611.23	98.30
611.38	53.83
611.54	81.92
611.69	14.04
611.84	74.90
612.00	9.36
612.15	117.03
612.31	133.41
612.46	112.35
612.62	77.24
612.77	23.41
612.92	114.69
613.08	124.05
613.23	32.77
613.39	42.13
613.54	9.36
613.69	98.30
613.85	105.32
614.00	28.09
614.15	16.38
614.31	28.09
614.46	65.54
614.62	163.84
614.77	7.02
614.92	23.41
615.08	145.11
615.23	0.00
615.38	28.09
615.54	14.04
615.69	53.83
615.84	56.17
616.00	72.56
616.15	60.85
616.30	74.90
616.46	70.22
616.61	9.36
616.76	65.54
616.92	72.56
617.07	65.54
617.22	18.72
617.37	77.24
617.53	100.64
617.68	100.64
617.83	53.83
617.99	98.30
618.14	91.28
618.29	121.71
618.45	65.54
618.60	110.01
618.75	126.39
618.90	121.71
619.06	42.13
619.21	102.98
619.36	46.81
619.51	67.88
619.67	93.62
619.82	84.26
619.97	0.00
620.12	126.39
620.28	100.64
620.43	67.88
620.58	110.01
620.73	18.72
620.89	91.28
621.04	25.75
621.19	74.90
621.34	147.45
621.49	56.17
621.65	18.72
621.80	72.56
621.95	18.72
622.10	49.15
622.25	35.11
622.41	58.51
622.56	91.28
622.71	124.05
622.86	77.24
623.01	46.81
623.16	70.22
623.32	100.64
623.47	63.19
623.62	79.58
623.77	81.92
623.92	63.19
624.07	98.30
624.23	37.45
624.38	56.17
624.53	102.98
624.68	51.49
624.83	46.81
624.98	91.28
625.13	86.60
625.29	23.41
625.44	93.62
625.59	70.22
625.74	63.19
625.89	60.85
626.04	0.00
626.19	49.15
626.34	28.09
626.49	81.92
626.65	28.09
626.80	81.92
626.95	51.49
627.10	86.60
627.25	0.00
627.40	35.11
627.55	51.49
627.70	131.07
627.85	65.54
628.00	44.47
628.15	67.88
628.30	74.90
628.45	110.01
628.60	77.24
628.76	32.77
628.91	53.83
629.06	65.54
629.21	110.01
629.36	77.24
629.51	28.09
629.66	39.79
629.81	56.17
629.96	86.60
630.11	84.26
630.26	67.88
630.41	42.13
630.56	86.60
630.71	86.60
630.86	49.15
631.01	30.43
631.16	0.00
631.31	63.19
631.46	72.56
631.61	67.88
631.76	63.19
631.91	81.92
632.06	58.51
632.21	44.47
632.36	100.64
632.51	46.81
632.66	23.41
632.81	4.68
632.96	70.22
633.10	77.24
633.25	105.32
633.40	88.94
633.55	77.24
633.70	74.90
633.85	0.00
634.00	67.88
634.15	107.66
634.30	49.15
634.45	2.34
634.60	21.06
634.75	46.81
634.90	72.56
635.05	102.98
635.19	67.88
635.34	46.81
635.49	0.00
635.64	0.00
635.79	28.09
635.94	35.11
636.09	79.58
636.24	60.85
636.39	63.19
636.53	81.92
636.68	49.15
636.83	70.22
636.98	81.92
637.13	32.77
637.28	102.98
637.43	79.58
637.57	114.69
637.72	25.75
637.87	42.13
638.02	112.35
638.17	114.69
638.32	105.32
638.46	28.09
638.61	0.00
638.76	37.45
638.91	88.94
639.06	67.88
639.20	0.00
639.35	0.00
639.50	46.81
639.65	84.26
639.80	49.15
639.94	124.05
640.09	0.00
640.24	56.17
640.39	84.26
640.54	74.90
640.68	119.37
640.83	14.04
640.98	77.24
641.13	4.68
641.27	100.64
641.42	105.32
641.57	0.00
641.72	67.88
641.86	4.68
642.01	53.83
642.16	72.56
642.31	44.47
642.45	77.24
642.60	86.60
642.75	44.47
642.90	93.62
643.04	79.58
643.19	112.35
643.34	39.79
643.48	86.60
643.63	105.32
643.78	49.15
643.93	88.94
644.07	74.90
644.22	30.43
644.37	98.30
644.51	51.49
644.66	91.28
644.81	46.81
644.95	117.03
645.10	39.79
645.25	79.58
645.39	93.62
645.54	14.04
645.69	49.15
645.83	102.98
645.98	91.28
646.13	81.92
646.27	25.75
646.42	72.56
646.57	44.47
646.71	63.19
646.86	60.85
647.00	63.19
647.15	86.60
647.30	21.06
647.44	42.13
647.59	0.00
647.74	65.54
647.88	70.22
648.03	32.77
648.17	65.54
648.32	135.75
648.47	93.62
648.61	44.47
648.76	60.85
648.90	93.62
649.05	58.51
649.20	21.06
649.34	35.11
649.49	51.49
649.63	14.04
649.78	91.28
649.92	37.45
650.07	53.83
650.21	65.54
650.36	39.79
650.51	46.81
650.65	79.58
650.80	42.13
650.94	65.54
651.09	67.88
651.23	39.79
651.38	72.56
651.52	88.94
651.67	60.85
651.81	152.13
651.96	49.15
652.10	58.51
652.25	0.00
652.39	74.90
652.54	37.45
652.68	77.24
652.83	23.41
652.97	37.45
653.12	37.45
653.26	28.09
653.41	65.54
653.55	63.19
653.70	60.85
653.84	114.69
653.99	67.88
654.13	46.81
654.27	25.75
654.42	46.81
654.56	67.88
654.71	39.79
654.85	42.13
655.00	65.54
655.14	63.19
655.29	105.32
655.43	30.43
655.57	49.15
655.72	131.07
655.86	16.38
656.01	37.45
656.15	18.72
656.30	9.36
656.44	46.81
656.58	4.68
656.73	60.85
656.87	23.41
657.01	88.94
657.16	65.54
657.30	16.38
657.45	88.94
657.59	86.60
657.73	7.02
657.88	77.24
658.02	53.83
658.16	84.26
658.31	0.00
658.45	79.58
658.60	65.54
658.74	35.11
658.88	42.13
659.03	81.92
659.17	72.56
659.31	74.90
659.46	42.13
659.60	58.51
659.74	35.11
659.89	0.00
660.03	53.83
660.17	46.81
660.32	74.90
660.46	63.19
660.60	44.47
660.74	88.94
660.89	91.28
661.03	0.00
661.17	32.77
661.32	79.58
661.46	65.54
661.60	56.17
661.74	0.00
661.89	9.36
662.03	74.90
662.17	37.45
662.31	14.04
662.46	58.51
662.60	35.11
662.74	2.34
662.88	70.22
663.03	32.77
663.17	16.38
663.31	56.17
663.45	39.79
663.60	65.54
663.74	53.83
663.88	37.45
664.02	72.56
664.17	0.00
664.31	56.17
664.45	70.22
664.59	32.77
664.73	93.62
664.88	77.24
665.02	86.60
665.16	53.83
665.30	4.68
665.44	35.11
665.59	46.81
665.73	98.30
665.87	53.83
666.01	30.43
666.15	112.35
666.29	25.75
666.44	18.72
666.58	102.98
666.72	67.88
666.86	84.26
667.00	30.43
667.14	100.64
667.28	79.58
667.43	32.77
667.57	74.90
667.71	9.36
667.85	84.26
667.99	39.79
668.13	112.35
668.27	119.37
668.41	49.15
668.56	0.00
668.70	7.02
668.84	0.00
668.98	81.92
669.12	37.45
669.26	44.47
669.40	21.06
669.54	30.43
669.68	51.49
669.82	21.06
669.96	95.96
670.10	30.43
670.25	102.98
670.39	37.45
670.53	88.94
670.67	9.36
670.81	58.51
670.95	25.75
671.09	86.60
671.23	168.52
671.37	105.32
671.51	32.77
671.65	128.73
671.79	42.13
671.93	9.36
672.07	86.60
672.21	105.32
672.35	95.96
672.49	18.72
672.63	39.79
672.77	70.22
672.91	28.09
673.05	35.11
673.19	42.13
673.33	79.58
673.47	4.68
673.61	88.94
673.75	11.70
673.89	65.54
674.03	32.77
674.17	0.00
674.31	74.90
674.45	30.43
674.59	39.79
674.73	84.26
674.87	63.19
675.01	70.22
675.15	60.85
675.29	39.79
675.43	0.00
675.56	46.81
675.70	56.17
675.84	60.85
675.98	126.39
676.12	14.04
676.26	11.70
676.40	63.19
676.54	56.17
676.68	23.41
676.82	65.54
676.96	42.13
677.10	42.13
677.23	0.00
677.37	65.54
677.51	112.35
677.65	105.32
677.79	37.45
677.93	0.00
678.07	46.81
678.21	77.24
678.34	79.58
678.48	18.72
678.62	32.77
678.76	39.79
678.90	102.98
679.04	14.04
679.18	18.72
679.31	37.45
679.45	84.26
679.59	28.09
679.73	21.06
679.87	28.09
680.00	93.62
680.14	58.51
680.28	35.11
680.42	58.51
680.56	74.90
680.70	51.49
680.83	74.90
680.97	98.30
681.11	100.64
681.25	154.48
681.39	60.85
681.52	72.56
681.66	9.36
681.80	67.88
681.94	93.62
682.07	28.09
682.21	2.34
682.35	11.70
682.49	46.81
682.62	37.45
682.76	60.85
682.90	35.11
683.04	32.77
683.17	91.28
683.31	21.06
683.45	58.51
683.59	51.49
683.72	21.06
683.86	58.51
684.00	49.15
684.13	0.00
684.27	0.00
684.41	159.16
684.55	39.79
684.68	65.54
684.82	95.96
684.96	49.15
685.09	51.49
685.23	60.85
685.37	18.72
685.50	0.00
685.64	56.17
685.78	56.17
685.91	49.15
686.05	21.06
686.19	0.00
686.32	53.83
686.46	0.00
686.60	67.88
686.73	37.45
686.87	77.24
687.01	35.11
687.14	32.77
687.28	0.00
687.42	131.07
687.55	56.17
687.69	32.77
687.82	0.00
687.96	0.00
688.10	53.83
688.23	56.17
688.37	14.04
688.50	79.58
688.64	37.45
688.78	93.62
688.91	88.94
689.05	21.06
689.18	74.90
689.32	0.00
689.46	2.34
689.59	93.62
689.73	58.51
689.86	56.17
690.00	44.47
690.13	25.75
690.27	30.43
690.41	14.04
690.54	56.17
690.68	0.00
690.81	49.15
690.95	0.00
691.08	28.09
691.22	37.45
691.35	35.11
691.49	23.41
691.62	18.72
691.76	42.13
691.89	23.41
692.03	0.00
692.16	14.04
692.30	77.24
692.43	35.11
692.57	65.54
692.70	70.22
692.84	39.79
692.97	35.11
693.11	86.60
693.24	30.43
693.38	63.19
693.51	23.41
693.65	49.15
693.78	58.51
693.92	100.64
694.05	14.04
694.19	23.41
694.32	23.41
694.45	21.06
694.59	49.15
694.72	107.66
694.86	0.00
694.99	0.00
695.13	58.51
695.26	63.19
695.39	0.00
695.53	39.79
695.66	98.30
695.80	53.83
695.93	65.54
696.07	21.06
696.20	21.06
696.33	32.77
696.47	65.54
696.60	58.51
696.73	84.26
696.87	18.72
697.00	28.09
697.14	88.94
697.27	42.13
697.40	95.96
697.54	0.00
697.67	117.03
697.80	25.75
697.94	72.56
698.07	37.45
698.21	53.83
698.34	91.28
698.47	11.70
698.61	0.00
698.74	53.83
698.87	112.35
699.01	25.75
699.14	9.36
699.27	16.38
699.40	18.72
699.54	39.79
699.67	60.85
699.80	32.77
699.94	0.00
700.07	0.00
700.20	42.13
700.34	23.41
700.47	53.83
700.60	93.62
700.73	77.24
700.87	67.88
701.00	42.13
701.13	63.19
701.26	58.51
701.40	58.51
701.53	37.45
701.66	79.58
701.79	39.79
701.93	77.24
702.06	63.19
702.19	81.92
702.32	18.72
702.46	16.38
702.59	91.28
702.72	21.06
702.85	0.00
702.99	53.83
703.12	51.49
703.25	119.37
703.38	63.19
703.51	35.11
703.65	49.15
703.78	74.90
703.91	18.72
704.04	44.47
704.17	4.68
704.31	49.15
704.44	56.17
704.57	35.11
704.70	9.36
704.83	32.77
704.96	79.58
705.10	84.26
705.23	51.49
>>>>>End Processed Spectral Data<<<<<
