SpectraSuite Data File
++++++++++++++++++++++++++++++++++++
Date: Fri Oct 04 12:13:38 GMT-05:00 2013
User: price-jones
Dark Spectrum Present: No
Reference Spectrum Present: No
Number of Sampled Component Spectra: 1
Spectrometers: USB2+H05261
Integration Time (usec): 10000 (USB2+H05261)
Spectra Averaged: 1 (USB2+H05261)
Boxcar Smoothing: 0 (USB2+H05261)
Correct for Electrical Dark: No (USB2+H05261)
Strobe/Lamp Enabled: No (USB2+H05261)
Correct for Detector Non-linearity: No (USB2+H05261)
Correct for Stray Light: No (USB2+H05261)
Number of Pixels in Processed Spectrum: 2048
>>>>>Begin Processed Spectral Data<<<<<
365.73	0.00
365.92	0.00
366.12	0.00
366.32	0.00
366.52	0.00
366.72	0.00
366.91	0.00
367.11	0.00
367.31	0.00
367.51	0.00
367.70	0.00
367.90	0.00
368.10	0.00
368.30	0.00
368.49	0.00
368.69	0.00
368.89	0.00
369.09	0.00
369.28	0.00
369.48	0.00
369.68	0.00
369.87	0.00
370.07	0.00
370.27	0.00
370.47	0.00
370.66	0.00
370.86	0.00
371.06	21.06
371.25	7.02
371.45	14.04
371.65	67.88
371.84	0.00
372.04	0.00
372.24	0.00
372.44	39.79
372.63	0.00
372.83	93.62
373.03	18.72
373.22	44.47
373.42	74.90
373.62	4.68
373.81	74.90
374.01	84.26
374.21	0.00
374.40	4.68
374.60	14.04
374.79	4.68
374.99	42.13
375.19	37.45
375.38	16.38
375.58	65.54
375.78	42.13
375.97	18.72
376.17	86.60
376.37	49.15
376.56	7.02
376.76	30.43
376.95	0.00
377.15	0.00
377.35	49.15
377.54	28.09
377.74	0.00
377.93	53.83
378.13	9.36
378.33	2.34
378.52	46.81
378.72	0.00
378.91	0.00
379.11	58.51
379.31	67.88
379.50	23.41
379.70	28.09
379.89	0.00
380.09	32.77
380.28	4.68
380.48	53.83
380.68	0.00
380.87	56.17
381.07	0.00
381.26	88.94
381.46	49.15
381.65	18.72
381.85	0.00
382.04	11.70
382.24	0.00
382.43	91.28
382.63	63.19
382.83	100.64
383.02	44.47
383.22	4.68
383.41	0.00
383.61	4.68
383.80	25.75
384.00	42.13
384.19	37.45
384.39	14.04
384.58	9.36
384.78	0.00
384.97	35.11
385.17	0.00
385.36	7.02
385.56	46.81
385.75	42.13
385.95	0.00
386.14	0.00
386.34	44.47
386.53	30.43
386.72	2.34
386.92	0.00
387.11	37.45
387.31	0.00
387.50	0.00
387.70	0.00
387.89	2.34
388.09	56.17
388.28	39.79
388.48	0.00
388.67	30.43
388.86	46.81
389.06	79.58
389.25	39.79
389.45	16.38
389.64	65.54
389.84	0.00
390.03	0.00
390.22	2.34
390.42	0.00
390.61	0.00
390.81	21.06
391.00	0.00
391.19	56.17
391.39	0.00
391.58	39.79
391.78	28.09
391.97	72.56
392.16	4.68
392.36	21.06
392.55	79.58
392.75	25.75
392.94	0.00
393.13	88.94
393.33	0.00
393.52	30.43
393.71	56.17
393.91	49.15
394.10	77.24
394.29	0.00
394.49	44.47
394.68	4.68
394.88	2.34
395.07	42.13
395.26	39.79
395.46	56.17
395.65	70.22
395.84	42.13
396.04	0.00
396.23	18.72
396.42	65.54
396.62	95.96
396.81	30.43
397.00	46.81
397.19	18.72
397.39	46.81
397.58	16.38
397.77	37.45
397.97	0.00
398.16	16.38
398.35	58.51
398.55	51.49
398.74	0.00
398.93	91.28
399.12	0.00
399.32	39.79
399.51	14.04
399.70	63.19
399.90	0.00
400.09	86.60
400.28	46.81
400.47	65.54
400.67	39.79
400.86	18.72
401.05	0.00
401.24	42.13
401.44	53.83
401.63	51.49
401.82	0.00
402.01	91.28
402.21	0.00
402.40	2.34
402.59	67.88
402.78	42.13
402.97	100.64
403.17	7.02
403.36	0.00
403.55	0.00
403.74	42.13
403.93	112.35
404.13	28.09
404.32	49.15
404.51	114.69
404.70	0.00
404.89	7.02
405.09	49.15
405.28	56.17
405.47	46.81
405.66	58.51
405.85	72.56
406.05	51.49
406.24	30.43
406.43	58.51
406.62	0.00
406.81	11.70
407.00	37.45
407.20	91.28
407.39	9.36
407.58	58.51
407.77	28.09
407.96	0.00
408.15	0.00
408.34	46.81
408.54	7.02
408.73	35.11
408.92	91.28
409.11	44.47
409.30	4.68
409.49	44.47
409.68	18.72
409.87	35.11
410.07	63.19
410.26	23.41
410.45	51.49
410.64	46.81
410.83	30.43
411.02	60.85
411.21	72.56
411.40	107.66
411.59	98.30
411.78	23.41
411.98	0.00
412.17	84.26
412.36	91.28
412.55	25.75
412.74	4.68
412.93	46.81
413.12	98.30
413.31	0.00
413.50	14.04
413.69	77.24
413.88	79.58
414.07	93.62
414.26	46.81
414.45	79.58
414.64	2.34
414.83	49.15
415.02	2.34
415.22	67.88
415.41	74.90
415.60	63.19
415.79	44.47
415.98	35.11
416.17	56.17
416.36	112.35
416.55	39.79
416.74	63.19
416.93	21.06
417.12	56.17
417.31	60.85
417.50	79.58
417.69	56.17
417.88	25.75
418.07	28.09
418.26	72.56
418.45	25.75
418.64	0.00
418.83	14.04
419.02	77.24
419.21	18.72
419.39	53.83
419.58	93.62
419.77	51.49
419.96	58.51
420.15	65.54
420.34	65.54
420.53	4.68
420.72	42.13
420.91	14.04
421.10	25.75
421.29	110.01
421.48	70.22
421.67	30.43
421.86	37.45
422.05	56.17
422.24	65.54
422.43	46.81
422.61	2.34
422.80	35.11
422.99	0.00
423.18	72.56
423.37	0.00
423.56	14.04
423.75	67.88
423.94	0.00
424.13	98.30
424.32	74.90
424.50	21.06
424.69	46.81
424.88	63.19
425.07	105.32
425.26	79.58
425.45	60.85
425.64	91.28
425.83	42.13
426.01	0.00
426.20	11.70
426.39	93.62
426.58	30.43
426.77	46.81
426.96	37.45
427.15	21.06
427.33	46.81
427.52	91.28
427.71	42.13
427.90	23.41
428.09	14.04
428.28	23.41
428.46	32.77
428.65	79.58
428.84	0.00
429.03	65.54
429.22	110.01
429.40	49.15
429.59	0.00
429.78	63.19
429.97	79.58
430.16	0.00
430.34	28.09
430.53	88.94
430.72	44.47
430.91	44.47
431.10	23.41
431.28	23.41
431.47	74.90
431.66	77.24
431.85	65.54
432.03	18.72
432.22	105.32
432.41	53.83
432.60	0.00
432.79	79.58
432.97	4.68
433.16	105.32
433.35	30.43
433.54	84.26
433.72	25.75
433.91	74.90
434.10	39.79
434.28	0.00
434.47	0.00
434.66	37.45
434.85	32.77
435.03	60.85
435.22	53.83
435.41	58.51
435.59	0.00
435.78	112.35
435.97	93.62
436.16	98.30
436.34	35.11
436.53	58.51
436.72	0.00
436.90	28.09
437.09	56.17
437.28	81.92
437.46	30.43
437.65	37.45
437.84	23.41
438.02	25.75
438.21	77.24
438.40	74.90
438.58	4.68
438.77	18.72
438.96	93.62
439.14	58.51
439.33	21.06
439.52	16.38
439.70	44.47
439.89	79.58
440.08	37.45
440.26	25.75
440.45	44.47
440.63	51.49
440.82	63.19
441.01	0.00
441.19	2.34
441.38	46.81
441.57	60.85
441.75	0.00
441.94	77.24
442.12	39.79
442.31	37.45
442.50	67.88
442.68	65.54
442.87	32.77
443.05	79.58
443.24	79.58
443.43	63.19
443.61	98.30
443.80	53.83
443.98	42.13
444.17	14.04
444.35	88.94
444.54	35.11
444.73	0.00
444.91	98.30
445.10	32.77
445.28	74.90
445.47	28.09
445.65	53.83
445.84	79.58
446.02	30.43
446.21	7.02
446.39	93.62
446.58	67.88
446.77	60.85
446.95	51.49
447.14	30.43
447.32	98.30
447.51	11.70
447.69	44.47
447.88	86.60
448.06	124.05
448.25	0.00
448.43	2.34
448.62	74.90
448.80	93.62
448.99	56.17
449.17	51.49
449.36	67.88
449.54	72.56
449.73	131.07
449.91	60.85
450.10	0.00
450.28	72.56
450.46	46.81
450.65	93.62
450.83	51.49
451.02	0.00
451.20	100.64
451.39	70.22
451.57	56.17
451.76	14.04
451.94	95.96
452.13	84.26
452.31	65.54
452.49	74.90
452.68	0.00
452.86	44.47
453.05	49.15
453.23	112.35
453.42	98.30
453.60	117.03
453.78	39.79
453.97	77.24
454.15	21.06
454.34	14.04
454.52	77.24
454.70	102.98
454.89	79.58
455.07	44.47
455.26	74.90
455.44	16.38
455.62	18.72
455.81	0.00
455.99	44.47
456.17	135.75
456.36	77.24
456.54	56.17
456.73	35.11
456.91	79.58
457.09	72.56
457.28	107.66
457.46	58.51
457.64	79.58
457.83	74.90
458.01	32.77
458.19	93.62
458.38	44.47
458.56	65.54
458.74	74.90
458.93	44.47
459.11	42.13
459.29	70.22
459.48	77.24
459.66	131.07
459.84	72.56
460.03	56.17
460.21	0.00
460.39	70.22
460.57	131.07
460.76	37.45
460.94	100.64
461.12	105.32
461.31	46.81
461.49	156.82
461.67	4.68
461.85	30.43
462.04	44.47
462.22	124.05
462.40	51.49
462.59	53.83
462.77	72.56
462.95	14.04
463.13	39.79
463.32	95.96
463.50	98.30
463.68	79.58
463.86	56.17
464.05	107.66
464.23	72.56
464.41	44.47
464.59	67.88
464.78	28.09
464.96	65.54
465.14	105.32
465.32	79.58
465.50	152.13
465.69	53.83
465.87	102.98
466.05	121.71
466.23	42.13
466.41	51.49
466.60	51.49
466.78	65.54
466.96	11.70
467.14	65.54
467.32	121.71
467.51	42.13
467.69	110.01
467.87	28.09
468.05	91.28
468.23	95.96
468.41	28.09
468.60	60.85
468.78	37.45
468.96	16.38
469.14	67.88
469.32	95.96
469.50	30.43
469.69	60.85
469.87	110.01
470.05	67.88
470.23	7.02
470.41	18.72
470.59	53.83
470.77	14.04
470.95	93.62
471.14	124.05
471.32	105.32
471.50	77.24
471.68	0.00
471.86	140.43
472.04	25.75
472.22	32.77
472.40	58.51
472.58	58.51
472.77	35.11
472.95	21.06
473.13	72.56
473.31	84.26
473.49	51.49
473.67	65.54
473.85	93.62
474.03	88.94
474.21	11.70
474.39	21.06
474.57	51.49
474.75	35.11
474.93	98.30
475.12	65.54
475.30	112.35
475.48	70.22
475.66	49.15
475.84	49.15
476.02	98.30
476.20	102.98
476.38	9.36
476.56	51.49
476.74	79.58
476.92	56.17
477.10	114.69
477.28	70.22
477.46	79.58
477.64	46.81
477.82	117.03
478.00	74.90
478.18	46.81
478.36	86.60
478.54	49.15
478.72	81.92
478.90	74.90
479.08	46.81
479.26	42.13
479.44	70.22
479.62	16.38
479.80	124.05
479.98	72.56
480.16	35.11
480.34	70.22
480.52	124.05
480.70	46.81
480.88	65.54
481.06	102.98
481.24	112.35
481.41	70.22
481.59	98.30
481.77	189.58
481.95	77.24
482.13	0.00
482.31	67.88
482.49	18.72
482.67	42.13
482.85	81.92
483.03	58.51
483.21	35.11
483.39	21.06
483.57	98.30
483.74	124.05
483.92	42.13
484.10	39.79
484.28	65.54
484.46	135.75
484.64	142.77
484.82	49.15
485.00	0.00
485.18	70.22
485.35	98.30
485.53	72.56
485.71	4.68
485.89	117.03
486.07	16.38
486.25	53.83
486.43	88.94
486.61	2.34
486.78	102.98
486.96	88.94
487.14	37.45
487.32	74.90
487.50	154.48
487.68	84.26
487.85	70.22
488.03	154.48
488.21	18.72
488.39	126.39
488.57	65.54
488.75	28.09
488.92	84.26
489.10	28.09
489.28	53.83
489.46	0.00
489.64	58.51
489.81	77.24
489.99	58.51
490.17	100.64
490.35	145.11
490.53	81.92
490.70	44.47
490.88	65.54
491.06	102.98
491.24	70.22
491.41	0.00
491.59	124.05
491.77	77.24
491.95	18.72
492.13	32.77
492.30	77.24
492.48	72.56
492.66	72.56
492.84	28.09
493.01	63.19
493.19	30.43
493.37	74.90
493.54	14.04
493.72	49.15
493.90	21.06
494.08	39.79
494.25	112.35
494.43	105.32
494.61	42.13
494.79	44.47
494.96	166.18
495.14	53.83
495.32	72.56
495.49	102.98
495.67	25.75
495.85	84.26
496.02	37.45
496.20	72.56
496.38	72.56
496.55	100.64
496.73	140.43
496.91	63.19
497.09	39.79
497.26	32.77
497.44	100.64
497.62	53.83
497.79	51.49
497.97	60.85
498.14	79.58
498.32	145.11
498.50	119.37
498.67	44.47
498.85	67.88
499.03	93.62
499.20	65.54
499.38	154.48
499.56	72.56
499.73	63.19
499.91	37.45
500.08	105.32
500.26	121.71
500.44	65.54
500.61	93.62
500.79	88.94
500.97	70.22
501.14	84.26
501.32	72.56
501.49	81.92
501.67	37.45
501.84	56.17
502.02	117.03
502.20	79.58
502.37	77.24
502.55	145.11
502.72	49.15
502.90	81.92
503.07	35.11
503.25	84.26
503.43	65.54
503.60	42.13
503.78	93.62
503.95	100.64
504.13	44.47
504.30	49.15
504.48	44.47
504.65	119.37
504.83	93.62
505.01	74.90
505.18	133.41
505.36	102.98
505.53	131.07
505.71	32.77
505.88	74.90
506.06	74.90
506.23	25.75
506.41	23.41
506.58	77.24
506.76	93.62
506.93	91.28
507.11	79.58
507.28	51.49
507.46	100.64
507.63	44.47
507.81	49.15
507.98	42.13
508.16	65.54
508.33	121.71
508.50	32.77
508.68	131.07
508.85	95.96
509.03	131.07
509.20	63.19
509.38	84.26
509.55	98.30
509.73	147.45
509.90	91.28
510.08	117.03
510.25	210.65
510.42	91.28
510.60	2.34
510.77	39.79
510.95	35.11
511.12	60.85
511.30	107.66
511.47	95.96
511.64	49.15
511.82	65.54
511.99	100.64
512.17	133.41
512.34	60.85
512.51	86.60
512.69	107.66
512.86	67.88
513.04	93.62
513.21	91.28
513.38	88.94
513.56	112.35
513.73	98.30
513.90	112.35
514.08	58.51
514.25	51.49
514.43	58.51
514.60	35.11
514.77	114.69
514.95	67.88
515.12	74.90
515.29	44.47
515.47	79.58
515.64	126.39
515.81	98.30
515.99	102.98
516.16	74.90
516.33	53.83
516.51	100.64
516.68	72.56
516.85	0.00
517.03	91.28
517.20	53.83
517.37	28.09
517.54	51.49
517.72	28.09
517.89	95.96
518.06	4.68
518.24	72.56
518.41	39.79
518.58	117.03
518.75	77.24
518.93	105.32
519.10	88.94
519.27	142.77
519.45	58.51
519.62	142.77
519.79	88.94
519.96	46.81
520.14	91.28
520.31	77.24
520.48	93.62
520.65	107.66
520.83	63.19
521.00	88.94
521.17	53.83
521.34	44.47
521.52	91.28
521.69	65.54
521.86	53.83
522.03	74.90
522.20	93.62
522.38	58.51
522.55	25.75
522.72	65.54
522.89	112.35
523.07	67.88
523.24	81.92
523.41	74.90
523.58	117.03
523.75	70.22
523.92	53.83
524.10	42.13
524.27	105.32
524.44	86.60
524.61	42.13
524.78	88.94
524.96	88.94
525.13	152.13
525.30	98.30
525.47	93.62
525.64	98.30
525.81	142.77
525.98	77.24
526.16	86.60
526.33	98.30
526.50	30.43
526.67	81.92
526.84	105.32
527.01	74.90
527.18	49.15
527.36	18.72
527.53	39.79
527.70	51.49
527.87	95.96
528.04	79.58
528.21	128.73
528.38	49.15
528.55	86.60
528.72	79.58
528.89	21.06
529.07	131.07
529.24	121.71
529.41	110.01
529.58	121.71
529.75	79.58
529.92	63.19
530.09	126.39
530.26	147.45
530.43	119.37
530.60	93.62
530.77	63.19
530.94	0.00
531.11	102.98
531.28	0.00
531.46	77.24
531.63	93.62
531.80	156.82
531.97	112.35
532.14	32.77
532.31	65.54
532.48	56.17
532.65	93.62
532.82	152.13
532.99	42.13
533.16	124.05
533.33	51.49
533.50	105.32
533.67	74.90
533.84	11.70
534.01	74.90
534.18	81.92
534.35	86.60
534.52	65.54
534.69	79.58
534.86	86.60
535.03	112.35
535.20	98.30
535.37	86.60
535.54	23.41
535.71	133.41
535.88	49.15
536.05	98.30
536.22	117.03
536.38	114.69
536.55	0.00
536.72	63.19
536.89	156.82
537.06	114.69
537.23	46.81
537.40	105.32
537.57	77.24
537.74	93.62
537.91	39.79
538.08	88.94
538.25	131.07
538.42	88.94
538.59	88.94
538.75	98.30
538.92	93.62
539.09	74.90
539.26	135.75
539.43	149.79
539.60	88.94
539.77	21.06
539.94	114.69
540.11	7.02
540.28	65.54
540.44	84.26
540.61	63.19
540.78	100.64
540.95	107.66
541.12	42.13
541.29	105.32
541.46	128.73
541.62	51.49
541.79	53.83
541.96	112.35
542.13	117.03
542.30	138.09
542.47	74.90
542.63	128.73
542.80	119.37
542.97	100.64
543.14	44.47
543.31	0.00
543.48	37.45
543.64	86.60
543.81	2.34
543.98	72.56
544.15	21.06
544.32	124.05
544.48	84.26
544.65	74.90
544.82	131.07
544.99	81.92
545.16	63.19
545.32	102.98
545.49	180.22
545.66	140.43
545.83	56.17
546.00	46.81
546.16	53.83
546.33	37.45
546.50	65.54
546.67	44.47
546.83	138.09
547.00	110.01
547.17	72.56
547.34	9.36
547.50	58.51
547.67	84.26
547.84	152.13
548.00	79.58
548.17	84.26
548.34	121.71
548.51	100.64
548.67	84.26
548.84	70.22
549.01	21.06
549.18	42.13
549.34	152.13
549.51	72.56
549.68	60.85
549.84	91.28
550.01	53.83
550.18	163.84
550.34	98.30
550.51	105.32
550.68	126.39
550.84	25.75
551.01	72.56
551.18	79.58
551.34	126.39
551.51	88.94
551.68	60.85
551.84	124.05
552.01	152.13
552.18	35.11
552.34	102.98
552.51	49.15
552.68	72.56
552.84	32.77
553.01	98.30
553.18	128.73
553.34	11.70
553.51	18.72
553.67	124.05
553.84	53.83
554.01	114.69
554.17	30.43
554.34	46.81
554.51	65.54
554.67	25.75
554.84	100.64
555.00	81.92
555.17	81.92
555.33	135.75
555.50	95.96
555.67	42.13
555.83	46.81
556.00	119.37
556.16	159.16
556.33	49.15
556.50	152.13
556.66	95.96
556.83	100.64
556.99	42.13
557.16	67.88
557.32	65.54
557.49	119.37
557.65	58.51
557.82	70.22
557.98	58.51
558.15	95.96
558.32	74.90
558.48	11.70
558.65	39.79
558.81	77.24
558.98	95.96
559.14	95.96
559.31	77.24
559.47	117.03
559.64	105.32
559.80	86.60
559.97	114.69
560.13	63.19
560.30	147.45
560.46	81.92
560.63	79.58
560.79	98.30
560.96	58.51
561.12	42.13
561.29	39.79
561.45	23.41
561.61	107.66
561.78	25.75
561.94	81.92
562.11	114.69
562.27	72.56
562.44	114.69
562.60	0.00
562.77	100.64
562.93	42.13
563.10	131.07
563.26	63.19
563.42	119.37
563.59	117.03
563.75	74.90
563.92	88.94
564.08	28.09
564.24	74.90
564.41	126.39
564.57	72.56
564.74	77.24
564.90	88.94
565.07	70.22
565.23	46.81
565.39	56.17
565.56	154.48
565.72	0.00
565.88	84.26
566.05	65.54
566.21	44.47
566.38	138.09
566.54	95.96
566.70	105.32
566.87	93.62
567.03	88.94
567.19	74.90
567.36	21.06
567.52	93.62
567.68	56.17
567.85	67.88
568.01	60.85
568.17	100.64
568.34	140.43
568.50	159.16
568.66	159.16
568.83	86.60
568.99	30.43
569.15	105.32
569.32	18.72
569.48	35.11
569.64	124.05
569.81	138.09
569.97	93.62
570.13	32.77
570.30	105.32
570.46	32.77
570.62	110.01
570.78	53.83
570.95	145.11
571.11	156.82
571.27	140.43
571.43	112.35
571.60	44.47
571.76	67.88
571.92	23.41
572.09	79.58
572.25	0.00
572.41	23.41
572.57	126.39
572.74	81.92
572.90	35.11
573.06	67.88
573.22	37.45
573.38	70.22
573.55	86.60
573.71	95.96
573.87	39.79
574.03	16.38
574.20	112.35
574.36	126.39
574.52	110.01
574.68	81.92
574.84	84.26
575.01	7.02
575.17	65.54
575.33	121.71
575.49	35.11
575.65	117.03
575.82	65.54
575.98	46.81
576.14	58.51
576.30	77.24
576.46	117.03
576.62	93.62
576.79	121.71
576.95	74.90
577.11	30.43
577.27	119.37
577.43	88.94
577.59	49.15
577.75	39.79
577.92	88.94
578.08	102.98
578.24	30.43
578.40	72.56
578.56	107.66
578.72	131.07
578.88	81.92
579.04	32.77
579.21	93.62
579.37	77.24
579.53	133.41
579.69	39.79
579.85	107.66
580.01	49.15
580.17	30.43
580.33	32.77
580.49	53.83
580.65	74.90
580.82	72.56
580.98	95.96
581.14	63.19
581.30	74.90
581.46	44.47
581.62	142.77
581.78	102.98
581.94	88.94
582.10	112.35
582.26	86.60
582.42	56.17
582.58	81.92
582.74	84.26
582.90	44.47
583.06	67.88
583.22	14.04
583.38	77.24
583.54	72.56
583.70	74.90
583.86	67.88
584.02	84.26
584.18	63.19
584.34	79.58
584.50	105.32
584.66	126.39
584.82	124.05
584.98	44.47
585.14	128.73
585.30	58.51
585.46	37.45
585.62	21.06
585.78	51.49
585.94	9.36
586.10	44.47
586.26	110.01
586.42	110.01
586.58	88.94
586.74	149.79
586.90	110.01
587.06	42.13
587.22	46.81
587.38	105.32
587.54	77.24
587.70	49.15
587.86	81.92
588.02	72.56
588.18	133.41
588.34	60.85
588.49	95.96
588.65	37.45
588.81	53.83
588.97	65.54
589.13	74.90
589.29	65.54
589.45	67.88
589.61	86.60
589.77	32.77
589.93	70.22
590.08	58.51
590.24	44.47
590.40	46.81
590.56	65.54
590.72	30.43
590.88	23.41
591.04	0.00
591.20	65.54
591.35	100.64
591.51	0.00
591.67	9.36
591.83	88.94
591.99	25.75
592.15	88.94
592.31	72.56
592.46	74.90
592.62	105.32
592.78	79.58
592.94	46.81
593.10	35.11
593.26	63.19
593.41	42.13
593.57	72.56
593.73	91.28
593.89	21.06
594.05	110.01
594.20	77.24
594.36	63.19
594.52	28.09
594.68	98.30
594.84	70.22
594.99	110.01
595.15	114.69
595.31	98.30
595.47	16.38
595.62	84.26
595.78	102.98
595.94	102.98
596.10	112.35
596.25	74.90
596.41	44.47
596.57	11.70
596.73	107.66
596.88	44.47
597.04	67.88
597.20	77.24
597.36	0.00
597.51	84.26
597.67	112.35
597.83	35.11
597.99	56.17
598.14	28.09
598.30	98.30
598.46	23.41
598.61	70.22
598.77	86.60
598.93	49.15
599.09	14.04
599.24	49.15
599.40	63.19
599.56	86.60
599.71	51.49
599.87	74.90
600.03	32.77
600.18	37.45
600.34	74.90
600.50	63.19
600.65	18.72
600.81	72.56
600.97	119.37
601.12	65.54
601.28	14.04
601.44	84.26
601.59	0.00
601.75	79.58
601.91	51.49
602.06	63.19
602.22	60.85
602.37	32.77
602.53	95.96
602.69	42.13
602.84	86.60
603.00	100.64
603.16	117.03
603.31	25.75
603.47	4.68
603.62	53.83
603.78	91.28
603.94	16.38
604.09	86.60
604.25	128.73
604.40	95.96
604.56	95.96
604.71	124.05
604.87	81.92
605.03	102.98
605.18	77.24
605.34	98.30
605.49	102.98
605.65	65.54
605.80	30.43
605.96	140.43
606.12	56.17
606.27	117.03
606.43	131.07
606.58	32.77
606.74	18.72
606.89	77.24
607.05	77.24
607.20	100.64
607.36	56.17
607.51	32.77
607.67	79.58
607.82	91.28
607.98	53.83
608.13	74.90
608.29	56.17
608.44	102.98
608.60	110.01
608.75	32.77
608.91	42.13
609.06	53.83
609.22	39.79
609.37	81.92
609.53	46.81
609.68	23.41
609.84	16.38
609.99	35.11
610.15	44.47
610.30	91.28
610.46	86.60
610.61	81.92
610.76	21.06
610.92	74.90
611.07	124.05
611.23	77.24
611.38	44.47
611.54	88.94
611.69	79.58
611.84	88.94
612.00	60.85
612.15	67.88
612.31	63.19
612.46	112.35
612.62	117.03
612.77	65.54
612.92	58.51
613.08	95.96
613.23	105.32
613.39	91.28
613.54	67.88
613.69	126.39
613.85	98.30
614.00	37.45
614.15	18.72
614.31	133.41
614.46	91.28
614.62	72.56
614.77	117.03
614.92	70.22
615.08	56.17
615.23	86.60
615.38	53.83
615.54	60.85
615.69	51.49
615.84	16.38
616.00	9.36
616.15	9.36
616.30	67.88
616.46	63.19
616.61	58.51
616.76	133.41
616.92	42.13
617.07	91.28
617.22	86.60
617.37	18.72
617.53	86.60
617.68	77.24
617.83	79.58
617.99	93.62
618.14	65.54
618.29	65.54
618.45	95.96
618.60	100.64
618.75	44.47
618.90	133.41
619.06	77.24
619.21	100.64
619.36	124.05
619.51	58.51
619.67	149.79
619.82	98.30
619.97	79.58
620.12	44.47
620.28	79.58
620.43	56.17
620.58	4.68
620.73	60.85
620.89	88.94
621.04	21.06
621.19	63.19
621.34	0.00
621.49	18.72
621.65	100.64
621.80	81.92
621.95	18.72
622.10	0.00
622.25	23.41
622.41	72.56
622.56	81.92
622.71	84.26
622.86	95.96
623.01	91.28
623.16	72.56
623.32	102.98
623.47	110.01
623.62	60.85
623.77	121.71
623.92	0.00
624.07	65.54
624.23	9.36
624.38	105.32
624.53	53.83
624.68	72.56
624.83	133.41
624.98	124.05
625.13	107.66
625.29	49.15
625.44	56.17
625.59	102.98
625.74	37.45
625.89	93.62
626.04	67.88
626.19	42.13
626.34	9.36
626.49	84.26
626.65	9.36
626.80	81.92
626.95	95.96
627.10	161.50
627.25	91.28
627.40	42.13
627.55	93.62
627.70	102.98
627.85	51.49
628.00	51.49
628.15	42.13
628.30	21.06
628.45	65.54
628.60	65.54
628.76	102.98
628.91	21.06
629.06	79.58
629.21	81.92
629.36	56.17
629.51	35.11
629.66	25.75
629.81	60.85
629.96	79.58
630.11	72.56
630.26	84.26
630.41	60.85
630.56	93.62
630.71	42.13
630.86	0.00
631.01	0.00
631.16	37.45
631.31	56.17
631.46	126.39
631.61	63.19
631.76	72.56
631.91	9.36
632.06	7.02
632.21	77.24
632.36	21.06
632.51	0.00
632.66	14.04
632.81	44.47
632.96	46.81
633.10	88.94
633.25	93.62
633.40	7.02
633.55	88.94
633.70	81.92
633.85	60.85
634.00	30.43
634.15	102.98
634.30	23.41
634.45	25.75
634.60	51.49
634.75	95.96
634.90	63.19
635.05	44.47
635.19	135.75
635.34	51.49
635.49	95.96
635.64	60.85
635.79	119.37
635.94	7.02
636.09	86.60
636.24	53.83
636.39	72.56
636.53	37.45
636.68	63.19
636.83	133.41
636.98	0.00
637.13	21.06
637.28	126.39
637.43	98.30
637.57	18.72
637.72	37.45
637.87	58.51
638.02	147.45
638.17	86.60
638.32	63.19
638.46	91.28
638.61	63.19
638.76	0.00
638.91	70.22
639.06	79.58
639.20	91.28
639.35	86.60
639.50	65.54
639.65	56.17
639.80	86.60
639.94	74.90
640.09	77.24
640.24	77.24
640.39	51.49
640.54	51.49
640.68	67.88
640.83	65.54
640.98	79.58
641.13	0.00
641.27	21.06
641.42	107.66
641.57	72.56
641.72	84.26
641.86	67.88
642.01	70.22
642.16	32.77
642.31	77.24
642.45	56.17
642.60	102.98
642.75	37.45
642.90	46.81
643.04	9.36
643.19	72.56
643.34	100.64
643.48	4.68
643.63	114.69
643.78	58.51
643.93	95.96
644.07	63.19
644.22	70.22
644.37	30.43
644.51	2.34
644.66	0.00
644.81	35.11
644.95	93.62
645.10	105.32
645.25	88.94
645.39	37.45
645.54	138.09
645.69	81.92
645.83	102.98
645.98	30.43
646.13	51.49
646.27	70.22
646.42	65.54
646.57	46.81
646.71	100.64
646.86	112.35
647.00	91.28
647.15	39.79
647.30	25.75
647.44	53.83
647.59	30.43
647.74	9.36
647.88	16.38
648.03	79.58
648.17	11.70
648.32	18.72
648.47	28.09
648.61	0.00
648.76	77.24
648.90	60.85
649.05	46.81
649.20	77.24
649.34	63.19
649.49	51.49
649.63	46.81
649.78	16.38
649.92	79.58
650.07	60.85
650.21	79.58
650.36	2.34
650.51	79.58
650.65	135.75
650.80	117.03
650.94	88.94
651.09	42.13
651.23	46.81
651.38	18.72
651.52	72.56
651.67	53.83
651.81	18.72
651.96	49.15
652.10	74.90
652.25	79.58
652.39	93.62
652.54	63.19
652.68	88.94
652.83	100.64
652.97	81.92
653.12	114.69
653.26	88.94
653.41	53.83
653.55	16.38
653.70	107.66
653.84	30.43
653.99	16.38
654.13	84.26
654.27	81.92
654.42	53.83
654.56	124.05
654.71	32.77
654.85	46.81
655.00	0.00
655.14	46.81
655.29	39.79
655.43	88.94
655.57	21.06
655.72	70.22
655.86	81.92
656.01	65.54
656.15	0.00
656.30	77.24
656.44	0.00
656.58	112.35
656.73	42.13
656.87	0.00
657.01	0.00
657.16	119.37
657.30	46.81
657.45	53.83
657.59	58.51
657.73	86.60
657.88	72.56
658.02	44.47
658.16	77.24
658.31	2.34
658.45	67.88
658.60	0.00
658.74	16.38
658.88	37.45
659.03	7.02
659.17	91.28
659.31	46.81
659.46	88.94
659.60	42.13
659.74	67.88
659.89	70.22
660.03	72.56
660.17	93.62
660.32	72.56
660.46	56.17
660.60	16.38
660.74	7.02
660.89	72.56
661.03	37.45
661.17	16.38
661.32	86.60
661.46	23.41
661.60	72.56
661.74	51.49
661.89	60.85
662.03	58.51
662.17	56.17
662.31	112.35
662.46	126.39
662.60	65.54
662.74	16.38
662.88	14.04
663.03	0.00
663.17	86.60
663.31	77.24
663.45	72.56
663.60	18.72
663.74	42.13
663.88	93.62
664.02	46.81
664.17	86.60
664.31	51.49
664.45	56.17
664.59	18.72
664.73	28.09
664.88	44.47
665.02	16.38
665.16	46.81
665.30	65.54
665.44	58.51
665.59	102.98
665.73	77.24
665.87	46.81
666.01	49.15
666.15	25.75
666.29	77.24
666.44	110.01
666.58	60.85
666.72	65.54
666.86	30.43
667.00	0.00
667.14	77.24
667.28	2.34
667.43	58.51
667.57	114.69
667.71	58.51
667.85	46.81
667.99	39.79
668.13	53.83
668.27	18.72
668.41	100.64
668.56	0.00
668.70	21.06
668.84	42.13
668.98	37.45
669.12	114.69
669.26	18.72
669.40	9.36
669.54	91.28
669.68	39.79
669.82	88.94
669.96	65.54
670.10	30.43
670.25	14.04
670.39	0.00
670.53	18.72
670.67	49.15
670.81	21.06
670.95	25.75
671.09	65.54
671.23	84.26
671.37	35.11
671.51	56.17
671.65	58.51
671.79	98.30
671.93	28.09
672.07	74.90
672.21	39.79
672.35	67.88
672.49	0.00
672.63	51.49
672.77	65.54
672.91	102.98
673.05	11.70
673.19	51.49
673.33	18.72
673.47	11.70
673.61	63.19
673.75	72.56
673.89	79.58
674.03	16.38
674.17	72.56
674.31	74.90
674.45	0.00
674.59	23.41
674.73	51.49
674.87	0.00
675.01	4.68
675.15	42.13
675.29	56.17
675.43	77.24
675.56	42.13
675.70	37.45
675.84	39.79
675.98	53.83
676.12	114.69
676.26	53.83
676.40	168.52
676.54	95.96
676.68	86.60
676.82	2.34
676.96	60.85
677.10	93.62
677.23	70.22
677.37	37.45
677.51	35.11
677.65	0.00
677.79	16.38
677.93	126.39
678.07	0.00
678.21	53.83
678.34	102.98
678.48	0.00
678.62	70.22
678.76	28.09
678.90	112.35
679.04	56.17
679.18	37.45
679.31	37.45
679.45	0.00
679.59	74.90
679.73	44.47
679.87	0.00
680.00	0.00
680.14	0.00
680.28	100.64
680.42	0.00
680.56	23.41
680.70	35.11
680.83	4.68
680.97	18.72
681.11	44.47
681.25	32.77
681.39	98.30
681.52	46.81
681.66	74.90
681.80	0.00
681.94	0.00
682.07	46.81
682.21	51.49
682.35	107.66
682.49	46.81
682.62	46.81
682.76	44.47
682.90	35.11
683.04	4.68
683.17	23.41
683.31	95.96
683.45	44.47
683.59	21.06
683.72	74.90
683.86	72.56
684.00	35.11
684.13	88.94
684.27	37.45
684.41	21.06
684.55	51.49
684.68	58.51
684.82	63.19
684.96	0.00
685.09	11.70
685.23	0.00
685.37	0.00
685.50	0.00
685.64	35.11
685.78	0.00
685.91	77.24
686.05	14.04
686.19	53.83
686.32	72.56
686.46	0.00
686.60	30.43
686.73	0.00
686.87	100.64
687.01	0.00
687.14	0.00
687.28	35.11
687.42	30.43
687.55	21.06
687.69	65.54
687.82	0.00
687.96	63.19
688.10	67.88
688.23	11.70
688.37	60.85
688.50	51.49
688.64	25.75
688.78	39.79
688.91	51.49
689.05	9.36
689.18	37.45
689.32	42.13
689.46	70.22
689.59	53.83
689.73	11.70
689.86	63.19
690.00	95.96
690.13	88.94
690.27	23.41
690.41	60.85
690.54	35.11
690.68	30.43
690.81	58.51
690.95	11.70
691.08	44.47
691.22	74.90
691.35	56.17
691.49	84.26
691.62	42.13
691.76	11.70
691.89	81.92
692.03	110.01
692.16	32.77
692.30	0.00
692.43	16.38
692.57	37.45
692.70	53.83
692.84	0.00
692.97	14.04
693.11	58.51
693.24	7.02
693.38	39.79
693.51	79.58
693.65	124.05
693.78	32.77
693.92	0.00
694.05	30.43
694.19	84.26
694.32	84.26
694.45	9.36
694.59	0.00
694.72	21.06
694.86	11.70
694.99	4.68
695.13	65.54
695.26	124.05
695.39	14.04
695.53	14.04
695.66	21.06
695.80	86.60
695.93	49.15
696.07	0.00
696.20	95.96
696.33	86.60
696.47	58.51
696.60	67.88
696.73	35.11
696.87	7.02
697.00	56.17
697.14	67.88
697.27	100.64
697.40	53.83
697.54	23.41
697.67	23.41
697.80	65.54
697.94	35.11
698.07	30.43
698.21	53.83
698.34	21.06
698.47	25.75
698.61	14.04
698.74	65.54
698.87	25.75
699.01	65.54
699.14	42.13
699.27	84.26
699.40	56.17
699.54	28.09
699.67	25.75
699.80	0.00
699.94	30.43
700.07	9.36
700.20	30.43
700.34	35.11
700.47	65.54
700.60	63.19
700.73	65.54
700.87	53.83
701.00	18.72
701.13	42.13
701.26	37.45
701.40	23.41
701.53	37.45
701.66	86.60
701.79	21.06
701.93	0.00
702.06	53.83
702.19	70.22
702.32	21.06
702.46	95.96
702.59	0.00
702.72	0.00
702.85	0.00
702.99	23.41
703.12	0.00
703.25	30.43
703.38	0.00
703.51	63.19
703.65	30.43
703.78	93.62
703.91	79.58
704.04	46.81
704.17	0.00
704.31	44.47
704.44	67.88
704.57	35.11
704.70	28.09
704.83	0.00
704.96	0.00
705.10	23.41
705.23	39.79
>>>>>End Processed Spectral Data<<<<<
