SpectraSuite Data File
++++++++++++++++++++++++++++++++++++
Date: Fri Oct 04 12:13:35 GMT-05:00 2013
User: price-jones
Dark Spectrum Present: No
Reference Spectrum Present: No
Number of Sampled Component Spectra: 1
Spectrometers: USB2+H05261
Integration Time (usec): 10000 (USB2+H05261)
Spectra Averaged: 1 (USB2+H05261)
Boxcar Smoothing: 0 (USB2+H05261)
Correct for Electrical Dark: No (USB2+H05261)
Strobe/Lamp Enabled: No (USB2+H05261)
Correct for Detector Non-linearity: No (USB2+H05261)
Correct for Stray Light: No (USB2+H05261)
Number of Pixels in Processed Spectrum: 2048
>>>>>Begin Processed Spectral Data<<<<<
365.73	0.00
365.92	0.00
366.12	0.00
366.32	0.00
366.52	0.00
366.72	0.00
366.91	0.00
367.11	0.00
367.31	0.00
367.51	0.00
367.70	0.00
367.90	0.00
368.10	0.00
368.30	0.00
368.49	0.00
368.69	0.00
368.89	0.00
369.09	0.00
369.28	0.00
369.48	0.00
369.68	0.00
369.87	0.00
370.07	0.00
370.27	0.00
370.47	0.00
370.66	0.00
370.86	0.00
371.06	0.00
371.25	0.00
371.45	16.38
371.65	0.00
371.84	18.72
372.04	14.04
372.24	0.00
372.44	0.00
372.63	32.77
372.83	0.00
373.03	0.00
373.22	18.72
373.42	14.04
373.62	21.06
373.81	0.00
374.01	79.58
374.21	98.30
374.40	21.06
374.60	37.45
374.79	0.00
374.99	32.77
375.19	58.51
375.38	21.06
375.58	30.43
375.78	9.36
375.97	35.11
376.17	7.02
376.37	9.36
376.56	56.17
376.76	2.34
376.95	35.11
377.15	25.75
377.35	44.47
377.54	16.38
377.74	56.17
377.93	16.38
378.13	117.03
378.33	0.00
378.52	21.06
378.72	0.00
378.91	39.79
379.11	16.38
379.31	60.85
379.50	67.88
379.70	51.49
379.89	93.62
380.09	84.26
380.28	0.00
380.48	0.00
380.68	65.54
380.87	0.00
381.07	9.36
381.26	28.09
381.46	0.00
381.65	0.00
381.85	28.09
382.04	0.00
382.24	16.38
382.43	9.36
382.63	60.85
382.83	18.72
383.02	32.77
383.22	2.34
383.41	46.81
383.61	0.00
383.80	0.00
384.00	2.34
384.19	46.81
384.39	46.81
384.58	11.70
384.78	32.77
384.97	18.72
385.17	42.13
385.36	0.00
385.56	0.00
385.75	0.00
385.95	11.70
386.14	0.00
386.34	74.90
386.53	53.83
386.72	14.04
386.92	88.94
387.11	0.00
387.31	18.72
387.50	21.06
387.70	112.35
387.89	0.00
388.09	28.09
388.28	25.75
388.48	100.64
388.67	16.38
388.86	35.11
389.06	0.00
389.25	37.45
389.45	0.00
389.64	28.09
389.84	37.45
390.03	56.17
390.22	4.68
390.42	35.11
390.61	14.04
390.81	42.13
391.00	11.70
391.19	0.00
391.39	0.00
391.58	65.54
391.78	0.00
391.97	81.92
392.16	25.75
392.36	16.38
392.55	25.75
392.75	0.00
392.94	0.00
393.13	0.00
393.33	72.56
393.52	86.60
393.71	14.04
393.91	51.49
394.10	14.04
394.29	28.09
394.49	39.79
394.68	42.13
394.88	42.13
395.07	18.72
395.26	0.00
395.46	0.00
395.65	0.00
395.84	0.00
396.04	77.24
396.23	51.49
396.42	70.22
396.62	0.00
396.81	51.49
397.00	39.79
397.19	16.38
397.39	0.00
397.58	77.24
397.77	0.00
397.97	56.17
398.16	0.00
398.35	49.15
398.55	70.22
398.74	28.09
398.93	0.00
399.12	56.17
399.32	0.00
399.51	25.75
399.70	65.54
399.90	65.54
400.09	32.77
400.28	72.56
400.47	23.41
400.67	16.38
400.86	60.85
401.05	9.36
401.24	0.00
401.44	23.41
401.63	110.01
401.82	72.56
402.01	60.85
402.21	0.00
402.40	95.96
402.59	88.94
402.78	16.38
402.97	16.38
403.17	18.72
403.36	9.36
403.55	84.26
403.74	21.06
403.93	7.02
404.13	70.22
404.32	51.49
404.51	39.79
404.70	46.81
404.89	35.11
405.09	49.15
405.28	25.75
405.47	32.77
405.66	77.24
405.85	67.88
406.05	0.00
406.24	86.60
406.43	11.70
406.62	0.00
406.81	32.77
407.00	0.00
407.20	37.45
407.39	56.17
407.58	42.13
407.77	0.00
407.96	107.66
408.15	81.92
408.34	74.90
408.54	30.43
408.73	58.51
408.92	28.09
409.11	9.36
409.30	35.11
409.49	58.51
409.68	67.88
409.87	14.04
410.07	9.36
410.26	91.28
410.45	107.66
410.64	0.00
410.83	60.85
411.02	49.15
411.21	53.83
411.40	39.79
411.59	119.37
411.78	67.88
411.98	77.24
412.17	93.62
412.36	9.36
412.55	0.00
412.74	65.54
412.93	121.71
413.12	46.81
413.31	25.75
413.50	42.13
413.69	121.71
413.88	51.49
414.07	9.36
414.26	56.17
414.45	18.72
414.64	102.98
414.83	16.38
415.02	0.00
415.22	30.43
415.41	4.68
415.60	28.09
415.79	9.36
415.98	35.11
416.17	63.19
416.36	49.15
416.55	16.38
416.74	51.49
416.93	56.17
417.12	30.43
417.31	51.49
417.50	0.00
417.69	23.41
417.88	14.04
418.07	39.79
418.26	105.32
418.45	16.38
418.64	25.75
418.83	23.41
419.02	35.11
419.21	0.00
419.39	35.11
419.58	51.49
419.77	0.00
419.96	37.45
420.15	93.62
420.34	0.00
420.53	100.64
420.72	81.92
420.91	0.00
421.10	51.49
421.29	4.68
421.48	16.38
421.67	42.13
421.86	18.72
422.05	60.85
422.24	32.77
422.43	23.41
422.61	67.88
422.80	53.83
422.99	0.00
423.18	37.45
423.37	28.09
423.56	18.72
423.75	53.83
423.94	0.00
424.13	7.02
424.32	0.00
424.50	37.45
424.69	35.11
424.88	28.09
425.07	21.06
425.26	63.19
425.45	9.36
425.64	46.81
425.83	84.26
426.01	23.41
426.20	30.43
426.39	72.56
426.58	16.38
426.77	88.94
426.96	51.49
427.15	107.66
427.33	0.00
427.52	39.79
427.71	81.92
427.90	98.30
428.09	60.85
428.28	84.26
428.46	0.00
428.65	51.49
428.84	11.70
429.03	28.09
429.22	32.77
429.40	0.00
429.59	16.38
429.78	32.77
429.97	60.85
430.16	98.30
430.34	9.36
430.53	37.45
430.72	46.81
430.91	49.15
431.10	14.04
431.28	7.02
431.47	30.43
431.66	37.45
431.85	49.15
432.03	39.79
432.22	58.51
432.41	0.00
432.60	79.58
432.79	0.00
432.97	58.51
433.16	37.45
433.35	72.56
433.54	37.45
433.72	91.28
433.91	67.88
434.10	30.43
434.28	23.41
434.47	72.56
434.66	23.41
434.85	60.85
435.03	14.04
435.22	84.26
435.41	53.83
435.59	14.04
435.78	0.00
435.97	46.81
436.16	0.00
436.34	44.47
436.53	126.39
436.72	42.13
436.90	86.60
437.09	39.79
437.28	2.34
437.46	74.90
437.65	35.11
437.84	0.00
438.02	0.00
438.21	77.24
438.40	4.68
438.58	25.75
438.77	128.73
438.96	37.45
439.14	0.00
439.33	30.43
439.52	11.70
439.70	74.90
439.89	112.35
440.08	39.79
440.26	37.45
440.45	79.58
440.63	49.15
440.82	58.51
441.01	63.19
441.19	28.09
441.38	74.90
441.57	18.72
441.75	84.26
441.94	9.36
442.12	88.94
442.31	37.45
442.50	131.07
442.68	11.70
442.87	4.68
443.05	51.49
443.24	49.15
443.43	79.58
443.61	28.09
443.80	25.75
443.98	0.00
444.17	131.07
444.35	2.34
444.54	102.98
444.73	74.90
444.91	56.17
445.10	14.04
445.28	21.06
445.47	37.45
445.65	102.98
445.84	14.04
446.02	39.79
446.21	81.92
446.39	72.56
446.58	32.77
446.77	32.77
446.95	102.98
447.14	60.85
447.32	0.00
447.51	23.41
447.69	16.38
447.88	21.06
448.06	2.34
448.25	0.00
448.43	35.11
448.62	11.70
448.80	77.24
448.99	126.39
449.17	4.68
449.36	39.79
449.54	60.85
449.73	18.72
449.91	46.81
450.10	28.09
450.28	65.54
450.46	37.45
450.65	53.83
450.83	74.90
451.02	18.72
451.20	9.36
451.39	23.41
451.57	42.13
451.76	42.13
451.94	58.51
452.13	37.45
452.31	9.36
452.49	53.83
452.68	44.47
452.86	102.98
453.05	42.13
453.23	39.79
453.42	0.00
453.60	49.15
453.78	42.13
453.97	4.68
454.15	74.90
454.34	121.71
454.52	0.00
454.70	2.34
454.89	28.09
455.07	105.32
455.26	112.35
455.44	107.66
455.62	84.26
455.81	65.54
455.99	0.00
456.17	0.00
456.36	16.38
456.54	21.06
456.73	51.49
456.91	81.92
457.09	42.13
457.28	84.26
457.46	32.77
457.64	84.26
457.83	0.00
458.01	35.11
458.19	35.11
458.38	74.90
458.56	74.90
458.74	18.72
458.93	0.00
459.11	0.00
459.29	0.00
459.48	53.83
459.66	0.00
459.84	56.17
460.03	39.79
460.21	28.09
460.39	102.98
460.57	53.83
460.76	35.11
460.94	107.66
461.12	11.70
461.31	102.98
461.49	0.00
461.67	145.11
461.85	86.60
462.04	37.45
462.22	154.48
462.40	88.94
462.59	84.26
462.77	77.24
462.95	72.56
463.13	35.11
463.32	0.00
463.50	42.13
463.68	74.90
463.86	72.56
464.05	56.17
464.23	77.24
464.41	35.11
464.59	63.19
464.78	21.06
464.96	0.00
465.14	77.24
465.32	65.54
465.50	21.06
465.69	161.50
465.87	81.92
466.05	42.13
466.23	114.69
466.41	74.90
466.60	11.70
466.78	46.81
466.96	51.49
467.14	102.98
467.32	51.49
467.51	119.37
467.69	65.54
467.87	46.81
468.05	58.51
468.23	30.43
468.41	126.39
468.60	100.64
468.78	23.41
468.96	161.50
469.14	2.34
469.32	86.60
469.50	88.94
469.69	105.32
469.87	72.56
470.05	58.51
470.23	53.83
470.41	9.36
470.59	49.15
470.77	74.90
470.95	102.98
471.14	74.90
471.32	105.32
471.50	0.00
471.68	124.05
471.86	23.41
472.04	39.79
472.22	107.66
472.40	4.68
472.58	53.83
472.77	28.09
472.95	63.19
473.13	25.75
473.31	11.70
473.49	72.56
473.67	14.04
473.85	110.01
474.03	93.62
474.21	63.19
474.39	77.24
474.57	32.77
474.75	42.13
474.93	91.28
475.12	44.47
475.30	39.79
475.48	124.05
475.66	39.79
475.84	0.00
476.02	58.51
476.20	58.51
476.38	105.32
476.56	84.26
476.74	74.90
476.92	16.38
477.10	65.54
477.28	7.02
477.46	18.72
477.64	49.15
477.82	23.41
478.00	72.56
478.18	32.77
478.36	42.13
478.54	46.81
478.72	35.11
478.90	0.00
479.08	70.22
479.26	98.30
479.44	0.00
479.62	86.60
479.80	140.43
479.98	42.13
480.16	95.96
480.34	121.71
480.52	32.77
480.70	70.22
480.88	51.49
481.06	39.79
481.24	51.49
481.41	140.43
481.59	74.90
481.77	65.54
481.95	77.24
482.13	142.77
482.31	4.68
482.49	84.26
482.67	0.00
482.85	16.38
483.03	49.15
483.21	128.73
483.39	28.09
483.57	46.81
483.74	77.24
483.92	67.88
484.10	30.43
484.28	70.22
484.46	42.13
484.64	102.98
484.82	93.62
485.00	93.62
485.18	14.04
485.35	77.24
485.53	100.64
485.71	46.81
485.89	65.54
486.07	35.11
486.25	49.15
486.43	25.75
486.61	72.56
486.78	37.45
486.96	53.83
487.14	51.49
487.32	39.79
487.50	56.17
487.68	53.83
487.85	30.43
488.03	107.66
488.21	91.28
488.39	65.54
488.57	163.84
488.75	100.64
488.92	67.88
489.10	56.17
489.28	156.82
489.46	131.07
489.64	28.09
489.81	79.58
489.99	100.64
490.17	86.60
490.35	91.28
490.53	119.37
490.70	65.54
490.88	98.30
491.06	70.22
491.24	32.77
491.41	79.58
491.59	84.26
491.77	142.77
491.95	88.94
492.13	56.17
492.30	63.19
492.48	149.79
492.66	77.24
492.84	140.43
493.01	187.24
493.19	102.98
493.37	65.54
493.54	11.70
493.72	67.88
493.90	77.24
494.08	131.07
494.25	105.32
494.43	56.17
494.61	18.72
494.79	65.54
494.96	46.81
495.14	135.75
495.32	114.69
495.49	74.90
495.67	56.17
495.85	102.98
496.02	100.64
496.20	98.30
496.38	25.75
496.55	107.66
496.73	70.22
496.91	49.15
497.09	58.51
497.26	81.92
497.44	67.88
497.62	18.72
497.79	32.77
497.97	51.49
498.14	21.06
498.32	77.24
498.50	65.54
498.67	95.96
498.85	77.24
499.03	110.01
499.20	30.43
499.38	67.88
499.56	58.51
499.73	74.90
499.91	105.32
500.08	131.07
500.26	138.09
500.44	79.58
500.61	72.56
500.79	79.58
500.97	81.92
501.14	91.28
501.32	58.51
501.49	14.04
501.67	86.60
501.84	110.01
502.02	117.03
502.20	23.41
502.37	56.17
502.55	9.36
502.72	84.26
502.90	110.01
503.07	53.83
503.25	2.34
503.43	25.75
503.60	49.15
503.78	88.94
503.95	84.26
504.13	88.94
504.30	53.83
504.48	88.94
504.65	142.77
504.83	88.94
505.01	117.03
505.18	88.94
505.36	84.26
505.53	107.66
505.71	180.22
505.88	114.69
506.06	110.01
506.23	88.94
506.41	102.98
506.58	81.92
506.76	105.32
506.93	49.15
507.11	131.07
507.28	119.37
507.46	81.92
507.63	56.17
507.81	107.66
507.98	56.17
508.16	18.72
508.33	0.00
508.50	53.83
508.68	53.83
508.85	70.22
509.03	28.09
509.20	114.69
509.38	93.62
509.55	135.75
509.73	53.83
509.90	140.43
510.08	63.19
510.25	32.77
510.42	51.49
510.60	184.90
510.77	133.41
510.95	93.62
511.12	74.90
511.30	56.17
511.47	91.28
511.64	93.62
511.82	53.83
511.99	65.54
512.17	14.04
512.34	98.30
512.51	79.58
512.69	7.02
512.86	67.88
513.04	124.05
513.21	133.41
513.38	58.51
513.56	37.45
513.73	131.07
513.90	170.86
514.08	79.58
514.25	84.26
514.43	63.19
514.60	72.56
514.77	39.79
514.95	42.13
515.12	72.56
515.29	63.19
515.47	126.39
515.64	51.49
515.81	128.73
515.99	37.45
516.16	46.81
516.33	100.64
516.51	81.92
516.68	117.03
516.85	79.58
517.03	14.04
517.20	93.62
517.37	35.11
517.54	0.00
517.72	88.94
517.89	56.17
518.06	9.36
518.24	51.49
518.41	98.30
518.58	138.09
518.75	86.60
518.93	37.45
519.10	37.45
519.27	93.62
519.45	70.22
519.62	119.37
519.79	65.54
519.96	105.32
520.14	63.19
520.31	51.49
520.48	93.62
520.65	56.17
520.83	58.51
521.00	67.88
521.17	65.54
521.34	88.94
521.52	112.35
521.69	105.32
521.86	107.66
522.03	58.51
522.20	60.85
522.38	81.92
522.55	79.58
522.72	56.17
522.89	56.17
523.07	39.79
523.24	126.39
523.41	86.60
523.58	0.00
523.75	72.56
523.92	81.92
524.10	30.43
524.27	95.96
524.44	107.66
524.61	70.22
524.78	88.94
524.96	112.35
525.13	72.56
525.30	74.90
525.47	91.28
525.64	53.83
525.81	77.24
525.98	11.70
526.16	53.83
526.33	65.54
526.50	56.17
526.67	28.09
526.84	81.92
527.01	100.64
527.18	63.19
527.36	28.09
527.53	124.05
527.70	60.85
527.87	39.79
528.04	70.22
528.21	100.64
528.38	72.56
528.55	81.92
528.72	117.03
528.89	145.11
529.07	91.28
529.24	81.92
529.41	7.02
529.58	156.82
529.75	121.71
529.92	42.13
530.09	114.69
530.26	93.62
530.43	142.77
530.60	180.22
530.77	135.75
530.94	46.81
531.11	154.48
531.28	21.06
531.46	138.09
531.63	105.32
531.80	67.88
531.97	135.75
532.14	28.09
532.31	98.30
532.48	88.94
532.65	133.41
532.82	98.30
532.99	119.37
533.16	88.94
533.33	72.56
533.50	86.60
533.67	60.85
533.84	46.81
534.01	117.03
534.18	42.13
534.35	86.60
534.52	42.13
534.69	74.90
534.86	42.13
535.03	105.32
535.20	67.88
535.37	58.51
535.54	135.75
535.71	133.41
535.88	67.88
536.05	51.49
536.22	156.82
536.38	63.19
536.55	70.22
536.72	37.45
536.89	112.35
537.06	74.90
537.23	70.22
537.40	81.92
537.57	72.56
537.74	74.90
537.91	95.96
538.08	42.13
538.25	107.66
538.42	70.22
538.59	77.24
538.75	98.30
538.92	79.58
539.09	28.09
539.26	39.79
539.43	32.77
539.60	18.72
539.77	39.79
539.94	70.22
540.11	102.98
540.28	32.77
540.44	133.41
540.61	98.30
540.78	117.03
540.95	0.00
541.12	65.54
541.29	46.81
541.46	63.19
541.62	51.49
541.79	117.03
541.96	194.26
542.13	152.13
542.30	131.07
542.47	105.32
542.63	35.11
542.80	67.88
542.97	0.00
543.14	46.81
543.31	67.88
543.48	107.66
543.64	140.43
543.81	105.32
543.98	95.96
544.15	84.26
544.32	105.32
544.48	72.56
544.65	121.71
544.82	25.75
544.99	14.04
545.16	0.00
545.32	74.90
545.49	70.22
545.66	98.30
545.83	79.58
546.00	124.05
546.16	149.79
546.33	72.56
546.50	84.26
546.67	56.17
546.83	0.00
547.00	46.81
547.17	95.96
547.34	67.88
547.50	16.38
547.67	100.64
547.84	81.92
548.00	56.17
548.17	39.79
548.34	105.32
548.51	79.58
548.67	110.01
548.84	133.41
549.01	60.85
549.18	138.09
549.34	107.66
549.51	72.56
549.68	95.96
549.84	93.62
550.01	84.26
550.18	119.37
550.34	138.09
550.51	173.20
550.68	79.58
550.84	95.96
551.01	58.51
551.18	60.85
551.34	72.56
551.51	35.11
551.68	65.54
551.84	131.07
552.01	16.38
552.18	95.96
552.34	46.81
552.51	56.17
552.68	35.11
552.84	112.35
553.01	32.77
553.18	16.38
553.34	18.72
553.51	86.60
553.67	121.71
553.84	112.35
554.01	119.37
554.17	84.26
554.34	79.58
554.51	18.72
554.67	145.11
554.84	23.41
555.00	79.58
555.17	88.94
555.33	81.92
555.50	77.24
555.67	156.82
555.83	88.94
556.00	124.05
556.16	102.98
556.33	9.36
556.50	51.49
556.66	110.01
556.83	65.54
556.99	98.30
557.16	93.62
557.32	114.69
557.49	86.60
557.65	100.64
557.82	81.92
557.98	110.01
558.15	32.77
558.32	60.85
558.48	131.07
558.65	46.81
558.81	42.13
558.98	124.05
559.14	63.19
559.31	77.24
559.47	74.90
559.64	84.26
559.80	60.85
559.97	32.77
560.13	84.26
560.30	81.92
560.46	46.81
560.63	93.62
560.79	79.58
560.96	70.22
561.12	30.43
561.29	0.00
561.45	70.22
561.61	93.62
561.78	60.85
561.94	88.94
562.11	72.56
562.27	35.11
562.44	121.71
562.60	102.98
562.77	9.36
562.93	102.98
563.10	117.03
563.26	0.00
563.42	35.11
563.59	91.28
563.75	110.01
563.92	93.62
564.08	81.92
564.24	112.35
564.41	42.13
564.57	84.26
564.74	117.03
564.90	70.22
565.07	91.28
565.23	63.19
565.39	77.24
565.56	117.03
565.72	138.09
565.88	81.92
566.05	60.85
566.21	74.90
566.38	49.15
566.54	152.13
566.70	93.62
566.87	133.41
567.03	117.03
567.19	131.07
567.36	95.96
567.52	0.00
567.68	63.19
567.85	28.09
568.01	32.77
568.17	72.56
568.34	145.11
568.50	128.73
568.66	140.43
568.83	117.03
568.99	84.26
569.15	117.03
569.32	133.41
569.48	70.22
569.64	79.58
569.81	0.00
569.97	135.75
570.13	84.26
570.30	0.00
570.46	42.13
570.62	128.73
570.78	142.77
570.95	126.39
571.11	16.38
571.27	77.24
571.43	93.62
571.60	37.45
571.76	28.09
571.92	95.96
572.09	51.49
572.25	58.51
572.41	77.24
572.57	77.24
572.74	53.83
572.90	88.94
573.06	128.73
573.22	98.30
573.38	42.13
573.55	39.79
573.71	79.58
573.87	133.41
574.03	81.92
574.20	152.13
574.36	23.41
574.52	32.77
574.68	79.58
574.84	46.81
575.01	51.49
575.17	84.26
575.33	56.17
575.49	30.43
575.65	42.13
575.82	60.85
575.98	39.79
576.14	105.32
576.30	114.69
576.46	42.13
576.62	84.26
576.79	105.32
576.95	84.26
577.11	81.92
577.27	119.37
577.43	65.54
577.59	86.60
577.75	39.79
577.92	112.35
578.08	51.49
578.24	121.71
578.40	0.00
578.56	86.60
578.72	58.51
578.88	131.07
579.04	119.37
579.21	119.37
579.37	25.75
579.53	79.58
579.69	30.43
579.85	0.00
580.01	84.26
580.17	67.88
580.33	88.94
580.49	37.45
580.65	126.39
580.82	14.04
580.98	35.11
581.14	81.92
581.30	44.47
581.46	77.24
581.62	39.79
581.78	7.02
581.94	138.09
582.10	42.13
582.26	84.26
582.42	39.79
582.58	102.98
582.74	131.07
582.90	107.66
583.06	46.81
583.22	131.07
583.38	18.72
583.54	72.56
583.70	39.79
583.86	70.22
584.02	4.68
584.18	117.03
584.34	81.92
584.50	28.09
584.66	105.32
584.82	65.54
584.98	100.64
585.14	51.49
585.30	100.64
585.46	140.43
585.62	84.26
585.78	0.00
585.94	100.64
586.10	95.96
586.26	21.06
586.42	135.75
586.58	16.38
586.74	112.35
586.90	126.39
587.06	65.54
587.22	119.37
587.38	84.26
587.54	70.22
587.70	72.56
587.86	74.90
588.02	86.60
588.18	30.43
588.34	79.58
588.49	14.04
588.65	126.39
588.81	39.79
588.97	35.11
589.13	128.73
589.29	72.56
589.45	44.47
589.61	51.49
589.77	138.09
589.93	42.13
590.08	63.19
590.24	135.75
590.40	53.83
590.56	95.96
590.72	147.45
590.88	79.58
591.04	42.13
591.20	93.62
591.35	7.02
591.51	37.45
591.67	110.01
591.83	56.17
591.99	95.96
592.15	91.28
592.31	105.32
592.46	84.26
592.62	182.56
592.78	117.03
592.94	124.05
593.10	81.92
593.26	88.94
593.41	81.92
593.57	105.32
593.73	84.26
593.89	98.30
594.05	70.22
594.20	67.88
594.36	65.54
594.52	44.47
594.68	152.13
594.84	42.13
594.99	25.75
595.15	18.72
595.31	124.05
595.47	37.45
595.62	30.43
595.78	49.15
595.94	58.51
596.10	58.51
596.25	86.60
596.41	49.15
596.57	51.49
596.73	81.92
596.88	63.19
597.04	0.00
597.20	74.90
597.36	88.94
597.51	102.98
597.67	110.01
597.83	131.07
597.99	46.81
598.14	105.32
598.30	84.26
598.46	117.03
598.61	25.75
598.77	63.19
598.93	79.58
599.09	140.43
599.24	105.32
599.40	46.81
599.56	81.92
599.71	77.24
599.87	11.70
600.03	65.54
600.18	0.00
600.34	53.83
600.50	44.47
600.65	74.90
600.81	14.04
600.97	28.09
601.12	58.51
601.28	112.35
601.44	63.19
601.59	51.49
601.75	102.98
601.91	51.49
602.06	84.26
602.22	67.88
602.37	49.15
602.53	77.24
602.69	21.06
602.84	49.15
603.00	98.30
603.16	37.45
603.31	0.00
603.47	140.43
603.62	9.36
603.78	63.19
603.94	84.26
604.09	102.98
604.25	0.00
604.40	25.75
604.56	77.24
604.71	44.47
604.87	28.09
605.03	79.58
605.18	79.58
605.34	53.83
605.49	7.02
605.65	63.19
605.80	67.88
605.96	51.49
606.12	44.47
606.27	35.11
606.43	9.36
606.58	32.77
606.74	119.37
606.89	117.03
607.05	93.62
607.20	112.35
607.36	51.49
607.51	91.28
607.67	67.88
607.82	7.02
607.98	44.47
608.13	23.41
608.29	77.24
608.44	53.83
608.60	93.62
608.75	102.98
608.91	93.62
609.06	95.96
609.22	79.58
609.37	23.41
609.53	53.83
609.68	112.35
609.84	60.85
609.99	72.56
610.15	102.98
610.30	81.92
610.46	142.77
610.61	102.98
610.76	65.54
610.92	56.17
611.07	63.19
611.23	114.69
611.38	86.60
611.54	58.51
611.69	95.96
611.84	0.00
612.00	37.45
612.15	0.00
612.31	0.00
612.46	70.22
612.62	51.49
612.77	18.72
612.92	102.98
613.08	70.22
613.23	74.90
613.39	51.49
613.54	74.90
613.69	93.62
613.85	70.22
614.00	145.11
614.15	9.36
614.31	39.79
614.46	4.68
614.62	0.00
614.77	65.54
614.92	60.85
615.08	42.13
615.23	0.00
615.38	67.88
615.54	65.54
615.69	0.00
615.84	63.19
616.00	107.66
616.15	91.28
616.30	35.11
616.46	16.38
616.61	0.00
616.76	88.94
616.92	51.49
617.07	58.51
617.22	88.94
617.37	114.69
617.53	23.41
617.68	14.04
617.83	110.01
617.99	53.83
618.14	53.83
618.29	117.03
618.45	63.19
618.60	100.64
618.75	67.88
618.90	49.15
619.06	56.17
619.21	74.90
619.36	60.85
619.51	84.26
619.67	77.24
619.82	98.30
619.97	58.51
620.12	84.26
620.28	74.90
620.43	128.73
620.58	23.41
620.73	58.51
620.89	88.94
621.04	93.62
621.19	117.03
621.34	77.24
621.49	0.00
621.65	86.60
621.80	110.01
621.95	95.96
622.10	49.15
622.25	30.43
622.41	46.81
622.56	35.11
622.71	4.68
622.86	2.34
623.01	7.02
623.16	0.00
623.32	51.49
623.47	56.17
623.62	21.06
623.77	88.94
623.92	14.04
624.07	131.07
624.23	0.00
624.38	0.00
624.53	84.26
624.68	60.85
624.83	65.54
624.98	84.26
625.13	77.24
625.29	0.00
625.44	30.43
625.59	86.60
625.74	88.94
625.89	60.85
626.04	86.60
626.19	67.88
626.34	39.79
626.49	65.54
626.65	0.00
626.80	56.17
626.95	16.38
627.10	7.02
627.25	63.19
627.40	39.79
627.55	14.04
627.70	79.58
627.85	21.06
628.00	49.15
628.15	28.09
628.30	28.09
628.45	18.72
628.60	46.81
628.76	49.15
628.91	0.00
629.06	53.83
629.21	28.09
629.36	0.00
629.51	93.62
629.66	126.39
629.81	81.92
629.96	65.54
630.11	63.19
630.26	14.04
630.41	84.26
630.56	60.85
630.71	9.36
630.86	79.58
631.01	65.54
631.16	72.56
631.31	23.41
631.46	86.60
631.61	86.60
631.76	105.32
631.91	56.17
632.06	49.15
632.21	9.36
632.36	58.51
632.51	63.19
632.66	0.00
632.81	46.81
632.96	28.09
633.10	117.03
633.25	0.00
633.40	46.81
633.55	51.49
633.70	124.05
633.85	18.72
634.00	42.13
634.15	51.49
634.30	88.94
634.45	37.45
634.60	37.45
634.75	74.90
634.90	65.54
635.05	131.07
635.19	30.43
635.34	102.98
635.49	46.81
635.64	98.30
635.79	60.85
635.94	63.19
636.09	39.79
636.24	28.09
636.39	114.69
636.53	74.90
636.68	93.62
636.83	102.98
636.98	70.22
637.13	32.77
637.28	112.35
637.43	98.30
637.57	102.98
637.72	67.88
637.87	88.94
638.02	51.49
638.17	98.30
638.32	72.56
638.46	18.72
638.61	51.49
638.76	72.56
638.91	32.77
639.06	117.03
639.20	44.47
639.35	14.04
639.50	74.90
639.65	53.83
639.80	56.17
639.94	98.30
640.09	74.90
640.24	35.11
640.39	58.51
640.54	60.85
640.68	46.81
640.83	58.51
640.98	67.88
641.13	163.84
641.27	46.81
641.42	65.54
641.57	119.37
641.72	65.54
641.86	70.22
642.01	70.22
642.16	18.72
642.31	44.47
642.45	23.41
642.60	100.64
642.75	51.49
642.90	72.56
643.04	110.01
643.19	105.32
643.34	39.79
643.48	49.15
643.63	91.28
643.78	49.15
643.93	18.72
644.07	91.28
644.22	63.19
644.37	100.64
644.51	100.64
644.66	42.13
644.81	56.17
644.95	35.11
645.10	77.24
645.25	63.19
645.39	84.26
645.54	56.17
645.69	42.13
645.83	2.34
645.98	121.71
646.13	16.38
646.27	42.13
646.42	81.92
646.57	60.85
646.71	95.96
646.86	170.86
647.00	46.81
647.15	46.81
647.30	88.94
647.44	67.88
647.59	53.83
647.74	39.79
647.88	117.03
648.03	79.58
648.17	46.81
648.32	39.79
648.47	44.47
648.61	77.24
648.76	79.58
648.90	7.02
649.05	74.90
649.20	100.64
649.34	46.81
649.49	114.69
649.63	86.60
649.78	44.47
649.92	25.75
650.07	93.62
650.21	51.49
650.36	124.05
650.51	86.60
650.65	84.26
650.80	74.90
650.94	79.58
651.09	30.43
651.23	18.72
651.38	0.00
651.52	23.41
651.67	37.45
651.81	67.88
651.96	37.45
652.10	16.38
652.25	49.15
652.39	53.83
652.54	14.04
652.68	37.45
652.83	0.00
652.97	63.19
653.12	63.19
653.26	28.09
653.41	117.03
653.55	35.11
653.70	100.64
653.84	23.41
653.99	77.24
654.13	39.79
654.27	65.54
654.42	93.62
654.56	98.30
654.71	7.02
654.85	67.88
655.00	42.13
655.14	16.38
655.29	0.00
655.43	128.73
655.57	112.35
655.72	42.13
655.86	39.79
656.01	16.38
656.15	58.51
656.30	102.98
656.44	14.04
656.58	53.83
656.73	49.15
656.87	42.13
657.01	88.94
657.16	88.94
657.30	79.58
657.45	49.15
657.59	53.83
657.73	32.77
657.88	56.17
658.02	23.41
658.16	91.28
658.31	23.41
658.45	0.00
658.60	35.11
658.74	9.36
658.88	28.09
659.03	35.11
659.17	156.82
659.31	107.66
659.46	51.49
659.60	0.00
659.74	98.30
659.89	0.00
660.03	70.22
660.17	63.19
660.32	81.92
660.46	114.69
660.60	25.75
660.74	117.03
660.89	63.19
661.03	4.68
661.17	105.32
661.32	65.54
661.46	81.92
661.60	23.41
661.74	46.81
661.89	70.22
662.03	30.43
662.17	98.30
662.31	91.28
662.46	63.19
662.60	60.85
662.74	0.00
662.88	44.47
663.03	39.79
663.17	100.64
663.31	91.28
663.45	39.79
663.60	16.38
663.74	107.66
663.88	49.15
664.02	2.34
664.17	35.11
664.31	56.17
664.45	86.60
664.59	30.43
664.73	46.81
664.88	0.00
665.02	58.51
665.16	60.85
665.30	91.28
665.44	25.75
665.59	21.06
665.73	58.51
665.87	67.88
666.01	16.38
666.15	0.00
666.29	100.64
666.44	63.19
666.58	32.77
666.72	95.96
666.86	67.88
667.00	21.06
667.14	67.88
667.28	93.62
667.43	0.00
667.57	74.90
667.71	77.24
667.85	49.15
667.99	21.06
668.13	32.77
668.27	0.00
668.41	51.49
668.56	100.64
668.70	46.81
668.84	63.19
668.98	14.04
669.12	7.02
669.26	37.45
669.40	63.19
669.54	42.13
669.68	79.58
669.82	84.26
669.96	112.35
670.10	88.94
670.25	23.41
670.39	107.66
670.53	51.49
670.67	32.77
670.81	67.88
670.95	105.32
671.09	23.41
671.23	77.24
671.37	100.64
671.51	42.13
671.65	60.85
671.79	79.58
671.93	74.90
672.07	37.45
672.21	53.83
672.35	79.58
672.49	23.41
672.63	39.79
672.77	84.26
672.91	37.45
673.05	74.90
673.19	0.00
673.33	53.83
673.47	56.17
673.61	4.68
673.75	42.13
673.89	21.06
674.03	9.36
674.17	49.15
674.31	28.09
674.45	58.51
674.59	72.56
674.73	114.69
674.87	37.45
675.01	0.00
675.15	32.77
675.29	4.68
675.43	77.24
675.56	77.24
675.70	28.09
675.84	0.00
675.98	65.54
676.12	46.81
676.26	70.22
676.40	46.81
676.54	49.15
676.68	60.85
676.82	44.47
676.96	67.88
677.10	60.85
677.23	28.09
677.37	16.38
677.51	39.79
677.65	79.58
677.79	88.94
677.93	35.11
678.07	77.24
678.21	4.68
678.34	44.47
678.48	63.19
678.62	30.43
678.76	14.04
678.90	30.43
679.04	53.83
679.18	21.06
679.31	70.22
679.45	128.73
679.59	0.00
679.73	63.19
679.87	46.81
680.00	35.11
680.14	63.19
680.28	60.85
680.42	49.15
680.56	56.17
680.70	128.73
680.83	88.94
680.97	14.04
681.11	37.45
681.25	63.19
681.39	58.51
681.52	28.09
681.66	56.17
681.80	44.47
681.94	35.11
682.07	32.77
682.21	28.09
682.35	67.88
682.49	79.58
682.62	0.00
682.76	53.83
682.90	70.22
683.04	39.79
683.17	81.92
683.31	2.34
683.45	44.47
683.59	7.02
683.72	56.17
683.86	4.68
684.00	49.15
684.13	88.94
684.27	44.47
684.41	51.49
684.55	81.92
684.68	0.00
684.82	46.81
684.96	77.24
685.09	0.00
685.23	60.85
685.37	51.49
685.50	100.64
685.64	0.00
685.78	63.19
685.91	46.81
686.05	46.81
686.19	67.88
686.32	100.64
686.46	21.06
686.60	70.22
686.73	0.00
686.87	42.13
687.01	0.00
687.14	67.88
687.28	65.54
687.42	42.13
687.55	39.79
687.69	60.85
687.82	63.19
687.96	11.70
688.10	84.26
688.23	11.70
688.37	16.38
688.50	32.77
688.64	0.00
688.78	0.00
688.91	81.92
689.05	16.38
689.18	65.54
689.32	32.77
689.46	0.00
689.59	37.45
689.73	102.98
689.86	91.28
690.00	4.68
690.13	28.09
690.27	28.09
690.41	84.26
690.54	77.24
690.68	11.70
690.81	49.15
690.95	14.04
691.08	56.17
691.22	0.00
691.35	79.58
691.49	37.45
691.62	88.94
691.76	95.96
691.89	81.92
692.03	0.00
692.16	0.00
692.30	37.45
692.43	28.09
692.57	49.15
692.70	30.43
692.84	79.58
692.97	0.00
693.11	21.06
693.24	0.00
693.38	79.58
693.51	14.04
693.65	0.00
693.78	0.00
693.92	49.15
694.05	72.56
694.19	42.13
694.32	49.15
694.45	23.41
694.59	2.34
694.72	32.77
694.86	30.43
694.99	7.02
695.13	35.11
695.26	70.22
695.39	0.00
695.53	25.75
695.66	0.00
695.80	7.02
695.93	42.13
696.07	0.00
696.20	32.77
696.33	0.00
696.47	2.34
696.60	16.38
696.73	2.34
696.87	23.41
697.00	16.38
697.14	51.49
697.27	28.09
697.40	11.70
697.54	32.77
697.67	16.38
697.80	56.17
697.94	32.77
698.07	72.56
698.21	23.41
698.34	77.24
698.47	37.45
698.61	53.83
698.74	21.06
698.87	110.01
699.01	58.51
699.14	0.00
699.27	86.60
699.40	138.09
699.54	7.02
699.67	95.96
699.80	49.15
699.94	16.38
700.07	60.85
700.20	2.34
700.34	37.45
700.47	93.62
700.60	2.34
700.73	58.51
700.87	77.24
701.00	7.02
701.13	70.22
701.26	53.83
701.40	42.13
701.53	9.36
701.66	0.00
701.79	28.09
701.93	25.75
702.06	28.09
702.19	37.45
702.32	14.04
702.46	18.72
702.59	11.70
702.72	0.00
702.85	70.22
702.99	79.58
703.12	58.51
703.25	0.00
703.38	81.92
703.51	14.04
703.65	91.28
703.78	44.47
703.91	4.68
704.04	0.00
704.17	25.75
704.31	42.13
704.44	4.68
704.57	35.11
704.70	81.92
704.83	16.38
704.96	4.68
705.10	14.04
705.23	74.90
>>>>>End Processed Spectral Data<<<<<
