SpectraSuite Data File
++++++++++++++++++++++++++++++++++++
Date: Fri Oct 04 12:13:31 GMT-05:00 2013
User: price-jones
Dark Spectrum Present: No
Reference Spectrum Present: No
Number of Sampled Component Spectra: 1
Spectrometers: USB2+H05261
Integration Time (usec): 10000 (USB2+H05261)
Spectra Averaged: 1 (USB2+H05261)
Boxcar Smoothing: 0 (USB2+H05261)
Correct for Electrical Dark: No (USB2+H05261)
Strobe/Lamp Enabled: No (USB2+H05261)
Correct for Detector Non-linearity: No (USB2+H05261)
Correct for Stray Light: No (USB2+H05261)
Number of Pixels in Processed Spectrum: 2048
>>>>>Begin Processed Spectral Data<<<<<
365.73	49.15
365.92	49.15
366.12	49.15
366.32	0.00
366.52	0.00
366.72	0.00
366.91	0.00
367.11	0.00
367.31	0.00
367.51	0.00
367.70	0.00
367.90	0.00
368.10	0.00
368.30	0.00
368.49	0.00
368.69	0.00
368.89	0.00
369.09	0.00
369.28	0.00
369.48	0.00
369.68	0.00
369.87	0.00
370.07	0.00
370.27	0.00
370.47	0.00
370.66	0.00
370.86	0.00
371.06	0.00
371.25	0.00
371.45	0.00
371.65	0.00
371.84	0.00
372.04	42.13
372.24	37.45
372.44	23.41
372.63	9.36
372.83	51.49
373.03	46.81
373.22	18.72
373.42	0.00
373.62	0.00
373.81	4.68
374.01	30.43
374.21	14.04
374.40	0.00
374.60	30.43
374.79	74.90
374.99	100.64
375.19	9.36
375.38	32.77
375.58	14.04
375.78	32.77
375.97	37.45
376.17	133.41
376.37	51.49
376.56	37.45
376.76	35.11
376.95	53.83
377.15	110.01
377.35	46.81
377.54	42.13
377.74	32.77
377.93	0.00
378.13	0.00
378.33	0.00
378.52	2.34
378.72	49.15
378.91	0.00
379.11	30.43
379.31	16.38
379.50	37.45
379.70	46.81
379.89	25.75
380.09	0.00
380.28	81.92
380.48	0.00
380.68	58.51
380.87	7.02
381.07	23.41
381.26	0.00
381.46	0.00
381.65	30.43
381.85	49.15
382.04	49.15
382.24	14.04
382.43	28.09
382.63	0.00
382.83	0.00
383.02	21.06
383.22	21.06
383.41	0.00
383.61	46.81
383.80	44.47
384.00	0.00
384.19	0.00
384.39	65.54
384.58	32.77
384.78	14.04
384.97	23.41
385.17	46.81
385.36	42.13
385.56	7.02
385.75	14.04
385.95	0.00
386.14	0.00
386.34	0.00
386.53	0.00
386.72	0.00
386.92	11.70
387.11	0.00
387.31	32.77
387.50	37.45
387.70	102.98
387.89	23.41
388.09	0.00
388.28	2.34
388.48	0.00
388.67	70.22
388.86	42.13
389.06	72.56
389.25	51.49
389.45	0.00
389.64	74.90
389.84	32.77
390.03	35.11
390.22	0.00
390.42	72.56
390.61	0.00
390.81	79.58
391.00	0.00
391.19	30.43
391.39	0.00
391.58	74.90
391.78	42.13
391.97	23.41
392.16	0.00
392.36	16.38
392.55	23.41
392.75	0.00
392.94	35.11
393.13	53.83
393.33	16.38
393.52	30.43
393.71	56.17
393.91	7.02
394.10	37.45
394.29	51.49
394.49	0.00
394.68	0.00
394.88	25.75
395.07	28.09
395.26	37.45
395.46	0.00
395.65	60.85
395.84	0.00
396.04	42.13
396.23	0.00
396.42	81.92
396.62	7.02
396.81	67.88
397.00	32.77
397.19	53.83
397.39	46.81
397.58	0.00
397.77	0.00
397.97	0.00
398.16	81.92
398.35	0.00
398.55	0.00
398.74	0.00
398.93	14.04
399.12	37.45
399.32	30.43
399.51	0.00
399.70	18.72
399.90	0.00
400.09	56.17
400.28	23.41
400.47	4.68
400.67	25.75
400.86	60.85
401.05	42.13
401.24	35.11
401.44	14.04
401.63	11.70
401.82	58.51
402.01	7.02
402.21	67.88
402.40	46.81
402.59	4.68
402.78	39.79
402.97	0.00
403.17	37.45
403.36	105.32
403.55	0.00
403.74	23.41
403.93	32.77
404.13	4.68
404.32	25.75
404.51	63.19
404.70	28.09
404.89	9.36
405.09	128.73
405.28	0.00
405.47	25.75
405.66	0.00
405.85	28.09
406.05	63.19
406.24	0.00
406.43	0.00
406.62	65.54
406.81	42.13
407.00	53.83
407.20	23.41
407.39	9.36
407.58	107.66
407.77	95.96
407.96	51.49
408.15	56.17
408.34	35.11
408.54	37.45
408.73	67.88
408.92	0.00
409.11	98.30
409.30	2.34
409.49	51.49
409.68	7.02
409.87	0.00
410.07	81.92
410.26	11.70
410.45	0.00
410.64	16.38
410.83	67.88
411.02	14.04
411.21	124.05
411.40	11.70
411.59	46.81
411.78	35.11
411.98	28.09
412.17	0.00
412.36	25.75
412.55	56.17
412.74	35.11
412.93	35.11
413.12	53.83
413.31	28.09
413.50	0.00
413.69	0.00
413.88	35.11
414.07	0.00
414.26	49.15
414.45	0.00
414.64	30.43
414.83	0.00
415.02	42.13
415.22	67.88
415.41	21.06
415.60	0.00
415.79	25.75
415.98	30.43
416.17	2.34
416.36	25.75
416.55	4.68
416.74	63.19
416.93	49.15
417.12	14.04
417.31	42.13
417.50	7.02
417.69	86.60
417.88	44.47
418.07	91.28
418.26	30.43
418.45	0.00
418.64	42.13
418.83	0.00
419.02	11.70
419.21	28.09
419.39	32.77
419.58	37.45
419.77	0.00
419.96	0.00
420.15	7.02
420.34	39.79
420.53	32.77
420.72	21.06
420.91	25.75
421.10	88.94
421.29	11.70
421.48	23.41
421.67	81.92
421.86	42.13
422.05	53.83
422.24	79.58
422.43	0.00
422.61	49.15
422.80	0.00
422.99	32.77
423.18	81.92
423.37	4.68
423.56	14.04
423.75	84.26
423.94	35.11
424.13	0.00
424.32	35.11
424.50	9.36
424.69	16.38
424.88	0.00
425.07	16.38
425.26	86.60
425.45	35.11
425.64	14.04
425.83	9.36
426.01	49.15
426.20	46.81
426.39	0.00
426.58	70.22
426.77	74.90
426.96	0.00
427.15	46.81
427.33	9.36
427.52	77.24
427.71	37.45
427.90	0.00
428.09	0.00
428.28	88.94
428.46	37.45
428.65	0.00
428.84	95.96
429.03	32.77
429.22	0.00
429.40	11.70
429.59	0.00
429.78	9.36
429.97	18.72
430.16	0.00
430.34	0.00
430.53	0.00
430.72	30.43
430.91	0.00
431.10	0.00
431.28	0.00
431.47	18.72
431.66	0.00
431.85	70.22
432.03	79.58
432.22	53.83
432.41	39.79
432.60	53.83
432.79	72.56
432.97	0.00
433.16	63.19
433.35	56.17
433.54	53.83
433.72	46.81
433.91	102.98
434.10	37.45
434.28	88.94
434.47	39.79
434.66	51.49
434.85	32.77
435.03	44.47
435.22	25.75
435.41	21.06
435.59	53.83
435.78	42.13
435.97	67.88
436.16	114.69
436.34	56.17
436.53	7.02
436.72	28.09
436.90	16.38
437.09	0.00
437.28	4.68
437.46	23.41
437.65	60.85
437.84	0.00
438.02	37.45
438.21	14.04
438.40	77.24
438.58	0.00
438.77	11.70
438.96	21.06
439.14	0.00
439.33	44.47
439.52	56.17
439.70	60.85
439.89	49.15
440.08	18.72
440.26	30.43
440.45	95.96
440.63	39.79
440.82	142.77
441.01	46.81
441.19	35.11
441.38	30.43
441.57	95.96
441.75	7.02
441.94	95.96
442.12	0.00
442.31	4.68
442.50	11.70
442.68	0.00
442.87	16.38
443.05	56.17
443.24	35.11
443.43	65.54
443.61	58.51
443.80	21.06
443.98	2.34
444.17	63.19
444.35	114.69
444.54	23.41
444.73	7.02
444.91	58.51
445.10	44.47
445.28	56.17
445.47	42.13
445.65	7.02
445.84	49.15
446.02	0.00
446.21	79.58
446.39	44.47
446.58	84.26
446.77	28.09
446.95	44.47
447.14	21.06
447.32	42.13
447.51	0.00
447.69	32.77
447.88	7.02
448.06	58.51
448.25	86.60
448.43	7.02
448.62	23.41
448.80	77.24
448.99	60.85
449.17	32.77
449.36	7.02
449.54	56.17
449.73	42.13
449.91	117.03
450.10	0.00
450.28	58.51
450.46	18.72
450.65	16.38
450.83	9.36
451.02	18.72
451.20	35.11
451.39	0.00
451.57	28.09
451.76	46.81
451.94	65.54
452.13	0.00
452.31	53.83
452.49	74.90
452.68	77.24
452.86	0.00
453.05	56.17
453.23	18.72
453.42	77.24
453.60	0.00
453.78	88.94
453.97	95.96
454.15	65.54
454.34	4.68
454.52	56.17
454.70	9.36
454.89	88.94
455.07	58.51
455.26	0.00
455.44	28.09
455.62	21.06
455.81	28.09
455.99	35.11
456.17	81.92
456.36	56.17
456.54	114.69
456.73	37.45
456.91	0.00
457.09	42.13
457.28	0.00
457.46	53.83
457.64	42.13
457.83	0.00
458.01	53.83
458.19	0.00
458.38	74.90
458.56	60.85
458.74	14.04
458.93	37.45
459.11	58.51
459.29	56.17
459.48	72.56
459.66	7.02
459.84	0.00
460.03	81.92
460.21	0.00
460.39	74.90
460.57	51.49
460.76	72.56
460.94	18.72
461.12	0.00
461.31	49.15
461.49	56.17
461.67	0.00
461.85	35.11
462.04	32.77
462.22	128.73
462.40	11.70
462.59	0.00
462.77	37.45
462.95	60.85
463.13	63.19
463.32	79.58
463.50	30.43
463.68	51.49
463.86	4.68
464.05	0.00
464.23	7.02
464.41	79.58
464.59	0.00
464.78	44.47
464.96	100.64
465.14	0.00
465.32	72.56
465.50	28.09
465.69	44.47
465.87	28.09
466.05	0.00
466.23	32.77
466.41	28.09
466.60	81.92
466.78	46.81
466.96	93.62
467.14	67.88
467.32	18.72
467.51	35.11
467.69	91.28
467.87	0.00
468.05	72.56
468.23	58.51
468.41	25.75
468.60	35.11
468.78	46.81
468.96	56.17
469.14	44.47
469.32	72.56
469.50	28.09
469.69	0.00
469.87	25.75
470.05	0.00
470.23	67.88
470.41	100.64
470.59	51.49
470.77	11.70
470.95	14.04
471.14	65.54
471.32	25.75
471.50	58.51
471.68	28.09
471.86	77.24
472.04	9.36
472.22	0.00
472.40	42.13
472.58	0.00
472.77	74.90
472.95	63.19
473.13	88.94
473.31	2.34
473.49	58.51
473.67	30.43
473.85	7.02
474.03	79.58
474.21	0.00
474.39	16.38
474.57	81.92
474.75	86.60
474.93	11.70
475.12	65.54
475.30	0.00
475.48	93.62
475.66	16.38
475.84	100.64
476.02	70.22
476.20	42.13
476.38	7.02
476.56	35.11
476.74	51.49
476.92	39.79
477.10	23.41
477.28	53.83
477.46	2.34
477.64	23.41
477.82	30.43
478.00	42.13
478.18	72.56
478.36	9.36
478.54	0.00
478.72	65.54
478.90	49.15
479.08	4.68
479.26	30.43
479.44	88.94
479.62	2.34
479.80	95.96
479.98	0.00
480.16	7.02
480.34	42.13
480.52	11.70
480.70	0.00
480.88	0.00
481.06	37.45
481.24	37.45
481.41	7.02
481.59	23.41
481.77	0.00
481.95	58.51
482.13	112.35
482.31	7.02
482.49	51.49
482.67	11.70
482.85	14.04
483.03	0.00
483.21	46.81
483.39	114.69
483.57	30.43
483.74	30.43
483.92	67.88
484.10	0.00
484.28	67.88
484.46	0.00
484.64	0.00
484.82	37.45
485.00	23.41
485.18	49.15
485.35	18.72
485.53	58.51
485.71	11.70
485.89	0.00
486.07	39.79
486.25	86.60
486.43	58.51
486.61	77.24
486.78	46.81
486.96	28.09
487.14	56.17
487.32	72.56
487.50	2.34
487.68	16.38
487.85	126.39
488.03	91.28
488.21	145.11
488.39	58.51
488.57	91.28
488.75	23.41
488.92	65.54
489.10	0.00
489.28	42.13
489.46	18.72
489.64	79.58
489.81	77.24
489.99	60.85
490.17	42.13
490.35	131.07
490.53	28.09
490.70	81.92
490.88	2.34
491.06	37.45
491.24	7.02
491.41	60.85
491.59	2.34
491.77	91.28
491.95	32.77
492.13	53.83
492.30	102.98
492.48	70.22
492.66	39.79
492.84	0.00
493.01	7.02
493.19	42.13
493.37	35.11
493.54	86.60
493.72	25.75
493.90	65.54
494.08	72.56
494.25	51.49
494.43	53.83
494.61	35.11
494.79	70.22
494.96	56.17
495.14	0.00
495.32	30.43
495.49	14.04
495.67	35.11
495.85	58.51
496.02	39.79
496.20	60.85
496.38	100.64
496.55	0.00
496.73	4.68
496.91	60.85
497.09	100.64
497.26	79.58
497.44	14.04
497.62	98.30
497.79	74.90
497.97	35.11
498.14	30.43
498.32	35.11
498.50	49.15
498.67	30.43
498.85	42.13
499.03	32.77
499.20	0.00
499.38	72.56
499.56	74.90
499.73	37.45
499.91	53.83
500.08	98.30
500.26	46.81
500.44	51.49
500.61	0.00
500.79	35.11
500.97	4.68
501.14	0.00
501.32	0.00
501.49	16.38
501.67	0.00
501.84	0.00
502.02	30.43
502.20	56.17
502.37	95.96
502.55	77.24
502.72	0.00
502.90	42.13
503.07	112.35
503.25	14.04
503.43	42.13
503.60	25.75
503.78	0.00
503.95	11.70
504.13	32.77
504.30	72.56
504.48	56.17
504.65	58.51
504.83	58.51
505.01	32.77
505.18	4.68
505.36	72.56
505.53	86.60
505.71	7.02
505.88	0.00
506.06	0.00
506.23	100.64
506.41	56.17
506.58	23.41
506.76	37.45
506.93	117.03
507.11	28.09
507.28	51.49
507.46	100.64
507.63	32.77
507.81	86.60
507.98	46.81
508.16	0.00
508.33	0.00
508.50	0.00
508.68	32.77
508.85	67.88
509.03	35.11
509.20	86.60
509.38	79.58
509.55	133.41
509.73	0.00
509.90	4.68
510.08	4.68
510.25	42.13
510.42	21.06
510.60	2.34
510.77	53.83
510.95	0.00
511.12	0.00
511.30	39.79
511.47	74.90
511.64	46.81
511.82	35.11
511.99	16.38
512.17	0.00
512.34	58.51
512.51	98.30
512.69	0.00
512.86	105.32
513.04	28.09
513.21	0.00
513.38	60.85
513.56	79.58
513.73	37.45
513.90	18.72
514.08	14.04
514.25	56.17
514.43	46.81
514.60	0.00
514.77	56.17
514.95	98.30
515.12	95.96
515.29	60.85
515.47	70.22
515.64	70.22
515.81	0.00
515.99	70.22
516.16	56.17
516.33	16.38
516.51	42.13
516.68	102.98
516.85	0.00
517.03	72.56
517.20	4.68
517.37	65.54
517.54	88.94
517.72	11.70
517.89	7.02
518.06	93.62
518.24	74.90
518.41	37.45
518.58	100.64
518.75	91.28
518.93	2.34
519.10	72.56
519.27	11.70
519.45	53.83
519.62	77.24
519.79	7.02
519.96	16.38
520.14	70.22
520.31	18.72
520.48	63.19
520.65	35.11
520.83	74.90
521.00	65.54
521.17	77.24
521.34	51.49
521.52	39.79
521.69	0.00
521.86	25.75
522.03	117.03
522.20	56.17
522.38	0.00
522.55	25.75
522.72	23.41
522.89	63.19
523.07	65.54
523.24	84.26
523.41	0.00
523.58	32.77
523.75	18.72
523.92	25.75
524.10	46.81
524.27	51.49
524.44	110.01
524.61	28.09
524.78	60.85
524.96	23.41
525.13	70.22
525.30	14.04
525.47	14.04
525.64	28.09
525.81	60.85
525.98	42.13
526.16	37.45
526.33	28.09
526.50	37.45
526.67	7.02
526.84	70.22
527.01	46.81
527.18	18.72
527.36	32.77
527.53	23.41
527.70	32.77
527.87	39.79
528.04	70.22
528.21	81.92
528.38	25.75
528.55	0.00
528.72	56.17
528.89	102.98
529.07	98.30
529.24	42.13
529.41	0.00
529.58	74.90
529.75	0.00
529.92	0.00
530.09	133.41
530.26	32.77
530.43	42.13
530.60	44.47
530.77	0.00
530.94	0.00
531.11	65.54
531.28	35.11
531.46	58.51
531.63	0.00
531.80	58.51
531.97	98.30
532.14	30.43
532.31	56.17
532.48	42.13
532.65	0.00
532.82	60.85
532.99	30.43
533.16	81.92
533.33	25.75
533.50	65.54
533.67	0.00
533.84	39.79
534.01	77.24
534.18	11.70
534.35	39.79
534.52	44.47
534.69	49.15
534.86	0.00
535.03	39.79
535.20	44.47
535.37	58.51
535.54	149.79
535.71	9.36
535.88	72.56
536.05	44.47
536.22	72.56
536.38	84.26
536.55	93.62
536.72	0.00
536.89	7.02
537.06	60.85
537.23	39.79
537.40	39.79
537.57	25.75
537.74	37.45
537.91	0.00
538.08	39.79
538.25	51.49
538.42	23.41
538.59	56.17
538.75	49.15
538.92	72.56
539.09	7.02
539.26	93.62
539.43	23.41
539.60	30.43
539.77	102.98
539.94	18.72
540.11	67.88
540.28	2.34
540.44	11.70
540.61	0.00
540.78	0.00
540.95	74.90
541.12	44.47
541.29	21.06
541.46	4.68
541.62	49.15
541.79	21.06
541.96	77.24
542.13	77.24
542.30	39.79
542.47	98.30
542.63	119.37
542.80	30.43
542.97	23.41
543.14	93.62
543.31	42.13
543.48	30.43
543.64	44.47
543.81	58.51
543.98	49.15
544.15	9.36
544.32	65.54
544.48	128.73
544.65	67.88
544.82	35.11
544.99	18.72
545.16	74.90
545.32	21.06
545.49	0.00
545.66	0.00
545.83	0.00
546.00	0.00
546.16	0.00
546.33	0.00
546.50	72.56
546.67	81.92
546.83	0.00
547.00	11.70
547.17	49.15
547.34	0.00
547.50	0.00
547.67	49.15
547.84	32.77
548.00	0.00
548.17	32.77
548.34	119.37
548.51	74.90
548.67	0.00
548.84	21.06
549.01	46.81
549.18	37.45
549.34	39.79
549.51	0.00
549.68	58.51
549.84	16.38
550.01	58.51
550.18	74.90
550.34	49.15
550.51	46.81
550.68	14.04
550.84	0.00
551.01	0.00
551.18	56.17
551.34	21.06
551.51	77.24
551.68	49.15
551.84	56.17
552.01	119.37
552.18	0.00
552.34	51.49
552.51	4.68
552.68	65.54
552.84	25.75
553.01	11.70
553.18	67.88
553.34	30.43
553.51	102.98
553.67	56.17
553.84	0.00
554.01	84.26
554.17	42.13
554.34	32.77
554.51	56.17
554.67	35.11
554.84	56.17
555.00	0.00
555.17	0.00
555.33	84.26
555.50	51.49
555.67	0.00
555.83	37.45
556.00	0.00
556.16	72.56
556.33	28.09
556.50	9.36
556.66	65.54
556.83	44.47
556.99	63.19
557.16	72.56
557.32	65.54
557.49	4.68
557.65	7.02
557.82	63.19
557.98	23.41
558.15	0.00
558.32	0.00
558.48	72.56
558.65	35.11
558.81	28.09
558.98	56.17
559.14	0.00
559.31	16.38
559.47	0.00
559.64	86.60
559.80	46.81
559.97	70.22
560.13	18.72
560.30	42.13
560.46	42.13
560.63	56.17
560.79	42.13
560.96	0.00
561.12	42.13
561.29	7.02
561.45	84.26
561.61	0.00
561.78	18.72
561.94	44.47
562.11	63.19
562.27	0.00
562.44	65.54
562.60	4.68
562.77	72.56
562.93	49.15
563.10	0.00
563.26	84.26
563.42	74.90
563.59	42.13
563.75	18.72
563.92	0.00
564.08	7.02
564.24	25.75
564.41	21.06
564.57	28.09
564.74	7.02
564.90	114.69
565.07	67.88
565.23	21.06
565.39	86.60
565.56	2.34
565.72	35.11
565.88	84.26
566.05	63.19
566.21	35.11
566.38	0.00
566.54	18.72
566.70	7.02
566.87	42.13
567.03	0.00
567.19	0.00
567.36	67.88
567.52	49.15
567.68	14.04
567.85	0.00
568.01	98.30
568.17	77.24
568.34	70.22
568.50	110.01
568.66	77.24
568.83	37.45
568.99	49.15
569.15	30.43
569.32	63.19
569.48	30.43
569.64	0.00
569.81	0.00
569.97	18.72
570.13	46.81
570.30	60.85
570.46	39.79
570.62	4.68
570.78	14.04
570.95	58.51
571.11	25.75
571.27	16.38
571.43	0.00
571.60	9.36
571.76	74.90
571.92	72.56
572.09	0.00
572.25	7.02
572.41	70.22
572.57	0.00
572.74	21.06
572.90	14.04
573.06	67.88
573.22	9.36
573.38	70.22
573.55	49.15
573.71	88.94
573.87	114.69
574.03	32.77
574.20	65.54
574.36	0.00
574.52	30.43
574.68	58.51
574.84	46.81
575.01	14.04
575.17	0.00
575.33	79.58
575.49	35.11
575.65	74.90
575.82	79.58
575.98	112.35
576.14	72.56
576.30	25.75
576.46	81.92
576.62	72.56
576.79	23.41
576.95	105.32
577.11	51.49
577.27	0.00
577.43	25.75
577.59	9.36
577.75	0.00
577.92	91.28
578.08	44.47
578.24	74.90
578.40	60.85
578.56	46.81
578.72	56.17
578.88	72.56
579.04	77.24
579.21	100.64
579.37	30.43
579.53	42.13
579.69	30.43
579.85	44.47
580.01	91.28
580.17	65.54
580.33	58.51
580.49	0.00
580.65	88.94
580.82	21.06
580.98	65.54
581.14	72.56
581.30	30.43
581.46	42.13
581.62	102.98
581.78	93.62
581.94	51.49
582.10	37.45
582.26	0.00
582.42	74.90
582.58	98.30
582.74	28.09
582.90	81.92
583.06	46.81
583.22	0.00
583.38	30.43
583.54	72.56
583.70	84.26
583.86	23.41
584.02	39.79
584.18	93.62
584.34	72.56
584.50	189.58
584.66	1151.54
584.82	2148.61
584.98	2548.84
585.14	2036.27
585.30	1341.13
585.46	894.08
585.62	650.67
585.78	168.52
585.94	105.32
586.10	81.92
586.26	100.64
586.42	63.19
586.58	77.24
586.74	28.09
586.90	77.24
587.06	21.06
587.22	124.05
587.38	86.60
587.54	56.17
587.70	126.39
587.86	231.71
588.02	266.82
588.18	131.07
588.34	88.94
588.49	93.62
588.65	37.45
588.81	49.15
588.97	44.47
589.13	28.09
589.29	11.70
589.45	0.00
589.61	16.38
589.77	16.38
589.93	84.26
590.08	74.90
590.24	39.79
590.40	58.51
590.56	39.79
590.72	44.47
590.88	42.13
591.04	53.83
591.20	49.15
591.35	42.13
591.51	39.79
591.67	86.60
591.83	37.45
591.99	51.49
592.15	28.09
592.31	23.41
592.46	67.88
592.62	16.38
592.78	0.00
592.94	0.00
593.10	18.72
593.26	95.96
593.41	4.68
593.57	9.36
593.73	4.68
593.89	212.99
594.05	315.97
594.20	360.44
594.36	280.86
594.52	212.99
594.68	198.95
594.84	88.94
594.99	42.13
595.15	67.88
595.31	14.04
595.47	11.70
595.62	53.83
595.78	35.11
595.94	37.45
596.10	32.77
596.25	67.88
596.41	32.77
596.57	0.00
596.73	79.58
596.88	9.36
597.04	166.18
597.20	112.35
597.36	77.24
597.51	86.60
597.67	138.09
597.83	79.58
597.99	28.09
598.14	30.43
598.30	70.22
598.46	58.51
598.61	11.70
598.77	60.85
598.93	7.02
599.09	0.00
599.24	30.43
599.40	88.94
599.56	35.11
599.71	18.72
599.87	16.38
600.03	156.82
600.18	93.62
600.34	0.00
600.50	35.11
600.65	51.49
600.81	49.15
600.97	100.64
601.12	53.83
601.28	2.34
601.44	39.79
601.59	65.54
601.75	16.38
601.91	18.72
602.06	49.15
602.22	21.06
602.37	102.98
602.53	93.62
602.69	100.64
602.84	74.90
603.00	60.85
603.16	98.30
603.31	67.88
603.47	88.94
603.62	53.83
603.78	14.04
603.94	32.77
604.09	21.06
604.25	86.60
604.40	37.45
604.56	2.34
604.71	0.00
604.87	0.00
605.03	0.00
605.18	32.77
605.34	28.09
605.49	39.79
605.65	18.72
605.80	56.17
605.96	0.00
606.12	39.79
606.27	0.00
606.43	16.38
606.58	9.36
606.74	21.06
606.89	194.26
607.05	294.91
607.20	337.04
607.36	259.80
607.51	208.31
607.67	152.13
607.82	117.03
607.98	142.77
608.13	56.17
608.29	58.51
608.44	23.41
608.60	60.85
608.75	77.24
608.91	117.03
609.06	280.86
609.22	376.83
609.37	479.81
609.53	500.87
609.68	297.25
609.84	255.12
609.99	161.50
610.15	114.69
610.30	79.58
610.46	77.24
610.61	114.69
610.76	37.45
610.92	67.88
611.07	60.85
611.23	72.56
611.38	67.88
611.54	0.00
611.69	32.77
611.84	18.72
612.00	25.75
612.15	30.43
612.31	74.90
612.46	0.00
612.62	56.17
612.77	56.17
612.92	39.79
613.08	98.30
613.23	74.90
613.39	77.24
613.54	88.94
613.69	248.10
613.85	634.29
614.00	767.70
614.15	772.38
614.31	519.60
614.46	367.46
614.62	301.93
614.77	170.86
614.92	84.26
615.08	102.98
615.23	77.24
615.38	98.30
615.54	32.77
615.69	18.72
615.84	163.84
616.00	196.60
616.15	184.90
616.30	154.48
616.46	138.09
616.61	180.22
616.76	56.17
616.92	39.79
617.07	35.11
617.22	126.39
617.37	60.85
617.53	21.06
617.68	0.00
617.83	46.81
617.99	51.49
618.14	28.09
618.29	63.19
618.45	32.77
618.60	42.13
618.75	0.00
618.90	39.79
619.06	0.00
619.21	60.85
619.36	42.13
619.51	23.41
619.67	39.79
619.82	110.01
619.97	107.66
620.12	67.88
620.28	16.38
620.43	98.30
620.58	67.88
620.73	16.38
620.89	23.41
621.04	74.90
621.19	163.84
621.34	93.62
621.49	191.92
621.65	95.96
621.80	107.66
621.95	35.11
622.10	114.69
622.25	16.38
622.41	25.75
622.56	95.96
622.71	105.32
622.86	100.64
623.01	28.09
623.16	39.79
623.32	25.75
623.47	42.13
623.62	81.92
623.77	28.09
623.92	46.81
624.07	32.77
624.23	105.32
624.38	18.72
624.53	35.11
624.68	23.41
624.83	63.19
624.98	0.00
625.13	72.56
625.29	23.41
625.44	0.00
625.59	23.41
625.74	86.60
625.89	72.56
626.04	84.26
626.19	297.25
626.34	418.96
626.49	407.25
626.65	315.97
626.80	245.76
626.95	138.09
627.10	142.77
627.25	32.77
627.40	28.09
627.55	37.45
627.70	25.75
627.85	0.00
628.00	11.70
628.15	74.90
628.30	4.68
628.45	28.09
628.60	23.41
628.76	23.41
628.91	72.56
629.06	72.56
629.21	37.45
629.36	44.47
629.51	49.15
629.66	28.09
629.81	46.81
629.96	93.62
630.11	81.92
630.26	128.73
630.41	107.66
630.56	88.94
630.71	91.28
630.86	60.85
631.01	37.45
631.16	79.58
631.31	102.98
631.46	63.19
631.61	2.34
631.76	39.79
631.91	11.70
632.06	63.19
632.21	0.00
632.36	39.79
632.51	44.47
632.66	0.00
632.81	70.22
632.96	245.76
633.10	313.63
633.25	332.36
633.40	259.80
633.55	215.33
633.70	93.62
633.85	135.75
634.00	60.85
634.15	46.81
634.30	42.13
634.45	2.34
634.60	0.00
634.75	23.41
634.90	18.72
635.05	74.90
635.19	32.77
635.34	58.51
635.49	49.15
635.64	23.41
635.79	51.49
635.94	11.70
636.09	44.47
636.24	2.34
636.39	0.00
636.53	0.00
636.68	77.24
636.83	28.09
636.98	39.79
637.13	37.45
637.28	124.05
637.43	0.00
637.57	117.03
637.72	107.66
637.87	393.21
638.02	507.90
638.17	526.62
638.32	339.38
638.46	220.01
638.61	184.90
638.76	81.92
638.91	173.20
639.06	67.88
639.20	37.45
639.35	2.34
639.50	124.05
639.65	217.67
639.80	596.84
639.94	753.65
640.09	828.55
640.24	573.43
640.39	411.93
640.54	285.55
640.68	201.29
640.83	180.22
640.98	93.62
641.13	100.64
641.27	70.22
641.42	35.11
641.57	56.17
641.72	63.19
641.86	74.90
642.01	135.75
642.16	46.81
642.31	0.00
642.45	14.04
642.60	67.88
642.75	70.22
642.90	35.11
643.04	32.77
643.19	74.90
643.34	32.77
643.48	37.45
643.63	0.00
643.78	60.85
643.93	28.09
644.07	0.00
644.22	51.49
644.37	11.70
644.51	37.45
644.66	25.75
644.81	86.60
644.95	23.41
645.10	23.41
645.25	0.00
645.39	0.00
645.54	4.68
645.69	30.43
645.83	21.06
645.98	2.34
646.13	21.06
646.27	0.00
646.42	35.11
646.57	37.45
646.71	2.34
646.86	72.56
647.00	88.94
647.15	32.77
647.30	35.11
647.44	9.36
647.59	0.00
647.74	7.02
647.88	16.38
648.03	74.90
648.17	39.79
648.32	0.00
648.47	9.36
648.61	21.06
648.76	35.11
648.90	60.85
649.05	58.51
649.20	49.15
649.34	25.75
649.49	28.09
649.63	60.85
649.78	70.22
649.92	0.00
650.07	131.07
650.21	243.42
650.36	388.53
650.51	435.34
650.65	320.65
650.80	278.52
650.94	168.52
651.09	100.64
651.23	107.66
651.38	51.49
651.52	21.06
651.67	35.11
651.81	42.13
651.96	0.00
652.10	72.56
652.25	53.83
652.39	51.49
652.54	81.92
652.68	11.70
652.83	152.13
652.97	147.45
653.12	133.41
653.26	117.03
653.41	128.73
653.55	102.98
653.70	145.11
653.84	93.62
653.99	0.00
654.13	74.90
654.27	25.75
654.42	32.77
654.56	30.43
654.71	86.60
654.85	0.00
655.00	0.00
655.14	58.51
655.29	28.09
655.43	0.00
655.57	37.45
655.72	11.70
655.86	67.88
656.01	25.75
656.15	53.83
656.30	98.30
656.44	37.45
656.58	0.00
656.73	16.38
656.87	42.13
657.01	95.96
657.16	0.00
657.30	49.15
657.45	44.47
657.59	0.00
657.73	35.11
657.88	81.92
658.02	65.54
658.16	49.15
658.31	23.41
658.45	14.04
658.60	65.54
658.74	35.11
658.88	128.73
659.03	100.64
659.17	74.90
659.31	110.01
659.46	88.94
659.60	198.95
659.74	189.58
659.89	177.88
660.03	147.45
660.17	140.43
660.32	110.01
660.46	56.17
660.60	21.06
660.74	102.98
660.89	56.17
661.03	7.02
661.17	0.00
661.32	23.41
661.46	14.04
661.60	0.00
661.74	9.36
661.89	0.00
662.03	0.00
662.17	30.43
662.31	98.30
662.46	67.88
662.60	44.47
662.74	9.36
662.88	0.00
663.03	0.00
663.17	35.11
663.31	0.00
663.45	16.38
663.60	56.17
663.74	30.43
663.88	35.11
664.02	65.54
664.17	86.60
664.31	65.54
664.45	65.54
664.59	42.13
664.73	4.68
664.88	0.00
665.02	18.72
665.16	51.49
665.30	18.72
665.44	63.19
665.59	0.00
665.73	63.19
665.87	63.19
666.01	91.28
666.15	11.70
666.29	56.17
666.44	77.24
666.58	79.58
666.72	53.83
666.86	7.02
667.00	58.51
667.14	9.36
667.28	114.69
667.43	252.78
667.57	299.59
667.71	395.55
667.85	390.87
667.99	250.44
668.13	177.88
668.27	51.49
668.41	49.15
668.56	32.77
668.70	51.49
668.84	81.92
668.98	79.58
669.12	42.13
669.26	102.98
669.40	112.35
669.54	56.17
669.68	21.06
669.82	126.39
669.96	9.36
670.10	60.85
670.25	53.83
670.39	70.22
670.53	0.00
670.67	0.00
670.81	72.56
670.95	21.06
671.09	81.92
671.23	140.43
671.37	201.29
671.51	154.48
671.65	229.37
671.79	182.56
671.93	126.39
672.07	110.01
672.21	65.54
672.35	44.47
672.49	32.77
672.63	18.72
672.77	86.60
672.91	0.00
673.05	9.36
673.19	0.00
673.33	72.56
673.47	58.51
673.61	70.22
673.75	0.00
673.89	23.41
674.03	4.68
674.17	0.00
674.31	0.00
674.45	60.85
674.59	39.79
674.73	44.47
674.87	0.00
675.01	0.00
675.15	49.15
675.29	49.15
675.43	25.75
675.56	18.72
675.70	37.45
675.84	0.00
675.98	35.11
676.12	114.69
676.26	16.38
676.40	63.19
676.54	60.85
676.68	63.19
676.82	14.04
676.96	98.30
677.10	0.00
677.23	0.00
677.37	53.83
677.51	2.34
677.65	35.11
677.79	11.70
677.93	7.02
678.07	37.45
678.21	0.00
678.34	58.51
678.48	11.70
678.62	65.54
678.76	74.90
678.90	0.00
679.04	42.13
679.18	0.00
679.31	25.75
679.45	0.00
679.59	18.72
679.73	16.38
679.87	0.00
680.00	0.00
680.14	18.72
680.28	0.00
680.42	58.51
680.56	39.79
680.70	81.92
680.83	0.00
680.97	0.00
681.11	14.04
681.25	65.54
681.39	49.15
681.52	23.41
681.66	7.02
681.80	37.45
681.94	67.88
682.07	46.81
682.21	46.81
682.35	9.36
682.49	44.47
682.62	86.60
682.76	88.94
682.90	44.47
683.04	0.00
683.17	63.19
683.31	0.00
683.45	23.41
683.59	16.38
683.72	60.85
683.86	0.00
684.00	23.41
684.13	2.34
684.27	0.00
684.41	53.83
684.55	16.38
684.68	63.19
684.82	51.49
684.96	21.06
685.09	84.26
685.23	21.06
685.37	0.00
685.50	0.00
685.64	14.04
685.78	18.72
685.91	65.54
686.05	56.17
686.19	67.88
686.32	65.54
686.46	128.73
686.60	0.00
686.73	95.96
686.87	49.15
687.01	77.24
687.14	9.36
687.28	28.09
687.42	84.26
687.55	81.92
687.69	67.88
687.82	42.13
687.96	86.60
688.10	14.04
688.23	28.09
688.37	4.68
688.50	44.47
688.64	30.43
688.78	23.41
688.91	79.58
689.05	16.38
689.18	51.49
689.32	105.32
689.46	84.26
689.59	0.00
689.73	58.51
689.86	46.81
690.00	0.00
690.13	53.83
690.27	58.51
690.41	105.32
690.54	70.22
690.68	23.41
690.81	37.45
690.95	0.00
691.08	9.36
691.22	72.56
691.35	0.00
691.49	0.00
691.62	18.72
691.76	53.83
691.89	91.28
692.03	49.15
692.16	32.77
692.30	30.43
692.43	60.85
692.57	58.51
692.70	128.73
692.84	147.45
692.97	180.22
693.11	77.24
693.24	86.60
693.38	131.07
693.51	49.15
693.65	84.26
693.78	84.26
693.92	46.81
694.05	65.54
694.19	0.00
694.32	88.94
694.45	77.24
694.59	0.00
694.72	0.00
694.86	30.43
694.99	67.88
695.13	0.00
695.26	0.00
695.39	77.24
695.53	35.11
695.66	21.06
695.80	88.94
695.93	0.00
696.07	79.58
696.20	65.54
696.33	39.79
696.47	131.07
696.60	42.13
696.73	30.43
696.87	79.58
697.00	42.13
697.14	60.85
697.27	2.34
697.40	86.60
697.54	2.34
697.67	28.09
697.80	49.15
697.94	46.81
698.07	37.45
698.21	37.45
698.34	0.00
698.47	42.13
698.61	30.43
698.74	58.51
698.87	2.34
699.01	28.09
699.14	67.88
699.27	56.17
699.40	37.45
699.54	53.83
699.67	0.00
699.80	93.62
699.94	56.17
700.07	51.49
700.20	39.79
700.34	39.79
700.47	0.00
700.60	0.00
700.73	44.47
700.87	7.02
701.00	0.00
701.13	60.85
701.26	60.85
701.40	25.75
701.53	53.83
701.66	39.79
701.79	28.09
701.93	53.83
702.06	46.81
702.19	91.28
702.32	18.72
702.46	16.38
702.59	70.22
702.72	51.49
702.85	170.86
702.99	217.67
703.12	257.46
703.25	320.65
703.38	278.52
703.51	229.37
703.65	208.31
703.78	114.69
703.91	119.37
704.04	70.22
704.17	9.36
704.31	7.02
704.44	35.11
704.57	25.75
704.70	23.41
704.83	0.00
704.96	72.56
705.10	0.00
705.23	18.72
>>>>>End Processed Spectral Data<<<<<
