SpectraSuite Data File
++++++++++++++++++++++++++++++++++++
Date: Fri Oct 04 12:13:31 GMT-05:00 2013
User: price-jones
Dark Spectrum Present: No
Reference Spectrum Present: No
Number of Sampled Component Spectra: 1
Spectrometers: USB2+H05261
Integration Time (usec): 10000 (USB2+H05261)
Spectra Averaged: 1 (USB2+H05261)
Boxcar Smoothing: 0 (USB2+H05261)
Correct for Electrical Dark: No (USB2+H05261)
Strobe/Lamp Enabled: No (USB2+H05261)
Correct for Detector Non-linearity: No (USB2+H05261)
Correct for Stray Light: No (USB2+H05261)
Number of Pixels in Processed Spectrum: 2048
>>>>>Begin Processed Spectral Data<<<<<
365.73	0.00
365.92	0.00
366.12	0.00
366.32	0.00
366.52	0.00
366.72	0.00
366.91	0.00
367.11	0.00
367.31	0.00
367.51	0.00
367.70	0.00
367.90	0.00
368.10	0.00
368.30	0.00
368.49	0.00
368.69	0.00
368.89	0.00
369.09	0.00
369.28	0.00
369.48	0.00
369.68	0.00
369.87	0.00
370.07	0.00
370.27	0.00
370.47	0.00
370.66	0.00
370.86	0.00
371.06	0.00
371.25	0.00
371.45	0.00
371.65	0.00
371.84	0.00
372.04	23.41
372.24	21.06
372.44	28.09
372.63	7.02
372.83	35.11
373.03	0.00
373.22	11.70
373.42	49.15
373.62	102.98
373.81	23.41
374.01	0.00
374.21	4.68
374.40	0.00
374.60	23.41
374.79	23.41
374.99	51.49
375.19	0.00
375.38	0.00
375.58	18.72
375.78	72.56
375.97	21.06
376.17	23.41
376.37	46.81
376.56	84.26
376.76	21.06
376.95	0.00
377.15	39.79
377.35	37.45
377.54	7.02
377.74	0.00
377.93	16.38
378.13	0.00
378.33	39.79
378.52	95.96
378.72	32.77
378.91	70.22
379.11	7.02
379.31	49.15
379.50	44.47
379.70	18.72
379.89	16.38
380.09	0.00
380.28	84.26
380.48	14.04
380.68	131.07
380.87	14.04
381.07	60.85
381.26	0.00
381.46	0.00
381.65	28.09
381.85	32.77
382.04	0.00
382.24	44.47
382.43	30.43
382.63	21.06
382.83	30.43
383.02	0.00
383.22	49.15
383.41	16.38
383.61	0.00
383.80	147.45
384.00	11.70
384.19	39.79
384.39	0.00
384.58	58.51
384.78	21.06
384.97	9.36
385.17	0.00
385.36	4.68
385.56	4.68
385.75	67.88
385.95	58.51
386.14	35.11
386.34	0.00
386.53	44.47
386.72	0.00
386.92	0.00
387.11	0.00
387.31	51.49
387.50	37.45
387.70	42.13
387.89	0.00
388.09	18.72
388.28	0.00
388.48	53.83
388.67	46.81
388.86	39.79
389.06	23.41
389.25	14.04
389.45	79.58
389.64	28.09
389.84	30.43
390.03	65.54
390.22	56.17
390.42	14.04
390.61	23.41
390.81	37.45
391.00	4.68
391.19	53.83
391.39	0.00
391.58	9.36
391.78	53.83
391.97	49.15
392.16	30.43
392.36	0.00
392.55	16.38
392.75	0.00
392.94	28.09
393.13	0.00
393.33	4.68
393.52	4.68
393.71	16.38
393.91	30.43
394.10	51.49
394.29	51.49
394.49	32.77
394.68	28.09
394.88	18.72
395.07	4.68
395.26	16.38
395.46	2.34
395.65	84.26
395.84	32.77
396.04	44.47
396.23	0.00
396.42	25.75
396.62	0.00
396.81	0.00
397.00	32.77
397.19	74.90
397.39	23.41
397.58	37.45
397.77	39.79
397.97	60.85
398.16	81.92
398.35	63.19
398.55	28.09
398.74	7.02
398.93	0.00
399.12	37.45
399.32	30.43
399.51	51.49
399.70	44.47
399.90	7.02
400.09	63.19
400.28	2.34
400.47	84.26
400.67	21.06
400.86	0.00
401.05	51.49
401.24	28.09
401.44	114.69
401.63	46.81
401.82	21.06
402.01	0.00
402.21	0.00
402.40	25.75
402.59	4.68
402.78	0.00
402.97	53.83
403.17	9.36
403.36	44.47
403.55	16.38
403.74	0.00
403.93	58.51
404.13	0.00
404.32	79.58
404.51	51.49
404.70	0.00
404.89	81.92
405.09	42.13
405.28	4.68
405.47	32.77
405.66	25.75
405.85	0.00
406.05	16.38
406.24	49.15
406.43	88.94
406.62	28.09
406.81	86.60
407.00	28.09
407.20	70.22
407.39	81.92
407.58	9.36
407.77	0.00
407.96	0.00
408.15	18.72
408.34	25.75
408.54	0.00
408.73	56.17
408.92	37.45
409.11	0.00
409.30	44.47
409.49	2.34
409.68	14.04
409.87	0.00
410.07	0.00
410.26	32.77
410.45	25.75
410.64	23.41
410.83	25.75
411.02	79.58
411.21	49.15
411.40	65.54
411.59	30.43
411.78	16.38
411.98	51.49
412.17	0.00
412.36	39.79
412.55	9.36
412.74	0.00
412.93	60.85
413.12	0.00
413.31	65.54
413.50	7.02
413.69	65.54
413.88	37.45
414.07	67.88
414.26	39.79
414.45	4.68
414.64	4.68
414.83	0.00
415.02	42.13
415.22	102.98
415.41	0.00
415.60	25.75
415.79	0.00
415.98	46.81
416.17	53.83
416.36	0.00
416.55	117.03
416.74	0.00
416.93	25.75
417.12	30.43
417.31	11.70
417.50	49.15
417.69	21.06
417.88	2.34
418.07	0.00
418.26	37.45
418.45	63.19
418.64	49.15
418.83	35.11
419.02	0.00
419.21	49.15
419.39	14.04
419.58	14.04
419.77	11.70
419.96	0.00
420.15	53.83
420.34	77.24
420.53	49.15
420.72	0.00
420.91	32.77
421.10	32.77
421.29	100.64
421.48	0.00
421.67	44.47
421.86	28.09
422.05	23.41
422.24	58.51
422.43	39.79
422.61	135.75
422.80	39.79
422.99	74.90
423.18	95.96
423.37	67.88
423.56	79.58
423.75	98.30
423.94	84.26
424.13	44.47
424.32	42.13
424.50	49.15
424.69	35.11
424.88	56.17
425.07	35.11
425.26	0.00
425.45	0.00
425.64	32.77
425.83	95.96
426.01	70.22
426.20	51.49
426.39	0.00
426.58	2.34
426.77	0.00
426.96	37.45
427.15	0.00
427.33	65.54
427.52	0.00
427.71	23.41
427.90	44.47
428.09	16.38
428.28	21.06
428.46	49.15
428.65	30.43
428.84	65.54
429.03	9.36
429.22	53.83
429.40	60.85
429.59	0.00
429.78	0.00
429.97	23.41
430.16	72.56
430.34	56.17
430.53	7.02
430.72	110.01
430.91	9.36
431.10	32.77
431.28	2.34
431.47	0.00
431.66	51.49
431.85	18.72
432.03	37.45
432.22	0.00
432.41	0.00
432.60	77.24
432.79	0.00
432.97	0.00
433.16	56.17
433.35	42.13
433.54	2.34
433.72	77.24
433.91	0.00
434.10	21.06
434.28	32.77
434.47	39.79
434.66	42.13
434.85	4.68
435.03	70.22
435.22	28.09
435.41	39.79
435.59	37.45
435.78	25.75
435.97	74.90
436.16	21.06
436.34	0.00
436.53	4.68
436.72	58.51
436.90	72.56
437.09	25.75
437.28	39.79
437.46	49.15
437.65	74.90
437.84	25.75
438.02	114.69
438.21	25.75
438.40	21.06
438.58	42.13
438.77	58.51
438.96	56.17
439.14	100.64
439.33	35.11
439.52	88.94
439.70	42.13
439.89	49.15
440.08	0.00
440.26	49.15
440.45	0.00
440.63	18.72
440.82	74.90
441.01	100.64
441.19	0.00
441.38	65.54
441.57	28.09
441.75	0.00
441.94	25.75
442.12	0.00
442.31	21.06
442.50	84.26
442.68	30.43
442.87	72.56
443.05	25.75
443.24	30.43
443.43	23.41
443.61	23.41
443.80	91.28
443.98	74.90
444.17	30.43
444.35	44.47
444.54	9.36
444.73	42.13
444.91	44.47
445.10	56.17
445.28	39.79
445.47	0.00
445.65	23.41
445.84	37.45
446.02	0.00
446.21	49.15
446.39	58.51
446.58	18.72
446.77	32.77
446.95	35.11
447.14	23.41
447.32	0.00
447.51	42.13
447.69	0.00
447.88	0.00
448.06	14.04
448.25	14.04
448.43	25.75
448.62	60.85
448.80	63.19
448.99	35.11
449.17	0.00
449.36	35.11
449.54	100.64
449.73	60.85
449.91	81.92
450.10	100.64
450.28	88.94
450.46	42.13
450.65	37.45
450.83	65.54
451.02	35.11
451.20	16.38
451.39	30.43
451.57	0.00
451.76	42.13
451.94	21.06
452.13	35.11
452.31	46.81
452.49	28.09
452.68	28.09
452.86	0.00
453.05	9.36
453.23	35.11
453.42	44.47
453.60	30.43
453.78	23.41
453.97	39.79
454.15	7.02
454.34	9.36
454.52	0.00
454.70	0.00
454.89	39.79
455.07	70.22
455.26	16.38
455.44	49.15
455.62	39.79
455.81	0.00
455.99	37.45
456.17	49.15
456.36	58.51
456.54	72.56
456.73	23.41
456.91	0.00
457.09	14.04
457.28	79.58
457.46	16.38
457.64	9.36
457.83	39.79
458.01	0.00
458.19	18.72
458.38	0.00
458.56	11.70
458.74	21.06
458.93	56.17
459.11	44.47
459.29	0.00
459.48	0.00
459.66	46.81
459.84	35.11
460.03	25.75
460.21	11.70
460.39	58.51
460.57	14.04
460.76	35.11
460.94	0.00
461.12	16.38
461.31	93.62
461.49	30.43
461.67	70.22
461.85	0.00
462.04	44.47
462.22	79.58
462.40	21.06
462.59	30.43
462.77	60.85
462.95	0.00
463.13	0.00
463.32	98.30
463.50	35.11
463.68	72.56
463.86	0.00
464.05	70.22
464.23	37.45
464.41	21.06
464.59	0.00
464.78	2.34
464.96	14.04
465.14	7.02
465.32	14.04
465.50	67.88
465.69	37.45
465.87	58.51
466.05	0.00
466.23	65.54
466.41	58.51
466.60	86.60
466.78	56.17
466.96	105.32
467.14	60.85
467.32	2.34
467.51	77.24
467.69	0.00
467.87	63.19
468.05	56.17
468.23	67.88
468.41	0.00
468.60	4.68
468.78	42.13
468.96	46.81
469.14	35.11
469.32	79.58
469.50	67.88
469.69	21.06
469.87	112.35
470.05	4.68
470.23	9.36
470.41	0.00
470.59	21.06
470.77	25.75
470.95	0.00
471.14	0.00
471.32	72.56
471.50	77.24
471.68	63.19
471.86	32.77
472.04	53.83
472.22	25.75
472.40	0.00
472.58	63.19
472.77	79.58
472.95	4.68
473.13	30.43
473.31	14.04
473.49	0.00
473.67	51.49
473.85	37.45
474.03	49.15
474.21	100.64
474.39	0.00
474.57	67.88
474.75	58.51
474.93	0.00
475.12	9.36
475.30	0.00
475.48	16.38
475.66	63.19
475.84	0.00
476.02	18.72
476.20	65.54
476.38	30.43
476.56	44.47
476.74	11.70
476.92	35.11
477.10	0.00
477.28	18.72
477.46	35.11
477.64	0.00
477.82	67.88
478.00	53.83
478.18	0.00
478.36	35.11
478.54	53.83
478.72	23.41
478.90	56.17
479.08	11.70
479.26	21.06
479.44	91.28
479.62	4.68
479.80	23.41
479.98	0.00
480.16	11.70
480.34	0.00
480.52	0.00
480.70	0.00
480.88	42.13
481.06	46.81
481.24	56.17
481.41	46.81
481.59	88.94
481.77	112.35
481.95	37.45
482.13	30.43
482.31	7.02
482.49	49.15
482.67	81.92
482.85	56.17
483.03	51.49
483.21	0.00
483.39	67.88
483.57	25.75
483.74	51.49
483.92	0.00
484.10	23.41
484.28	84.26
484.46	30.43
484.64	117.03
484.82	16.38
485.00	30.43
485.18	0.00
485.35	9.36
485.53	0.00
485.71	0.00
485.89	0.00
486.07	16.38
486.25	0.00
486.43	51.49
486.61	2.34
486.78	74.90
486.96	72.56
487.14	39.79
487.32	91.28
487.50	60.85
487.68	49.15
487.85	65.54
488.03	84.26
488.21	28.09
488.39	46.81
488.57	0.00
488.75	25.75
488.92	42.13
489.10	39.79
489.28	81.92
489.46	30.43
489.64	0.00
489.81	81.92
489.99	58.51
490.17	7.02
490.35	63.19
490.53	86.60
490.70	79.58
490.88	11.70
491.06	84.26
491.24	2.34
491.41	88.94
491.59	37.45
491.77	86.60
491.95	42.13
492.13	77.24
492.30	49.15
492.48	81.92
492.66	0.00
492.84	42.13
493.01	14.04
493.19	0.00
493.37	32.77
493.54	98.30
493.72	25.75
493.90	42.13
494.08	53.83
494.25	58.51
494.43	25.75
494.61	14.04
494.79	11.70
494.96	0.00
495.14	9.36
495.32	72.56
495.49	23.41
495.67	9.36
495.85	51.49
496.02	28.09
496.20	95.96
496.38	28.09
496.55	60.85
496.73	37.45
496.91	0.00
497.09	21.06
497.26	86.60
497.44	93.62
497.62	28.09
497.79	44.47
497.97	60.85
498.14	21.06
498.32	56.17
498.50	49.15
498.67	0.00
498.85	74.90
499.03	14.04
499.20	53.83
499.38	102.98
499.56	70.22
499.73	51.49
499.91	0.00
500.08	44.47
500.26	32.77
500.44	23.41
500.61	58.51
500.79	0.00
500.97	44.47
501.14	44.47
501.32	21.06
501.49	30.43
501.67	42.13
501.84	84.26
502.02	112.35
502.20	0.00
502.37	63.19
502.55	46.81
502.72	37.45
502.90	0.00
503.07	9.36
503.25	53.83
503.43	37.45
503.60	28.09
503.78	98.30
503.95	51.49
504.13	58.51
504.30	23.41
504.48	30.43
504.65	51.49
504.83	81.92
505.01	32.77
505.18	49.15
505.36	35.11
505.53	63.19
505.71	0.00
505.88	86.60
506.06	18.72
506.23	93.62
506.41	60.85
506.58	49.15
506.76	0.00
506.93	37.45
507.11	28.09
507.28	0.00
507.46	42.13
507.63	39.79
507.81	16.38
507.98	84.26
508.16	88.94
508.33	11.70
508.50	95.96
508.68	23.41
508.85	65.54
509.03	14.04
509.20	37.45
509.38	0.00
509.55	0.00
509.73	56.17
509.90	51.49
510.08	84.26
510.25	42.13
510.42	32.77
510.60	65.54
510.77	44.47
510.95	51.49
511.12	67.88
511.30	86.60
511.47	70.22
511.64	77.24
511.82	46.81
511.99	39.79
512.17	2.34
512.34	4.68
512.51	42.13
512.69	0.00
512.86	51.49
513.04	14.04
513.21	81.92
513.38	0.00
513.56	74.90
513.73	37.45
513.90	49.15
514.08	39.79
514.25	46.81
514.43	65.54
514.60	25.75
514.77	98.30
514.95	86.60
515.12	53.83
515.29	0.00
515.47	60.85
515.64	16.38
515.81	60.85
515.99	119.37
516.16	79.58
516.33	88.94
516.51	63.19
516.68	35.11
516.85	16.38
517.03	72.56
517.20	58.51
517.37	35.11
517.54	30.43
517.72	32.77
517.89	126.39
518.06	4.68
518.24	14.04
518.41	30.43
518.58	9.36
518.75	4.68
518.93	35.11
519.10	37.45
519.27	60.85
519.45	0.00
519.62	56.17
519.79	49.15
519.96	84.26
520.14	56.17
520.31	79.58
520.48	126.39
520.65	42.13
520.83	77.24
521.00	39.79
521.17	37.45
521.34	46.81
521.52	58.51
521.69	42.13
521.86	72.56
522.03	9.36
522.20	42.13
522.38	42.13
522.55	65.54
522.72	51.49
522.89	42.13
523.07	72.56
523.24	67.88
523.41	21.06
523.58	30.43
523.75	49.15
523.92	16.38
524.10	63.19
524.27	37.45
524.44	28.09
524.61	53.83
524.78	39.79
524.96	23.41
525.13	56.17
525.30	7.02
525.47	0.00
525.64	112.35
525.81	77.24
525.98	0.00
526.16	46.81
526.33	7.02
526.50	32.77
526.67	32.77
526.84	14.04
527.01	32.77
527.18	51.49
527.36	63.19
527.53	46.81
527.70	86.60
527.87	46.81
528.04	4.68
528.21	30.43
528.38	44.47
528.55	30.43
528.72	98.30
528.89	79.58
529.07	49.15
529.24	28.09
529.41	0.00
529.58	0.00
529.75	65.54
529.92	4.68
530.09	72.56
530.26	0.00
530.43	32.77
530.60	39.79
530.77	0.00
530.94	63.19
531.11	23.41
531.28	37.45
531.46	70.22
531.63	35.11
531.80	74.90
531.97	37.45
532.14	23.41
532.31	25.75
532.48	4.68
532.65	30.43
532.82	7.02
532.99	9.36
533.16	81.92
533.33	81.92
533.50	28.09
533.67	60.85
533.84	86.60
534.01	100.64
534.18	79.58
534.35	67.88
534.52	30.43
534.69	46.81
534.86	81.92
535.03	74.90
535.20	0.00
535.37	51.49
535.54	74.90
535.71	100.64
535.88	56.17
536.05	0.00
536.22	51.49
536.38	51.49
536.55	51.49
536.72	56.17
536.89	35.11
537.06	70.22
537.23	18.72
537.40	32.77
537.57	98.30
537.74	11.70
537.91	49.15
538.08	88.94
538.25	65.54
538.42	23.41
538.59	32.77
538.75	4.68
538.92	0.00
539.09	67.88
539.26	4.68
539.43	9.36
539.60	14.04
539.77	63.19
539.94	77.24
540.11	86.60
540.28	67.88
540.44	32.77
540.61	9.36
540.78	9.36
540.95	42.13
541.12	18.72
541.29	56.17
541.46	74.90
541.62	18.72
541.79	0.00
541.96	0.00
542.13	0.00
542.30	42.13
542.47	32.77
542.63	46.81
542.80	70.22
542.97	32.77
543.14	86.60
543.31	7.02
543.48	16.38
543.64	65.54
543.81	72.56
543.98	21.06
544.15	32.77
544.32	74.90
544.48	86.60
544.65	56.17
544.82	53.83
544.99	32.77
545.16	9.36
545.32	58.51
545.49	46.81
545.66	14.04
545.83	74.90
546.00	0.00
546.16	39.79
546.33	35.11
546.50	4.68
546.67	91.28
546.83	11.70
547.00	72.56
547.17	32.77
547.34	37.45
547.50	11.70
547.67	49.15
547.84	28.09
548.00	74.90
548.17	91.28
548.34	74.90
548.51	86.60
548.67	44.47
548.84	0.00
549.01	65.54
549.18	46.81
549.34	79.58
549.51	2.34
549.68	60.85
549.84	70.22
550.01	53.83
550.18	51.49
550.34	25.75
550.51	70.22
550.68	0.00
550.84	39.79
551.01	67.88
551.18	56.17
551.34	18.72
551.51	53.83
551.68	56.17
551.84	65.54
552.01	30.43
552.18	65.54
552.34	28.09
552.51	114.69
552.68	37.45
552.84	39.79
553.01	98.30
553.18	39.79
553.34	0.00
553.51	30.43
553.67	107.66
553.84	93.62
554.01	72.56
554.17	70.22
554.34	72.56
554.51	49.15
554.67	77.24
554.84	44.47
555.00	25.75
555.17	18.72
555.33	93.62
555.50	35.11
555.67	86.60
555.83	74.90
556.00	0.00
556.16	18.72
556.33	0.00
556.50	60.85
556.66	32.77
556.83	23.41
556.99	39.79
557.16	49.15
557.32	60.85
557.49	49.15
557.65	46.81
557.82	98.30
557.98	67.88
558.15	0.00
558.32	4.68
558.48	0.00
558.65	32.77
558.81	86.60
558.98	30.43
559.14	0.00
559.31	25.75
559.47	79.58
559.64	117.03
559.80	9.36
559.97	53.83
560.13	74.90
560.30	88.94
560.46	70.22
560.63	65.54
560.79	74.90
560.96	0.00
561.12	51.49
561.29	14.04
561.45	46.81
561.61	30.43
561.78	81.92
561.94	49.15
562.11	56.17
562.27	65.54
562.44	30.43
562.60	0.00
562.77	42.13
562.93	21.06
563.10	37.45
563.26	37.45
563.42	58.51
563.59	70.22
563.75	114.69
563.92	18.72
564.08	39.79
564.24	74.90
564.41	37.45
564.57	30.43
564.74	58.51
564.90	98.30
565.07	86.60
565.23	44.47
565.39	60.85
565.56	39.79
565.72	25.75
565.88	0.00
566.05	32.77
566.21	32.77
566.38	84.26
566.54	32.77
566.70	28.09
566.87	112.35
567.03	0.00
567.19	79.58
567.36	16.38
567.52	16.38
567.68	0.00
567.85	77.24
568.01	32.77
568.17	21.06
568.34	35.11
568.50	23.41
568.66	53.83
568.83	14.04
568.99	11.70
569.15	53.83
569.32	2.34
569.48	77.24
569.64	0.00
569.81	42.13
569.97	79.58
570.13	30.43
570.30	67.88
570.46	56.17
570.62	49.15
570.78	39.79
570.95	0.00
571.11	67.88
571.27	63.19
571.43	9.36
571.60	39.79
571.76	65.54
571.92	79.58
572.09	2.34
572.25	39.79
572.41	2.34
572.57	51.49
572.74	56.17
572.90	23.41
573.06	60.85
573.22	44.47
573.38	63.19
573.55	72.56
573.71	88.94
573.87	63.19
574.03	0.00
574.20	67.88
574.36	42.13
574.52	14.04
574.68	56.17
574.84	58.51
575.01	93.62
575.17	32.77
575.33	28.09
575.49	0.00
575.65	121.71
575.82	25.75
575.98	4.68
576.14	39.79
576.30	56.17
576.46	53.83
576.62	7.02
576.79	84.26
576.95	70.22
577.11	32.77
577.27	56.17
577.43	18.72
577.59	0.00
577.75	95.96
577.92	16.38
578.08	4.68
578.24	4.68
578.40	53.83
578.56	56.17
578.72	121.71
578.88	117.03
579.04	32.77
579.21	0.00
579.37	18.72
579.53	25.75
579.69	35.11
579.85	53.83
580.01	98.30
580.17	63.19
580.33	4.68
580.49	51.49
580.65	65.54
580.82	142.77
580.98	49.15
581.14	0.00
581.30	23.41
581.46	37.45
581.62	100.64
581.78	79.58
581.94	84.26
582.10	51.49
582.26	30.43
582.42	95.96
582.58	23.41
582.74	81.92
582.90	56.17
583.06	60.85
583.22	91.28
583.38	28.09
583.54	21.06
583.70	11.70
583.86	4.68
584.02	77.24
584.18	0.00
584.34	124.05
584.50	53.83
584.66	65.54
584.82	180.22
584.98	189.58
585.14	119.37
585.30	119.37
585.46	0.00
585.62	56.17
585.78	35.11
585.94	65.54
586.10	9.36
586.26	0.00
586.42	74.90
586.58	16.38
586.74	0.00
586.90	9.36
587.06	28.09
587.22	0.00
587.38	65.54
587.54	30.43
587.70	14.04
587.86	65.54
588.02	74.90
588.18	4.68
588.34	42.13
588.49	0.00
588.65	35.11
588.81	25.75
588.97	32.77
589.13	0.00
589.29	46.81
589.45	39.79
589.61	0.00
589.77	16.38
589.93	30.43
590.08	58.51
590.24	114.69
590.40	74.90
590.56	58.51
590.72	16.38
590.88	60.85
591.04	0.00
591.20	0.00
591.35	95.96
591.51	0.00
591.67	102.98
591.83	28.09
591.99	25.75
592.15	30.43
592.31	16.38
592.46	23.41
592.62	0.00
592.78	42.13
592.94	0.00
593.10	0.00
593.26	0.00
593.41	166.18
593.57	91.28
593.73	39.79
593.89	42.13
594.05	128.73
594.20	11.70
594.36	110.01
594.52	67.88
594.68	79.58
594.84	21.06
594.99	70.22
595.15	14.04
595.31	51.49
595.47	86.60
595.62	65.54
595.78	77.24
595.94	81.92
596.10	70.22
596.25	14.04
596.41	63.19
596.57	23.41
596.73	53.83
596.88	0.00
597.04	0.00
597.20	21.06
597.36	0.00
597.51	30.43
597.67	72.56
597.83	60.85
597.99	72.56
598.14	18.72
598.30	93.62
598.46	35.11
598.61	53.83
598.77	0.00
598.93	46.81
599.09	74.90
599.24	93.62
599.40	110.01
599.56	70.22
599.71	0.00
599.87	112.35
600.03	51.49
600.18	0.00
600.34	77.24
600.50	60.85
600.65	7.02
600.81	49.15
600.97	4.68
601.12	28.09
601.28	30.43
601.44	0.00
601.59	35.11
601.75	60.85
601.91	58.51
602.06	42.13
602.22	56.17
602.37	30.43
602.53	0.00
602.69	95.96
602.84	67.88
603.00	112.35
603.16	105.32
603.31	72.56
603.47	18.72
603.62	0.00
603.78	100.64
603.94	0.00
604.09	79.58
604.25	51.49
604.40	11.70
604.56	67.88
604.71	30.43
604.87	11.70
605.03	37.45
605.18	0.00
605.34	58.51
605.49	16.38
605.65	0.00
605.80	0.00
605.96	32.77
606.12	39.79
606.27	88.94
606.43	35.11
606.58	79.58
606.74	14.04
606.89	25.75
607.05	18.72
607.20	53.83
607.36	105.32
607.51	0.00
607.67	30.43
607.82	11.70
607.98	88.94
608.13	91.28
608.29	0.00
608.44	11.70
608.60	0.00
608.75	39.79
608.91	16.38
609.06	39.79
609.22	0.00
609.37	98.30
609.53	30.43
609.68	65.54
609.84	70.22
609.99	42.13
610.15	51.49
610.30	46.81
610.46	39.79
610.61	67.88
610.76	67.88
610.92	65.54
611.07	56.17
611.23	28.09
611.38	37.45
611.54	107.66
611.69	23.41
611.84	91.28
612.00	46.81
612.15	23.41
612.31	37.45
612.46	2.34
612.62	28.09
612.77	91.28
612.92	0.00
613.08	16.38
613.23	72.56
613.39	67.88
613.54	42.13
613.69	72.56
613.85	30.43
614.00	65.54
614.15	112.35
614.31	121.71
614.46	42.13
614.62	63.19
614.77	67.88
614.92	60.85
615.08	9.36
615.23	124.05
615.38	28.09
615.54	11.70
615.69	46.81
615.84	14.04
616.00	60.85
616.15	72.56
616.30	67.88
616.46	35.11
616.61	35.11
616.76	0.00
616.92	4.68
617.07	25.75
617.22	81.92
617.37	65.54
617.53	11.70
617.68	0.00
617.83	4.68
617.99	0.00
618.14	60.85
618.29	16.38
618.45	0.00
618.60	0.00
618.75	107.66
618.90	18.72
619.06	56.17
619.21	0.00
619.36	72.56
619.51	0.00
619.67	74.90
619.82	93.62
619.97	72.56
620.12	60.85
620.28	0.00
620.43	25.75
620.58	28.09
620.73	46.81
620.89	72.56
621.04	0.00
621.19	30.43
621.34	21.06
621.49	11.70
621.65	91.28
621.80	39.79
621.95	0.00
622.10	74.90
622.25	0.00
622.41	37.45
622.56	46.81
622.71	88.94
622.86	65.54
623.01	4.68
623.16	53.83
623.32	51.49
623.47	0.00
623.62	0.00
623.77	79.58
623.92	51.49
624.07	79.58
624.23	25.75
624.38	21.06
624.53	9.36
624.68	56.17
624.83	37.45
624.98	56.17
625.13	18.72
625.29	9.36
625.44	56.17
625.59	18.72
625.74	49.15
625.89	32.77
626.04	23.41
626.19	37.45
626.34	100.64
626.49	79.58
626.65	84.26
626.80	65.54
626.95	11.70
627.10	11.70
627.25	70.22
627.40	42.13
627.55	126.39
627.70	86.60
627.85	39.79
628.00	28.09
628.15	91.28
628.30	0.00
628.45	88.94
628.60	46.81
628.76	28.09
628.91	0.00
629.06	44.47
629.21	0.00
629.36	30.43
629.51	46.81
629.66	0.00
629.81	25.75
629.96	32.77
630.11	77.24
630.26	72.56
630.41	67.88
630.56	0.00
630.71	35.11
630.86	121.71
631.01	84.26
631.16	0.00
631.31	37.45
631.46	110.01
631.61	49.15
631.76	100.64
631.91	56.17
632.06	56.17
632.21	32.77
632.36	9.36
632.51	0.00
632.66	0.00
632.81	21.06
632.96	112.35
633.10	49.15
633.25	72.56
633.40	32.77
633.55	28.09
633.70	35.11
633.85	0.00
634.00	0.00
634.15	35.11
634.30	25.75
634.45	46.81
634.60	28.09
634.75	0.00
634.90	79.58
635.05	53.83
635.19	0.00
635.34	46.81
635.49	0.00
635.64	53.83
635.79	18.72
635.94	35.11
636.09	39.79
636.24	32.77
636.39	9.36
636.53	18.72
636.68	28.09
636.83	44.47
636.98	56.17
637.13	60.85
637.28	44.47
637.43	51.49
637.57	60.85
637.72	16.38
637.87	14.04
638.02	79.58
638.17	133.41
638.32	28.09
638.46	51.49
638.61	93.62
638.76	67.88
638.91	16.38
639.06	79.58
639.20	67.88
639.35	18.72
639.50	11.70
639.65	32.77
639.80	44.47
639.94	102.98
640.09	110.01
640.24	49.15
640.39	98.30
640.54	9.36
640.68	16.38
640.83	46.81
640.98	0.00
641.13	114.69
641.27	2.34
641.42	16.38
641.57	107.66
641.72	84.26
641.86	42.13
642.01	0.00
642.16	16.38
642.31	25.75
642.45	0.00
642.60	51.49
642.75	53.83
642.90	23.41
643.04	9.36
643.19	0.00
643.34	70.22
643.48	11.70
643.63	0.00
643.78	32.77
643.93	21.06
644.07	0.00
644.22	102.98
644.37	63.19
644.51	4.68
644.66	37.45
644.81	16.38
644.95	65.54
645.10	16.38
645.25	0.00
645.39	49.15
645.54	30.43
645.69	37.45
645.83	25.75
645.98	49.15
646.13	0.00
646.27	9.36
646.42	25.75
646.57	0.00
646.71	44.47
646.86	58.51
647.00	44.47
647.15	67.88
647.30	11.70
647.44	25.75
647.59	86.60
647.74	0.00
647.88	0.00
648.03	16.38
648.17	60.85
648.32	58.51
648.47	0.00
648.61	0.00
648.76	74.90
648.90	35.11
649.05	18.72
649.20	49.15
649.34	25.75
649.49	23.41
649.63	51.49
649.78	65.54
649.92	46.81
650.07	124.05
650.21	23.41
650.36	44.47
650.51	53.83
650.65	14.04
650.80	93.62
650.94	88.94
651.09	91.28
651.23	39.79
651.38	28.09
651.52	79.58
651.67	37.45
651.81	23.41
651.96	88.94
652.10	67.88
652.25	32.77
652.39	18.72
652.54	0.00
652.68	60.85
652.83	100.64
652.97	58.51
653.12	46.81
653.26	0.00
653.41	0.00
653.55	60.85
653.70	11.70
653.84	39.79
653.99	0.00
654.13	0.00
654.27	56.17
654.42	79.58
654.56	58.51
654.71	91.28
654.85	105.32
655.00	42.13
655.14	0.00
655.29	51.49
655.43	2.34
655.57	42.13
655.72	39.79
655.86	32.77
656.01	0.00
656.15	0.00
656.30	93.62
656.44	0.00
656.58	0.00
656.73	56.17
656.87	63.19
657.01	70.22
657.16	39.79
657.30	42.13
657.45	58.51
657.59	53.83
657.73	18.72
657.88	37.45
658.02	84.26
658.16	0.00
658.31	35.11
658.45	2.34
658.60	30.43
658.74	60.85
658.88	58.51
659.03	30.43
659.17	44.47
659.31	0.00
659.46	63.19
659.60	63.19
659.74	0.00
659.89	30.43
660.03	7.02
660.17	74.90
660.32	42.13
660.46	0.00
660.60	63.19
660.74	28.09
660.89	65.54
661.03	16.38
661.17	23.41
661.32	0.00
661.46	84.26
661.60	86.60
661.74	84.26
661.89	39.79
662.03	14.04
662.17	42.13
662.31	44.47
662.46	37.45
662.60	49.15
662.74	9.36
662.88	51.49
663.03	56.17
663.17	79.58
663.31	58.51
663.45	44.47
663.60	0.00
663.74	98.30
663.88	63.19
664.02	25.75
664.17	117.03
664.31	4.68
664.45	32.77
664.59	0.00
664.73	88.94
664.88	56.17
665.02	56.17
665.16	2.34
665.30	93.62
665.44	0.00
665.59	0.00
665.73	25.75
665.87	70.22
666.01	18.72
666.15	0.00
666.29	0.00
666.44	56.17
666.58	21.06
666.72	65.54
666.86	28.09
667.00	65.54
667.14	44.47
667.28	32.77
667.43	35.11
667.57	98.30
667.71	74.90
667.85	63.19
667.99	81.92
668.13	81.92
668.27	0.00
668.41	53.83
668.56	42.13
668.70	117.03
668.84	14.04
668.98	32.77
669.12	74.90
669.26	0.00
669.40	9.36
669.54	128.73
669.68	42.13
669.82	37.45
669.96	63.19
670.10	65.54
670.25	79.58
670.39	0.00
670.53	23.41
670.67	32.77
670.81	70.22
670.95	32.77
671.09	11.70
671.23	2.34
671.37	138.09
671.51	107.66
671.65	67.88
671.79	100.64
671.93	23.41
672.07	0.00
672.21	138.09
672.35	74.90
672.49	58.51
672.63	14.04
672.77	51.49
672.91	88.94
673.05	32.77
673.19	56.17
673.33	35.11
673.47	25.75
673.61	11.70
673.75	23.41
673.89	25.75
674.03	46.81
674.17	7.02
674.31	37.45
674.45	63.19
674.59	74.90
674.73	51.49
674.87	44.47
675.01	0.00
675.15	49.15
675.29	25.75
675.43	39.79
675.56	0.00
675.70	72.56
675.84	53.83
675.98	42.13
676.12	51.49
676.26	4.68
676.40	0.00
676.54	67.88
676.68	0.00
676.82	0.00
676.96	86.60
677.10	23.41
677.23	14.04
677.37	32.77
677.51	30.43
677.65	81.92
677.79	32.77
677.93	11.70
678.07	0.00
678.21	0.00
678.34	14.04
678.48	0.00
678.62	4.68
678.76	4.68
678.90	0.00
679.04	60.85
679.18	102.98
679.31	23.41
679.45	32.77
679.59	42.13
679.73	67.88
679.87	93.62
680.00	60.85
680.14	18.72
680.28	0.00
680.42	84.26
680.56	28.09
680.70	37.45
680.83	39.79
680.97	102.98
681.11	88.94
681.25	0.00
681.39	0.00
681.52	18.72
681.66	56.17
681.80	39.79
681.94	100.64
682.07	0.00
682.21	21.06
682.35	0.00
682.49	0.00
682.62	58.51
682.76	98.30
682.90	77.24
683.04	107.66
683.17	23.41
683.31	0.00
683.45	37.45
683.59	7.02
683.72	70.22
683.86	32.77
684.00	51.49
684.13	30.43
684.27	88.94
684.41	98.30
684.55	51.49
684.68	44.47
684.82	28.09
684.96	23.41
685.09	11.70
685.23	0.00
685.37	0.00
685.50	58.51
685.64	49.15
685.78	98.30
685.91	9.36
686.05	7.02
686.19	32.77
686.32	63.19
686.46	23.41
686.60	9.36
686.73	9.36
686.87	53.83
687.01	28.09
687.14	117.03
687.28	0.00
687.42	44.47
687.55	49.15
687.69	72.56
687.82	25.75
687.96	93.62
688.10	44.47
688.23	37.45
688.37	9.36
688.50	4.68
688.64	0.00
688.78	53.83
688.91	7.02
689.05	0.00
689.18	56.17
689.32	63.19
689.46	4.68
689.59	32.77
689.73	0.00
689.86	81.92
690.00	79.58
690.13	0.00
690.27	74.90
690.41	0.00
690.54	25.75
690.68	0.00
690.81	9.36
690.95	28.09
691.08	72.56
691.22	100.64
691.35	44.47
691.49	51.49
691.62	9.36
691.76	4.68
691.89	37.45
692.03	84.26
692.16	53.83
692.30	53.83
692.43	0.00
692.57	72.56
692.70	0.00
692.84	88.94
692.97	16.38
693.11	28.09
693.24	70.22
693.38	74.90
693.51	100.64
693.65	46.81
693.78	21.06
693.92	70.22
694.05	28.09
694.19	0.00
694.32	25.75
694.45	44.47
694.59	11.70
694.72	107.66
694.86	81.92
694.99	84.26
695.13	0.00
695.26	93.62
695.39	0.00
695.53	53.83
695.66	44.47
695.80	0.00
695.93	4.68
696.07	42.13
696.20	35.11
696.33	0.00
696.47	0.00
696.60	0.00
696.73	16.38
696.87	58.51
697.00	28.09
697.14	32.77
697.27	23.41
697.40	98.30
697.54	84.26
697.67	49.15
697.80	42.13
697.94	100.64
698.07	37.45
698.21	32.77
698.34	44.47
698.47	16.38
698.61	72.56
698.74	32.77
698.87	35.11
699.01	28.09
699.14	0.00
699.27	25.75
699.40	37.45
699.54	14.04
699.67	0.00
699.80	51.49
699.94	84.26
700.07	35.11
700.20	18.72
700.34	18.72
700.47	56.17
700.60	16.38
700.73	4.68
700.87	110.01
701.00	16.38
701.13	21.06
701.26	53.83
701.40	0.00
701.53	81.92
701.66	7.02
701.79	58.51
701.93	37.45
702.06	56.17
702.19	0.00
702.32	16.38
702.46	46.81
702.59	0.00
702.72	0.00
702.85	0.00
702.99	88.94
703.12	11.70
703.25	11.70
703.38	53.83
703.51	84.26
703.65	16.38
703.78	0.00
703.91	9.36
704.04	14.04
704.17	0.00
704.31	0.00
704.44	56.17
704.57	60.85
704.70	11.70
704.83	128.73
704.96	0.00
705.10	9.36
705.23	25.75
>>>>>End Processed Spectral Data<<<<<
