SpectraSuite Data File
++++++++++++++++++++++++++++++++++++
Date: Fri Oct 04 12:13:40 GMT-05:00 2013
User: price-jones
Dark Spectrum Present: No
Reference Spectrum Present: No
Number of Sampled Component Spectra: 1
Spectrometers: USB2+H05261
Integration Time (usec): 10000 (USB2+H05261)
Spectra Averaged: 1 (USB2+H05261)
Boxcar Smoothing: 0 (USB2+H05261)
Correct for Electrical Dark: No (USB2+H05261)
Strobe/Lamp Enabled: No (USB2+H05261)
Correct for Detector Non-linearity: No (USB2+H05261)
Correct for Stray Light: No (USB2+H05261)
Number of Pixels in Processed Spectrum: 2048
>>>>>Begin Processed Spectral Data<<<<<
365.73	0.00
365.92	0.00
366.12	0.00
366.32	0.00
366.52	0.00
366.72	0.00
366.91	0.00
367.11	0.00
367.31	0.00
367.51	0.00
367.70	0.00
367.90	0.00
368.10	0.00
368.30	0.00
368.49	0.00
368.69	0.00
368.89	0.00
369.09	0.00
369.28	0.00
369.48	0.00
369.68	0.00
369.87	0.00
370.07	0.00
370.27	0.00
370.47	0.00
370.66	0.00
370.86	0.00
371.06	0.00
371.25	0.00
371.45	0.00
371.65	0.00
371.84	0.00
372.04	0.00
372.24	0.00
372.44	0.00
372.63	0.00
372.83	72.56
373.03	35.11
373.22	0.00
373.42	25.75
373.62	51.49
373.81	46.81
374.01	0.00
374.21	0.00
374.40	0.00
374.60	95.96
374.79	18.72
374.99	28.09
375.19	0.00
375.38	25.75
375.58	39.79
375.78	23.41
375.97	0.00
376.17	56.17
376.37	0.00
376.56	28.09
376.76	0.00
376.95	30.43
377.15	67.88
377.35	32.77
377.54	88.94
377.74	53.83
377.93	105.32
378.13	14.04
378.33	11.70
378.52	58.51
378.72	28.09
378.91	25.75
379.11	18.72
379.31	16.38
379.50	25.75
379.70	56.17
379.89	46.81
380.09	30.43
380.28	0.00
380.48	0.00
380.68	102.98
380.87	21.06
381.07	4.68
381.26	32.77
381.46	56.17
381.65	11.70
381.85	0.00
382.04	42.13
382.24	25.75
382.43	67.88
382.63	51.49
382.83	60.85
383.02	0.00
383.22	0.00
383.41	0.00
383.61	35.11
383.80	0.00
384.00	9.36
384.19	4.68
384.39	49.15
384.58	0.00
384.78	9.36
384.97	4.68
385.17	60.85
385.36	21.06
385.56	0.00
385.75	25.75
385.95	9.36
386.14	74.90
386.34	18.72
386.53	2.34
386.72	16.38
386.92	37.45
387.11	35.11
387.31	44.47
387.50	14.04
387.70	0.00
387.89	0.00
388.09	0.00
388.28	0.00
388.48	0.00
388.67	39.79
388.86	65.54
389.06	0.00
389.25	42.13
389.45	56.17
389.64	0.00
389.84	37.45
390.03	0.00
390.22	0.00
390.42	0.00
390.61	28.09
390.81	0.00
391.00	4.68
391.19	74.90
391.39	67.88
391.58	0.00
391.78	56.17
391.97	0.00
392.16	0.00
392.36	0.00
392.55	46.81
392.75	14.04
392.94	28.09
393.13	42.13
393.33	37.45
393.52	42.13
393.71	25.75
393.91	4.68
394.10	88.94
394.29	11.70
394.49	65.54
394.68	18.72
394.88	98.30
395.07	25.75
395.26	7.02
395.46	9.36
395.65	21.06
395.84	30.43
396.04	110.01
396.23	58.51
396.42	49.15
396.62	67.88
396.81	0.00
397.00	2.34
397.19	51.49
397.39	0.00
397.58	16.38
397.77	56.17
397.97	0.00
398.16	35.11
398.35	0.00
398.55	14.04
398.74	28.09
398.93	81.92
399.12	25.75
399.32	58.51
399.51	63.19
399.70	49.15
399.90	0.00
400.09	0.00
400.28	30.43
400.47	53.83
400.67	86.60
400.86	0.00
401.05	0.00
401.24	58.51
401.44	35.11
401.63	2.34
401.82	25.75
402.01	58.51
402.21	18.72
402.40	56.17
402.59	18.72
402.78	112.35
402.97	81.92
403.17	14.04
403.36	42.13
403.55	2.34
403.74	63.19
403.93	35.11
404.13	23.41
404.32	0.00
404.51	14.04
404.70	28.09
404.89	0.00
405.09	46.81
405.28	84.26
405.47	23.41
405.66	53.83
405.85	25.75
406.05	0.00
406.24	35.11
406.43	4.68
406.62	42.13
406.81	0.00
407.00	0.00
407.20	25.75
407.39	0.00
407.58	0.00
407.77	53.83
407.96	0.00
408.15	0.00
408.34	72.56
408.54	67.88
408.73	32.77
408.92	37.45
409.11	42.13
409.30	56.17
409.49	65.54
409.68	86.60
409.87	58.51
410.07	0.00
410.26	0.00
410.45	0.00
410.64	7.02
410.83	32.77
411.02	4.68
411.21	0.00
411.40	32.77
411.59	60.85
411.78	0.00
411.98	0.00
412.17	0.00
412.36	81.92
412.55	0.00
412.74	30.43
412.93	42.13
413.12	21.06
413.31	46.81
413.50	9.36
413.69	46.81
413.88	21.06
414.07	79.58
414.26	72.56
414.45	63.19
414.64	49.15
414.83	18.72
415.02	0.00
415.22	49.15
415.41	105.32
415.60	0.00
415.79	67.88
415.98	0.00
416.17	51.49
416.36	32.77
416.55	49.15
416.74	35.11
416.93	35.11
417.12	23.41
417.31	9.36
417.50	0.00
417.69	7.02
417.88	18.72
418.07	28.09
418.26	32.77
418.45	23.41
418.64	63.19
418.83	11.70
419.02	7.02
419.21	0.00
419.39	0.00
419.58	0.00
419.77	39.79
419.96	65.54
420.15	18.72
420.34	60.85
420.53	93.62
420.72	67.88
420.91	28.09
421.10	0.00
421.29	21.06
421.48	30.43
421.67	93.62
421.86	93.62
422.05	51.49
422.24	53.83
422.43	46.81
422.61	159.16
422.80	46.81
422.99	32.77
423.18	102.98
423.37	0.00
423.56	79.58
423.75	67.88
423.94	95.96
424.13	145.11
424.32	84.26
424.50	91.28
424.69	51.49
424.88	93.62
425.07	37.45
425.26	14.04
425.45	42.13
425.64	81.92
425.83	67.88
426.01	56.17
426.20	49.15
426.39	0.00
426.58	25.75
426.77	44.47
426.96	65.54
427.15	114.69
427.33	23.41
427.52	74.90
427.71	72.56
427.90	46.81
428.09	138.09
428.28	0.00
428.46	0.00
428.65	0.00
428.84	49.15
429.03	42.13
429.22	21.06
429.40	65.54
429.59	9.36
429.78	0.00
429.97	0.00
430.16	0.00
430.34	51.49
430.53	65.54
430.72	30.43
430.91	0.00
431.10	32.77
431.28	14.04
431.47	49.15
431.66	100.64
431.85	32.77
432.03	65.54
432.22	84.26
432.41	102.98
432.60	23.41
432.79	0.00
432.97	44.47
433.16	60.85
433.35	56.17
433.54	23.41
433.72	42.13
433.91	37.45
434.10	32.77
434.28	74.90
434.47	86.60
434.66	84.26
434.85	28.09
435.03	46.81
435.22	39.79
435.41	14.04
435.59	56.17
435.78	74.90
435.97	39.79
436.16	56.17
436.34	70.22
436.53	65.54
436.72	37.45
436.90	37.45
437.09	67.88
437.28	58.51
437.46	0.00
437.65	0.00
437.84	67.88
438.02	93.62
438.21	49.15
438.40	32.77
438.58	58.51
438.77	0.00
438.96	11.70
439.14	32.77
439.33	2.34
439.52	0.00
439.70	110.01
439.89	23.41
440.08	39.79
440.26	0.00
440.45	0.00
440.63	0.00
440.82	58.51
441.01	124.05
441.19	46.81
441.38	86.60
441.57	39.79
441.75	32.77
441.94	25.75
442.12	93.62
442.31	56.17
442.50	60.85
442.68	44.47
442.87	23.41
443.05	117.03
443.24	51.49
443.43	70.22
443.61	53.83
443.80	37.45
443.98	67.88
444.17	18.72
444.35	91.28
444.54	110.01
444.73	67.88
444.91	86.60
445.10	11.70
445.28	0.00
445.47	53.83
445.65	21.06
445.84	46.81
446.02	51.49
446.21	58.51
446.39	98.30
446.58	100.64
446.77	11.70
446.95	9.36
447.14	39.79
447.32	4.68
447.51	18.72
447.69	81.92
447.88	18.72
448.06	124.05
448.25	58.51
448.43	35.11
448.62	2.34
448.80	67.88
448.99	39.79
449.17	81.92
449.36	58.51
449.54	32.77
449.73	51.49
449.91	0.00
450.10	77.24
450.28	42.13
450.46	91.28
450.65	21.06
450.83	70.22
451.02	84.26
451.20	86.60
451.39	70.22
451.57	42.13
451.76	74.90
451.94	95.96
452.13	63.19
452.31	81.92
452.49	58.51
452.68	2.34
452.86	35.11
453.05	35.11
453.23	49.15
453.42	0.00
453.60	32.77
453.78	0.00
453.97	11.70
454.15	46.81
454.34	25.75
454.52	81.92
454.70	88.94
454.89	0.00
455.07	49.15
455.26	0.00
455.44	44.47
455.62	28.09
455.81	4.68
455.99	58.51
456.17	16.38
456.36	67.88
456.54	60.85
456.73	65.54
456.91	102.98
457.09	102.98
457.28	107.66
457.46	105.32
457.64	42.13
457.83	25.75
458.01	28.09
458.19	28.09
458.38	79.58
458.56	95.96
458.74	49.15
458.93	72.56
459.11	53.83
459.29	84.26
459.48	42.13
459.66	117.03
459.84	9.36
460.03	37.45
460.21	77.24
460.39	49.15
460.57	98.30
460.76	86.60
460.94	39.79
461.12	81.92
461.31	102.98
461.49	60.85
461.67	16.38
461.85	0.00
462.04	0.00
462.22	126.39
462.40	84.26
462.59	35.11
462.77	105.32
462.95	0.00
463.13	44.47
463.32	32.77
463.50	0.00
463.68	2.34
463.86	65.54
464.05	21.06
464.23	39.79
464.41	149.79
464.59	42.13
464.78	95.96
464.96	86.60
465.14	93.62
465.32	63.19
465.50	42.13
465.69	30.43
465.87	44.47
466.05	56.17
466.23	72.56
466.41	70.22
466.60	70.22
466.78	74.90
466.96	86.60
467.14	58.51
467.32	16.38
467.51	77.24
467.69	9.36
467.87	11.70
468.05	128.73
468.23	93.62
468.41	67.88
468.60	58.51
468.78	53.83
468.96	30.43
469.14	67.88
469.32	79.58
469.50	46.81
469.69	81.92
469.87	49.15
470.05	135.75
470.23	65.54
470.41	30.43
470.59	74.90
470.77	58.51
470.95	58.51
471.14	14.04
471.32	14.04
471.50	63.19
471.68	18.72
471.86	65.54
472.04	110.01
472.22	58.51
472.40	0.00
472.58	35.11
472.77	60.85
472.95	72.56
473.13	32.77
473.31	77.24
473.49	18.72
473.67	49.15
473.85	74.90
474.03	74.90
474.21	56.17
474.39	77.24
474.57	65.54
474.75	46.81
474.93	42.13
475.12	100.64
475.30	0.00
475.48	107.66
475.66	126.39
475.84	25.75
476.02	58.51
476.20	49.15
476.38	114.69
476.56	42.13
476.74	79.58
476.92	60.85
477.10	142.77
477.28	100.64
477.46	11.70
477.64	74.90
477.82	98.30
478.00	56.17
478.18	56.17
478.36	149.79
478.54	39.79
478.72	9.36
478.90	30.43
479.08	51.49
479.26	105.32
479.44	88.94
479.62	9.36
479.80	56.17
479.98	28.09
480.16	32.77
480.34	70.22
480.52	98.30
480.70	63.19
480.88	53.83
481.06	11.70
481.24	58.51
481.41	39.79
481.59	49.15
481.77	30.43
481.95	14.04
482.13	74.90
482.31	138.09
482.49	46.81
482.67	25.75
482.85	23.41
483.03	72.56
483.21	77.24
483.39	25.75
483.57	77.24
483.74	32.77
483.92	53.83
484.10	79.58
484.28	44.47
484.46	44.47
484.64	14.04
484.82	74.90
485.00	49.15
485.18	58.51
485.35	63.19
485.53	39.79
485.71	32.77
485.89	37.45
486.07	0.00
486.25	0.00
486.43	119.37
486.61	102.98
486.78	95.96
486.96	60.85
487.14	58.51
487.32	25.75
487.50	65.54
487.68	32.77
487.85	30.43
488.03	91.28
488.21	65.54
488.39	67.88
488.57	88.94
488.75	18.72
488.92	91.28
489.10	84.26
489.28	102.98
489.46	95.96
489.64	100.64
489.81	88.94
489.99	30.43
490.17	79.58
490.35	91.28
490.53	67.88
490.70	86.60
490.88	72.56
491.06	74.90
491.24	7.02
491.41	173.20
491.59	23.41
491.77	149.79
491.95	30.43
492.13	112.35
492.30	25.75
492.48	100.64
492.66	77.24
492.84	77.24
493.01	93.62
493.19	121.71
493.37	72.56
493.54	86.60
493.72	49.15
493.90	84.26
494.08	63.19
494.25	77.24
494.43	86.60
494.61	91.28
494.79	28.09
494.96	63.19
495.14	84.26
495.32	30.43
495.49	102.98
495.67	35.11
495.85	100.64
496.02	70.22
496.20	60.85
496.38	100.64
496.55	30.43
496.73	51.49
496.91	42.13
497.09	72.56
497.26	37.45
497.44	117.03
497.62	58.51
497.79	67.88
497.97	105.32
498.14	91.28
498.32	53.83
498.50	65.54
498.67	42.13
498.85	102.98
499.03	72.56
499.20	126.39
499.38	161.50
499.56	30.43
499.73	28.09
499.91	110.01
500.08	77.24
500.26	0.00
500.44	91.28
500.61	32.77
500.79	131.07
500.97	49.15
501.14	53.83
501.32	100.64
501.49	86.60
501.67	102.98
501.84	98.30
502.02	42.13
502.20	58.51
502.37	58.51
502.55	25.75
502.72	112.35
502.90	147.45
503.07	70.22
503.25	30.43
503.43	105.32
503.60	77.24
503.78	63.19
503.95	95.96
504.13	95.96
504.30	95.96
504.48	142.77
504.65	86.60
504.83	102.98
505.01	86.60
505.18	170.86
505.36	77.24
505.53	2.34
505.71	142.77
505.88	128.73
506.06	140.43
506.23	65.54
506.41	102.98
506.58	102.98
506.76	58.51
506.93	117.03
507.11	37.45
507.28	112.35
507.46	102.98
507.63	117.03
507.81	107.66
507.98	32.77
508.16	140.43
508.33	86.60
508.50	95.96
508.68	49.15
508.85	65.54
509.03	74.90
509.20	112.35
509.38	100.64
509.55	0.00
509.73	42.13
509.90	110.01
510.08	23.41
510.25	16.38
510.42	79.58
510.60	110.01
510.77	105.32
510.95	63.19
511.12	95.96
511.30	95.96
511.47	44.47
511.64	60.85
511.82	138.09
511.99	88.94
512.17	91.28
512.34	86.60
512.51	119.37
512.69	42.13
512.86	110.01
513.04	114.69
513.21	102.98
513.38	79.58
513.56	119.37
513.73	49.15
513.90	110.01
514.08	117.03
514.25	42.13
514.43	70.22
514.60	65.54
514.77	105.32
514.95	65.54
515.12	65.54
515.29	79.58
515.47	86.60
515.64	23.41
515.81	37.45
515.99	126.39
516.16	133.41
516.33	77.24
516.51	42.13
516.68	30.43
516.85	79.58
517.03	67.88
517.20	88.94
517.37	121.71
517.54	81.92
517.72	74.90
517.89	110.01
518.06	46.81
518.24	114.69
518.41	112.35
518.58	100.64
518.75	70.22
518.93	74.90
519.10	77.24
519.27	147.45
519.45	98.30
519.62	105.32
519.79	184.90
519.96	163.84
520.14	152.13
520.31	32.77
520.48	77.24
520.65	21.06
520.83	35.11
521.00	28.09
521.17	117.03
521.34	49.15
521.52	135.75
521.69	98.30
521.86	79.58
522.03	117.03
522.20	93.62
522.38	112.35
522.55	81.92
522.72	63.19
522.89	42.13
523.07	42.13
523.24	107.66
523.41	77.24
523.58	88.94
523.75	149.79
523.92	95.96
524.10	107.66
524.27	46.81
524.44	88.94
524.61	105.32
524.78	28.09
524.96	23.41
525.13	107.66
525.30	44.47
525.47	107.66
525.64	105.32
525.81	23.41
525.98	56.17
526.16	86.60
526.33	102.98
526.50	147.45
526.67	21.06
526.84	58.51
527.01	119.37
527.18	112.35
527.36	86.60
527.53	124.05
527.70	107.66
527.87	79.58
528.04	119.37
528.21	156.82
528.38	53.83
528.55	77.24
528.72	86.60
528.89	49.15
529.07	35.11
529.24	117.03
529.41	112.35
529.58	79.58
529.75	93.62
529.92	44.47
530.09	53.83
530.26	114.69
530.43	100.64
530.60	107.66
530.77	65.54
530.94	23.41
531.11	86.60
531.28	102.98
531.46	88.94
531.63	35.11
531.80	114.69
531.97	93.62
532.14	39.79
532.31	63.19
532.48	152.13
532.65	86.60
532.82	0.00
532.99	100.64
533.16	49.15
533.33	110.01
533.50	49.15
533.67	77.24
533.84	95.96
534.01	63.19
534.18	53.83
534.35	37.45
534.52	37.45
534.69	84.26
534.86	42.13
535.03	72.56
535.20	39.79
535.37	133.41
535.54	126.39
535.71	117.03
535.88	79.58
536.05	107.66
536.22	93.62
536.38	51.49
536.55	81.92
536.72	86.60
536.89	51.49
537.06	32.77
537.23	140.43
537.40	95.96
537.57	86.60
537.74	131.07
537.91	86.60
538.08	25.75
538.25	79.58
538.42	35.11
538.59	147.45
538.75	107.66
538.92	110.01
539.09	77.24
539.26	79.58
539.43	72.56
539.60	30.43
539.77	44.47
539.94	65.54
540.11	53.83
540.28	63.19
540.44	2.34
540.61	102.98
540.78	110.01
540.95	114.69
541.12	63.19
541.29	110.01
541.46	133.41
541.62	128.73
541.79	67.88
541.96	37.45
542.13	0.00
542.30	65.54
542.47	88.94
542.63	58.51
542.80	110.01
542.97	105.32
543.14	81.92
543.31	79.58
543.48	37.45
543.64	46.81
543.81	88.94
543.98	145.11
544.15	65.54
544.32	93.62
544.48	84.26
544.65	102.98
544.82	49.15
544.99	154.48
545.16	35.11
545.32	98.30
545.49	98.30
545.66	117.03
545.83	9.36
546.00	65.54
546.16	147.45
546.33	70.22
546.50	58.51
546.67	91.28
546.83	126.39
547.00	102.98
547.17	102.98
547.34	84.26
547.50	86.60
547.67	142.77
547.84	77.24
548.00	119.37
548.17	77.24
548.34	56.17
548.51	114.69
548.67	81.92
548.84	30.43
549.01	84.26
549.18	105.32
549.34	53.83
549.51	51.49
549.68	102.98
549.84	72.56
550.01	86.60
550.18	102.98
550.34	95.96
550.51	93.62
550.68	128.73
550.84	53.83
551.01	98.30
551.18	37.45
551.34	98.30
551.51	63.19
551.68	79.58
551.84	51.49
552.01	30.43
552.18	131.07
552.34	42.13
552.51	102.98
552.68	138.09
552.84	72.56
553.01	93.62
553.18	79.58
553.34	35.11
553.51	72.56
553.67	112.35
553.84	63.19
554.01	95.96
554.17	100.64
554.34	7.02
554.51	81.92
554.67	95.96
554.84	86.60
555.00	152.13
555.17	145.11
555.33	93.62
555.50	107.66
555.67	95.96
555.83	39.79
556.00	128.73
556.16	149.79
556.33	98.30
556.50	124.05
556.66	154.48
556.83	63.19
556.99	93.62
557.16	60.85
557.32	56.17
557.49	51.49
557.65	74.90
557.82	128.73
557.98	51.49
558.15	56.17
558.32	91.28
558.48	159.16
558.65	74.90
558.81	37.45
558.98	25.75
559.14	81.92
559.31	84.26
559.47	46.81
559.64	18.72
559.80	95.96
559.97	53.83
560.13	72.56
560.30	121.71
560.46	119.37
560.63	60.85
560.79	72.56
560.96	119.37
561.12	79.58
561.29	166.18
561.45	0.00
561.61	95.96
561.78	126.39
561.94	117.03
562.11	79.58
562.27	14.04
562.44	23.41
562.60	100.64
562.77	128.73
562.93	86.60
563.10	51.49
563.26	56.17
563.42	98.30
563.59	119.37
563.75	67.88
563.92	126.39
564.08	149.79
564.24	102.98
564.41	86.60
564.57	30.43
564.74	84.26
564.90	0.00
565.07	105.32
565.23	131.07
565.39	142.77
565.56	37.45
565.72	86.60
565.88	63.19
566.05	25.75
566.21	100.64
566.38	9.36
566.54	88.94
566.70	7.02
566.87	86.60
567.03	67.88
567.19	117.03
567.36	2.34
567.52	86.60
567.68	39.79
567.85	28.09
568.01	67.88
568.17	67.88
568.34	58.51
568.50	42.13
568.66	35.11
568.83	105.32
568.99	18.72
569.15	112.35
569.32	30.43
569.48	128.73
569.64	98.30
569.81	46.81
569.97	77.24
570.13	51.49
570.30	51.49
570.46	9.36
570.62	105.32
570.78	32.77
570.95	56.17
571.11	126.39
571.27	42.13
571.43	100.64
571.60	0.00
571.76	84.26
571.92	105.32
572.09	44.47
572.25	77.24
572.41	98.30
572.57	51.49
572.74	16.38
572.90	67.88
573.06	81.92
573.22	91.28
573.38	124.05
573.55	138.09
573.71	65.54
573.87	95.96
574.03	9.36
574.20	124.05
574.36	117.03
574.52	114.69
574.68	70.22
574.84	51.49
575.01	74.90
575.17	49.15
575.33	86.60
575.49	81.92
575.65	117.03
575.82	133.41
575.98	35.11
576.14	72.56
576.30	4.68
576.46	63.19
576.62	156.82
576.79	21.06
576.95	53.83
577.11	60.85
577.27	81.92
577.43	100.64
577.59	2.34
577.75	39.79
577.92	135.75
578.08	70.22
578.24	2.34
578.40	86.60
578.56	0.00
578.72	67.88
578.88	2.34
579.04	51.49
579.21	114.69
579.37	65.54
579.53	91.28
579.69	114.69
579.85	32.77
580.01	140.43
580.17	79.58
580.33	100.64
580.49	53.83
580.65	145.11
580.82	107.66
580.98	9.36
581.14	25.75
581.30	88.94
581.46	58.51
581.62	126.39
581.78	77.24
581.94	107.66
582.10	16.38
582.26	105.32
582.42	105.32
582.58	35.11
582.74	112.35
582.90	112.35
583.06	128.73
583.22	72.56
583.38	63.19
583.54	100.64
583.70	44.47
583.86	147.45
584.02	84.26
584.18	67.88
584.34	88.94
584.50	63.19
584.66	30.43
584.82	21.06
584.98	9.36
585.14	110.01
585.30	105.32
585.46	2.34
585.62	46.81
585.78	32.77
585.94	25.75
586.10	70.22
586.26	145.11
586.42	72.56
586.58	117.03
586.74	51.49
586.90	110.01
587.06	79.58
587.22	35.11
587.38	154.48
587.54	140.43
587.70	63.19
587.86	77.24
588.02	93.62
588.18	121.71
588.34	77.24
588.49	7.02
588.65	56.17
588.81	28.09
588.97	60.85
589.13	77.24
589.29	81.92
589.45	39.79
589.61	79.58
589.77	65.54
589.93	63.19
590.08	58.51
590.24	0.00
590.40	74.90
590.56	65.54
590.72	93.62
590.88	46.81
591.04	9.36
591.20	51.49
591.35	53.83
591.51	42.13
591.67	79.58
591.83	2.34
591.99	23.41
592.15	60.85
592.31	117.03
592.46	63.19
592.62	39.79
592.78	72.56
592.94	49.15
593.10	7.02
593.26	21.06
593.41	0.00
593.57	86.60
593.73	84.26
593.89	0.00
594.05	0.00
594.20	28.09
594.36	51.49
594.52	46.81
594.68	30.43
594.84	60.85
594.99	93.62
595.15	70.22
595.31	107.66
595.47	84.26
595.62	107.66
595.78	49.15
595.94	35.11
596.10	70.22
596.25	114.69
596.41	93.62
596.57	79.58
596.73	114.69
596.88	16.38
597.04	72.56
597.20	0.00
597.36	16.38
597.51	74.90
597.67	0.00
597.83	65.54
597.99	102.98
598.14	131.07
598.30	91.28
598.46	32.77
598.61	49.15
598.77	14.04
598.93	100.64
599.09	81.92
599.24	74.90
599.40	77.24
599.56	11.70
599.71	79.58
599.87	56.17
600.03	93.62
600.18	56.17
600.34	32.77
600.50	117.03
600.65	0.00
600.81	77.24
600.97	4.68
601.12	81.92
601.28	161.50
601.44	60.85
601.59	119.37
601.75	63.19
601.91	105.32
602.06	84.26
602.22	56.17
602.37	100.64
602.53	51.49
602.69	56.17
602.84	124.05
603.00	25.75
603.16	72.56
603.31	44.47
603.47	74.90
603.62	53.83
603.78	63.19
603.94	95.96
604.09	56.17
604.25	23.41
604.40	18.72
604.56	74.90
604.71	32.77
604.87	65.54
605.03	58.51
605.18	107.66
605.34	84.26
605.49	100.64
605.65	56.17
605.80	100.64
605.96	0.00
606.12	105.32
606.27	30.43
606.43	70.22
606.58	159.16
606.74	35.11
606.89	79.58
607.05	128.73
607.20	60.85
607.36	30.43
607.51	156.82
607.67	46.81
607.82	16.38
607.98	30.43
608.13	63.19
608.29	72.56
608.44	114.69
608.60	81.92
608.75	23.41
608.91	46.81
609.06	21.06
609.22	110.01
609.37	9.36
609.53	56.17
609.68	107.66
609.84	16.38
609.99	35.11
610.15	23.41
610.30	18.72
610.46	0.00
610.61	100.64
610.76	93.62
610.92	7.02
611.07	53.83
611.23	95.96
611.38	88.94
611.54	102.98
611.69	53.83
611.84	107.66
612.00	93.62
612.15	142.77
612.31	32.77
612.46	100.64
612.62	32.77
612.77	65.54
612.92	70.22
613.08	79.58
613.23	86.60
613.39	128.73
613.54	86.60
613.69	135.75
613.85	114.69
614.00	72.56
614.15	126.39
614.31	79.58
614.46	70.22
614.62	65.54
614.77	100.64
614.92	56.17
615.08	65.54
615.23	65.54
615.38	49.15
615.54	91.28
615.69	81.92
615.84	11.70
616.00	86.60
616.15	93.62
616.30	2.34
616.46	44.47
616.61	39.79
616.76	93.62
616.92	84.26
617.07	39.79
617.22	30.43
617.37	102.98
617.53	105.32
617.68	107.66
617.83	0.00
617.99	21.06
618.14	60.85
618.29	86.60
618.45	37.45
618.60	35.11
618.75	107.66
618.90	88.94
619.06	39.79
619.21	0.00
619.36	46.81
619.51	65.54
619.67	49.15
619.82	95.96
619.97	70.22
620.12	53.83
620.28	42.13
620.43	77.24
620.58	53.83
620.73	28.09
620.89	131.07
621.04	112.35
621.19	138.09
621.34	74.90
621.49	0.00
621.65	16.38
621.80	30.43
621.95	79.58
622.10	93.62
622.25	98.30
622.41	65.54
622.56	42.13
622.71	100.64
622.86	133.41
623.01	117.03
623.16	21.06
623.32	60.85
623.47	46.81
623.62	135.75
623.77	49.15
623.92	60.85
624.07	105.32
624.23	93.62
624.38	77.24
624.53	194.26
624.68	79.58
624.83	67.88
624.98	95.96
625.13	58.51
625.29	51.49
625.44	25.75
625.59	63.19
625.74	49.15
625.89	2.34
626.04	79.58
626.19	25.75
626.34	39.79
626.49	81.92
626.65	37.45
626.80	49.15
626.95	39.79
627.10	0.00
627.25	95.96
627.40	0.00
627.55	98.30
627.70	60.85
627.85	63.19
628.00	63.19
628.15	84.26
628.30	0.00
628.45	35.11
628.60	65.54
628.76	77.24
628.91	93.62
629.06	37.45
629.21	46.81
629.36	35.11
629.51	25.75
629.66	98.30
629.81	79.58
629.96	32.77
630.11	37.45
630.26	51.49
630.41	140.43
630.56	95.96
630.71	105.32
630.86	21.06
631.01	42.13
631.16	56.17
631.31	72.56
631.46	42.13
631.61	60.85
631.76	145.11
631.91	23.41
632.06	67.88
632.21	30.43
632.36	84.26
632.51	72.56
632.66	79.58
632.81	72.56
632.96	84.26
633.10	72.56
633.25	25.75
633.40	149.79
633.55	100.64
633.70	105.32
633.85	42.13
634.00	60.85
634.15	0.00
634.30	49.15
634.45	149.79
634.60	51.49
634.75	65.54
634.90	51.49
635.05	154.48
635.19	23.41
635.34	46.81
635.49	42.13
635.64	58.51
635.79	0.00
635.94	35.11
636.09	42.13
636.24	25.75
636.39	63.19
636.53	14.04
636.68	53.83
636.83	37.45
636.98	42.13
637.13	9.36
637.28	7.02
637.43	114.69
637.57	70.22
637.72	74.90
637.87	58.51
638.02	91.28
638.17	74.90
638.32	107.66
638.46	42.13
638.61	21.06
638.76	58.51
638.91	11.70
639.06	30.43
639.20	42.13
639.35	86.60
639.50	77.24
639.65	93.62
639.80	67.88
639.94	11.70
640.09	0.00
640.24	46.81
640.39	107.66
640.54	28.09
640.68	74.90
640.83	88.94
640.98	42.13
641.13	81.92
641.27	77.24
641.42	2.34
641.57	72.56
641.72	42.13
641.86	93.62
642.01	14.04
642.16	18.72
642.31	11.70
642.45	131.07
642.60	30.43
642.75	35.11
642.90	2.34
643.04	95.96
643.19	74.90
643.34	4.68
643.48	18.72
643.63	21.06
643.78	95.96
643.93	86.60
644.07	51.49
644.22	35.11
644.37	95.96
644.51	0.00
644.66	49.15
644.81	7.02
644.95	0.00
645.10	93.62
645.25	44.47
645.39	35.11
645.54	32.77
645.69	23.41
645.83	58.51
645.98	46.81
646.13	14.04
646.27	49.15
646.42	63.19
646.57	42.13
646.71	9.36
646.86	81.92
647.00	0.00
647.15	0.00
647.30	53.83
647.44	88.94
647.59	44.47
647.74	32.77
647.88	16.38
648.03	56.17
648.17	145.11
648.32	88.94
648.47	23.41
648.61	42.13
648.76	0.00
648.90	88.94
649.05	18.72
649.20	65.54
649.34	0.00
649.49	16.38
649.63	9.36
649.78	32.77
649.92	42.13
650.07	44.47
650.21	49.15
650.36	37.45
650.51	70.22
650.65	4.68
650.80	46.81
650.94	67.88
651.09	53.83
651.23	56.17
651.38	28.09
651.52	39.79
651.67	32.77
651.81	11.70
651.96	63.19
652.10	11.70
652.25	56.17
652.39	65.54
652.54	65.54
652.68	28.09
652.83	23.41
652.97	42.13
653.12	67.88
653.26	81.92
653.41	67.88
653.55	18.72
653.70	65.54
653.84	44.47
653.99	72.56
654.13	65.54
654.27	28.09
654.42	25.75
654.56	32.77
654.71	32.77
654.85	30.43
655.00	46.81
655.14	7.02
655.29	74.90
655.43	154.48
655.57	98.30
655.72	28.09
655.86	56.17
656.01	98.30
656.15	81.92
656.30	51.49
656.44	18.72
656.58	91.28
656.73	16.38
656.87	49.15
657.01	0.00
657.16	4.68
657.30	9.36
657.45	98.30
657.59	135.75
657.73	95.96
657.88	60.85
658.02	46.81
658.16	37.45
658.31	49.15
658.45	93.62
658.60	46.81
658.74	70.22
658.88	35.11
659.03	72.56
659.17	98.30
659.31	28.09
659.46	53.83
659.60	67.88
659.74	46.81
659.89	72.56
660.03	7.02
660.17	100.64
660.32	91.28
660.46	53.83
660.60	88.94
660.74	9.36
660.89	39.79
661.03	42.13
661.17	60.85
661.32	56.17
661.46	51.49
661.60	0.00
661.74	93.62
661.89	93.62
662.03	25.75
662.17	42.13
662.31	63.19
662.46	53.83
662.60	77.24
662.74	128.73
662.88	4.68
663.03	37.45
663.17	0.00
663.31	84.26
663.45	58.51
663.60	25.75
663.74	93.62
663.88	25.75
664.02	18.72
664.17	81.92
664.31	49.15
664.45	51.49
664.59	70.22
664.73	37.45
664.88	21.06
665.02	53.83
665.16	0.00
665.30	46.81
665.44	14.04
665.59	35.11
665.73	42.13
665.87	100.64
666.01	100.64
666.15	49.15
666.29	63.19
666.44	107.66
666.58	0.00
666.72	23.41
666.86	46.81
667.00	65.54
667.14	4.68
667.28	110.01
667.43	23.41
667.57	70.22
667.71	93.62
667.85	65.54
667.99	72.56
668.13	42.13
668.27	74.90
668.41	84.26
668.56	63.19
668.70	0.00
668.84	58.51
668.98	51.49
669.12	21.06
669.26	44.47
669.40	142.77
669.54	74.90
669.68	79.58
669.82	56.17
669.96	35.11
670.10	18.72
670.25	56.17
670.39	67.88
670.53	102.98
670.67	102.98
670.81	74.90
670.95	35.11
671.09	86.60
671.23	2.34
671.37	51.49
671.51	126.39
671.65	42.13
671.79	159.16
671.93	23.41
672.07	84.26
672.21	84.26
672.35	16.38
672.49	81.92
672.63	93.62
672.77	0.00
672.91	77.24
673.05	74.90
673.19	70.22
673.33	46.81
673.47	93.62
673.61	67.88
673.75	7.02
673.89	37.45
674.03	0.00
674.17	56.17
674.31	42.13
674.45	0.00
674.59	39.79
674.73	63.19
674.87	67.88
675.01	14.04
675.15	23.41
675.29	42.13
675.43	32.77
675.56	74.90
675.70	28.09
675.84	51.49
675.98	53.83
676.12	0.00
676.26	77.24
676.40	67.88
676.54	0.00
676.68	16.38
676.82	0.00
676.96	2.34
677.10	23.41
677.23	0.00
677.37	18.72
677.51	9.36
677.65	74.90
677.79	0.00
677.93	18.72
678.07	65.54
678.21	39.79
678.34	4.68
678.48	14.04
678.62	93.62
678.76	42.13
678.90	0.00
679.04	42.13
679.18	84.26
679.31	30.43
679.45	67.88
679.59	53.83
679.73	86.60
679.87	0.00
680.00	37.45
680.14	0.00
680.28	32.77
680.42	95.96
680.56	30.43
680.70	63.19
680.83	0.00
680.97	44.47
681.11	37.45
681.25	16.38
681.39	44.47
681.52	14.04
681.66	23.41
681.80	56.17
681.94	107.66
682.07	63.19
682.21	14.04
682.35	7.02
682.49	0.00
682.62	46.81
682.76	28.09
682.90	0.00
683.04	35.11
683.17	86.60
683.31	46.81
683.45	56.17
683.59	28.09
683.72	28.09
683.86	30.43
684.00	9.36
684.13	46.81
684.27	39.79
684.41	95.96
684.55	86.60
684.68	42.13
684.82	53.83
684.96	84.26
685.09	32.77
685.23	63.19
685.37	56.17
685.50	121.71
685.64	25.75
685.78	37.45
685.91	91.28
686.05	4.68
686.19	84.26
686.32	44.47
686.46	9.36
686.60	0.00
686.73	0.00
686.87	0.00
687.01	51.49
687.14	16.38
687.28	21.06
687.42	93.62
687.55	0.00
687.69	39.79
687.82	0.00
687.96	56.17
688.10	28.09
688.23	53.83
688.37	58.51
688.50	0.00
688.64	65.54
688.78	58.51
688.91	0.00
689.05	81.92
689.18	81.92
689.32	39.79
689.46	23.41
689.59	56.17
689.73	37.45
689.86	58.51
690.00	11.70
690.13	0.00
690.27	53.83
690.41	58.51
690.54	11.70
690.68	16.38
690.81	25.75
690.95	60.85
691.08	25.75
691.22	42.13
691.35	133.41
691.49	4.68
691.62	44.47
691.76	81.92
691.89	58.51
692.03	32.77
692.16	81.92
692.30	0.00
692.43	0.00
692.57	25.75
692.70	18.72
692.84	0.00
692.97	18.72
693.11	49.15
693.24	11.70
693.38	56.17
693.51	91.28
693.65	93.62
693.78	39.79
693.92	51.49
694.05	9.36
694.19	0.00
694.32	0.00
694.45	46.81
694.59	42.13
694.72	4.68
694.86	126.39
694.99	42.13
695.13	16.38
695.26	0.00
695.39	44.47
695.53	51.49
695.66	110.01
695.80	86.60
695.93	100.64
696.07	67.88
696.20	53.83
696.33	37.45
696.47	0.00
696.60	79.58
696.73	46.81
696.87	42.13
697.00	79.58
697.14	51.49
697.27	65.54
697.40	110.01
697.54	30.43
697.67	77.24
697.80	98.30
697.94	30.43
698.07	86.60
698.21	2.34
698.34	18.72
698.47	21.06
698.61	39.79
698.74	44.47
698.87	35.11
699.01	39.79
699.14	81.92
699.27	0.00
699.40	0.00
699.54	0.00
699.67	35.11
699.80	79.58
699.94	18.72
700.07	0.00
700.20	0.00
700.34	14.04
700.47	58.51
700.60	4.68
700.73	63.19
700.87	60.85
701.00	37.45
701.13	72.56
701.26	0.00
701.40	0.00
701.53	46.81
701.66	74.90
701.79	21.06
701.93	9.36
702.06	77.24
702.19	51.49
702.32	105.32
702.46	0.00
702.59	21.06
702.72	79.58
702.85	77.24
702.99	16.38
703.12	79.58
703.25	46.81
703.38	72.56
703.51	74.90
703.65	0.00
703.78	84.26
703.91	14.04
704.04	44.47
704.17	49.15
704.31	4.68
704.44	67.88
704.57	98.30
704.70	18.72
704.83	0.00
704.96	30.43
705.10	88.94
705.23	46.81
>>>>>End Processed Spectral Data<<<<<
