SpectraSuite Data File
++++++++++++++++++++++++++++++++++++
Date: Fri Oct 04 12:13:30 GMT-05:00 2013
User: price-jones
Dark Spectrum Present: No
Reference Spectrum Present: No
Number of Sampled Component Spectra: 1
Spectrometers: USB2+H05261
Integration Time (usec): 10000 (USB2+H05261)
Spectra Averaged: 1 (USB2+H05261)
Boxcar Smoothing: 0 (USB2+H05261)
Correct for Electrical Dark: No (USB2+H05261)
Strobe/Lamp Enabled: No (USB2+H05261)
Correct for Detector Non-linearity: No (USB2+H05261)
Correct for Stray Light: No (USB2+H05261)
Number of Pixels in Processed Spectrum: 2048
>>>>>Begin Processed Spectral Data<<<<<
365.73	0.00
365.92	0.00
366.12	0.00
366.32	0.00
366.52	0.00
366.72	0.00
366.91	0.00
367.11	0.00
367.31	0.00
367.51	0.00
367.70	0.00
367.90	0.00
368.10	0.00
368.30	0.00
368.49	0.00
368.69	0.00
368.89	0.00
369.09	0.00
369.28	0.00
369.48	0.00
369.68	0.00
369.87	0.00
370.07	0.00
370.27	0.00
370.47	0.00
370.66	0.00
370.86	0.00
371.06	23.41
371.25	0.00
371.45	0.00
371.65	14.04
371.84	0.00
372.04	0.00
372.24	0.00
372.44	9.36
372.63	0.00
372.83	21.06
373.03	65.54
373.22	9.36
373.42	18.72
373.62	56.17
373.81	42.13
374.01	18.72
374.21	0.00
374.40	18.72
374.60	49.15
374.79	65.54
374.99	67.88
375.19	4.68
375.38	39.79
375.58	4.68
375.78	49.15
375.97	105.32
376.17	60.85
376.37	0.00
376.56	32.77
376.76	0.00
376.95	18.72
377.15	0.00
377.35	28.09
377.54	51.49
377.74	16.38
377.93	0.00
378.13	0.00
378.33	25.75
378.52	49.15
378.72	91.28
378.91	35.11
379.11	4.68
379.31	74.90
379.50	28.09
379.70	0.00
379.89	53.83
380.09	0.00
380.28	46.81
380.48	0.00
380.68	14.04
380.87	46.81
381.07	2.34
381.26	16.38
381.46	0.00
381.65	16.38
381.85	37.45
382.04	0.00
382.24	37.45
382.43	74.90
382.63	2.34
382.83	32.77
383.02	0.00
383.22	65.54
383.41	0.00
383.61	44.47
383.80	14.04
384.00	7.02
384.19	2.34
384.39	4.68
384.58	4.68
384.78	7.02
384.97	16.38
385.17	0.00
385.36	21.06
385.56	0.00
385.75	0.00
385.95	72.56
386.14	0.00
386.34	67.88
386.53	21.06
386.72	37.45
386.92	63.19
387.11	72.56
387.31	11.70
387.50	0.00
387.70	0.00
387.89	35.11
388.09	0.00
388.28	7.02
388.48	28.09
388.67	32.77
388.86	0.00
389.06	102.98
389.25	56.17
389.45	39.79
389.64	0.00
389.84	0.00
390.03	11.70
390.22	32.77
390.42	51.49
390.61	0.00
390.81	25.75
391.00	39.79
391.19	7.02
391.39	7.02
391.58	37.45
391.78	0.00
391.97	16.38
392.16	86.60
392.36	14.04
392.55	4.68
392.75	84.26
392.94	42.13
393.13	28.09
393.33	7.02
393.52	88.94
393.71	9.36
393.91	0.00
394.10	95.96
394.29	18.72
394.49	0.00
394.68	18.72
394.88	25.75
395.07	32.77
395.26	23.41
395.46	77.24
395.65	0.00
395.84	32.77
396.04	91.28
396.23	25.75
396.42	35.11
396.62	0.00
396.81	4.68
397.00	88.94
397.19	32.77
397.39	46.81
397.58	39.79
397.77	23.41
397.97	25.75
398.16	9.36
398.35	18.72
398.55	2.34
398.74	110.01
398.93	21.06
399.12	11.70
399.32	0.00
399.51	30.43
399.70	0.00
399.90	11.70
400.09	60.85
400.28	0.00
400.47	0.00
400.67	11.70
400.86	100.64
401.05	2.34
401.24	107.66
401.44	42.13
401.63	0.00
401.82	53.83
402.01	39.79
402.21	0.00
402.40	9.36
402.59	65.54
402.78	16.38
402.97	30.43
403.17	0.00
403.36	63.19
403.55	0.00
403.74	51.49
403.93	11.70
404.13	53.83
404.32	56.17
404.51	18.72
404.70	0.00
404.89	70.22
405.09	74.90
405.28	0.00
405.47	14.04
405.66	0.00
405.85	0.00
406.05	49.15
406.24	21.06
406.43	44.47
406.62	9.36
406.81	11.70
407.00	25.75
407.20	42.13
407.39	58.51
407.58	0.00
407.77	2.34
407.96	14.04
408.15	39.79
408.34	32.77
408.54	7.02
408.73	0.00
408.92	0.00
409.11	0.00
409.30	28.09
409.49	9.36
409.68	0.00
409.87	35.11
410.07	112.35
410.26	46.81
410.45	23.41
410.64	51.49
410.83	79.58
411.02	42.13
411.21	81.92
411.40	56.17
411.59	0.00
411.78	28.09
411.98	0.00
412.17	0.00
412.36	42.13
412.55	32.77
412.74	77.24
412.93	9.36
413.12	74.90
413.31	0.00
413.50	51.49
413.69	21.06
413.88	2.34
414.07	39.79
414.26	39.79
414.45	37.45
414.64	0.00
414.83	0.00
415.02	0.00
415.22	30.43
415.41	102.98
415.60	0.00
415.79	0.00
415.98	49.15
416.17	65.54
416.36	58.51
416.55	16.38
416.74	53.83
416.93	49.15
417.12	56.17
417.31	9.36
417.50	37.45
417.69	32.77
417.88	18.72
418.07	11.70
418.26	56.17
418.45	0.00
418.64	4.68
418.83	21.06
419.02	2.34
419.21	32.77
419.39	58.51
419.58	0.00
419.77	60.85
419.96	49.15
420.15	25.75
420.34	30.43
420.53	23.41
420.72	67.88
420.91	30.43
421.10	0.00
421.29	56.17
421.48	9.36
421.67	25.75
421.86	4.68
422.05	60.85
422.24	0.00
422.43	0.00
422.61	0.00
422.80	7.02
422.99	0.00
423.18	88.94
423.37	0.00
423.56	4.68
423.75	32.77
423.94	0.00
424.13	11.70
424.32	46.81
424.50	4.68
424.69	30.43
424.88	114.69
425.07	86.60
425.26	23.41
425.45	84.26
425.64	37.45
425.83	95.96
426.01	79.58
426.20	46.81
426.39	0.00
426.58	35.11
426.77	63.19
426.96	2.34
427.15	42.13
427.33	0.00
427.52	72.56
427.71	51.49
427.90	25.75
428.09	7.02
428.28	7.02
428.46	67.88
428.65	4.68
428.84	81.92
429.03	30.43
429.22	98.30
429.40	4.68
429.59	21.06
429.78	56.17
429.97	0.00
430.16	28.09
430.34	35.11
430.53	44.47
430.72	9.36
430.91	28.09
431.10	60.85
431.28	131.07
431.47	11.70
431.66	37.45
431.85	60.85
432.03	42.13
432.22	51.49
432.41	18.72
432.60	79.58
432.79	0.00
432.97	72.56
433.16	32.77
433.35	56.17
433.54	0.00
433.72	56.17
433.91	65.54
434.10	0.00
434.28	0.00
434.47	21.06
434.66	0.00
434.85	28.09
435.03	21.06
435.22	0.00
435.41	102.98
435.59	133.41
435.78	84.26
435.97	58.51
436.16	53.83
436.34	0.00
436.53	14.04
436.72	46.81
436.90	72.56
437.09	46.81
437.28	88.94
437.46	23.41
437.65	0.00
437.84	25.75
438.02	79.58
438.21	110.01
438.40	44.47
438.58	81.92
438.77	42.13
438.96	35.11
439.14	2.34
439.33	0.00
439.52	0.00
439.70	70.22
439.89	77.24
440.08	28.09
440.26	18.72
440.45	35.11
440.63	21.06
440.82	25.75
441.01	0.00
441.19	9.36
441.38	25.75
441.57	18.72
441.75	70.22
441.94	30.43
442.12	9.36
442.31	49.15
442.50	58.51
442.68	32.77
442.87	49.15
443.05	0.00
443.24	0.00
443.43	9.36
443.61	79.58
443.80	18.72
443.98	30.43
444.17	9.36
444.35	9.36
444.54	60.85
444.73	4.68
444.91	32.77
445.10	56.17
445.28	110.01
445.47	110.01
445.65	46.81
445.84	53.83
446.02	0.00
446.21	63.19
446.39	30.43
446.58	152.13
446.77	63.19
446.95	0.00
447.14	9.36
447.32	46.81
447.51	9.36
447.69	0.00
447.88	67.88
448.06	23.41
448.25	11.70
448.43	84.26
448.62	60.85
448.80	39.79
448.99	42.13
449.17	63.19
449.36	53.83
449.54	9.36
449.73	58.51
449.91	46.81
450.10	0.00
450.28	7.02
450.46	9.36
450.65	0.00
450.83	63.19
451.02	0.00
451.20	98.30
451.39	25.75
451.57	0.00
451.76	0.00
451.94	0.00
452.13	28.09
452.31	21.06
452.49	28.09
452.68	25.75
452.86	98.30
453.05	28.09
453.23	23.41
453.42	58.51
453.60	39.79
453.78	56.17
453.97	98.30
454.15	72.56
454.34	60.85
454.52	56.17
454.70	7.02
454.89	0.00
455.07	0.00
455.26	0.00
455.44	70.22
455.62	11.70
455.81	14.04
455.99	0.00
456.17	86.60
456.36	42.13
456.54	18.72
456.73	74.90
456.91	67.88
457.09	72.56
457.28	25.75
457.46	30.43
457.64	65.54
457.83	46.81
458.01	67.88
458.19	67.88
458.38	9.36
458.56	65.54
458.74	39.79
458.93	67.88
459.11	58.51
459.29	30.43
459.48	58.51
459.66	44.47
459.84	121.71
460.03	0.00
460.21	91.28
460.39	53.83
460.57	16.38
460.76	53.83
460.94	30.43
461.12	28.09
461.31	49.15
461.49	4.68
461.67	51.49
461.85	0.00
462.04	49.15
462.22	86.60
462.40	28.09
462.59	0.00
462.77	28.09
462.95	32.77
463.13	0.00
463.32	102.98
463.50	107.66
463.68	37.45
463.86	0.00
464.05	0.00
464.23	56.17
464.41	37.45
464.59	39.79
464.78	42.13
464.96	86.60
465.14	28.09
465.32	18.72
465.50	110.01
465.69	110.01
465.87	60.85
466.05	53.83
466.23	60.85
466.41	51.49
466.60	18.72
466.78	39.79
466.96	49.15
467.14	30.43
467.32	93.62
467.51	63.19
467.69	28.09
467.87	65.54
468.05	37.45
468.23	58.51
468.41	21.06
468.60	0.00
468.78	30.43
468.96	51.49
469.14	60.85
469.32	51.49
469.50	42.13
469.69	39.79
469.87	119.37
470.05	37.45
470.23	51.49
470.41	86.60
470.59	72.56
470.77	35.11
470.95	49.15
471.14	70.22
471.32	21.06
471.50	21.06
471.68	49.15
471.86	77.24
472.04	0.00
472.22	18.72
472.40	0.00
472.58	39.79
472.77	72.56
472.95	25.75
473.13	81.92
473.31	74.90
473.49	14.04
473.67	0.00
473.85	112.35
474.03	2.34
474.21	117.03
474.39	30.43
474.57	0.00
474.75	42.13
474.93	67.88
475.12	7.02
475.30	35.11
475.48	49.15
475.66	46.81
475.84	51.49
476.02	37.45
476.20	49.15
476.38	32.77
476.56	44.47
476.74	86.60
476.92	67.88
477.10	46.81
477.28	14.04
477.46	0.00
477.64	4.68
477.82	14.04
478.00	56.17
478.18	42.13
478.36	0.00
478.54	21.06
478.72	35.11
478.90	39.79
479.08	11.70
479.26	93.62
479.44	42.13
479.62	7.02
479.80	16.38
479.98	77.24
480.16	4.68
480.34	70.22
480.52	4.68
480.70	84.26
480.88	86.60
481.06	23.41
481.24	72.56
481.41	42.13
481.59	35.11
481.77	79.58
481.95	9.36
482.13	18.72
482.31	16.38
482.49	39.79
482.67	49.15
482.85	9.36
483.03	74.90
483.21	65.54
483.39	25.75
483.57	44.47
483.74	0.00
483.92	0.00
484.10	70.22
484.28	0.00
484.46	49.15
484.64	42.13
484.82	0.00
485.00	11.70
485.18	25.75
485.35	14.04
485.53	42.13
485.71	44.47
485.89	42.13
486.07	37.45
486.25	11.70
486.43	72.56
486.61	51.49
486.78	98.30
486.96	39.79
487.14	0.00
487.32	4.68
487.50	88.94
487.68	60.85
487.85	70.22
488.03	32.77
488.21	42.13
488.39	32.77
488.57	53.83
488.75	51.49
488.92	49.15
489.10	84.26
489.28	35.11
489.46	58.51
489.64	49.15
489.81	0.00
489.99	0.00
490.17	51.49
490.35	72.56
490.53	95.96
490.70	18.72
490.88	35.11
491.06	98.30
491.24	79.58
491.41	81.92
491.59	9.36
491.77	11.70
491.95	2.34
492.13	39.79
492.30	30.43
492.48	79.58
492.66	63.19
492.84	39.79
493.01	51.49
493.19	2.34
493.37	53.83
493.54	117.03
493.72	14.04
493.90	0.00
494.08	70.22
494.25	37.45
494.43	63.19
494.61	16.38
494.79	39.79
494.96	81.92
495.14	39.79
495.32	67.88
495.49	81.92
495.67	7.02
495.85	0.00
496.02	74.90
496.20	65.54
496.38	4.68
496.55	46.81
496.73	102.98
496.91	65.54
497.09	37.45
497.26	42.13
497.44	65.54
497.62	49.15
497.79	30.43
497.97	84.26
498.14	93.62
498.32	44.47
498.50	16.38
498.67	0.00
498.85	28.09
499.03	23.41
499.20	4.68
499.38	32.77
499.56	0.00
499.73	0.00
499.91	58.51
500.08	0.00
500.26	42.13
500.44	4.68
500.61	91.28
500.79	70.22
500.97	98.30
501.14	81.92
501.32	67.88
501.49	37.45
501.67	65.54
501.84	51.49
502.02	60.85
502.20	51.49
502.37	39.79
502.55	42.13
502.72	35.11
502.90	37.45
503.07	35.11
503.25	0.00
503.43	16.38
503.60	60.85
503.78	23.41
503.95	30.43
504.13	0.00
504.30	16.38
504.48	110.01
504.65	93.62
504.83	0.00
505.01	105.32
505.18	53.83
505.36	72.56
505.53	14.04
505.71	35.11
505.88	84.26
506.06	110.01
506.23	88.94
506.41	77.24
506.58	0.00
506.76	32.77
506.93	102.98
507.11	30.43
507.28	46.81
507.46	56.17
507.63	35.11
507.81	42.13
507.98	58.51
508.16	2.34
508.33	67.88
508.50	74.90
508.68	77.24
508.85	18.72
509.03	77.24
509.20	63.19
509.38	0.00
509.55	25.75
509.73	0.00
509.90	16.38
510.08	44.47
510.25	63.19
510.42	56.17
510.60	107.66
510.77	2.34
510.95	11.70
511.12	14.04
511.30	7.02
511.47	42.13
511.64	58.51
511.82	95.96
511.99	49.15
512.17	95.96
512.34	81.92
512.51	93.62
512.69	93.62
512.86	72.56
513.04	100.64
513.21	114.69
513.38	32.77
513.56	58.51
513.73	63.19
513.90	0.00
514.08	30.43
514.25	32.77
514.43	72.56
514.60	58.51
514.77	35.11
514.95	72.56
515.12	42.13
515.29	56.17
515.47	35.11
515.64	110.01
515.81	46.81
515.99	88.94
516.16	77.24
516.33	72.56
516.51	46.81
516.68	9.36
516.85	0.00
517.03	88.94
517.20	51.49
517.37	4.68
517.54	30.43
517.72	86.60
517.89	23.41
518.06	63.19
518.24	2.34
518.41	49.15
518.58	28.09
518.75	0.00
518.93	74.90
519.10	119.37
519.27	72.56
519.45	56.17
519.62	0.00
519.79	32.77
519.96	58.51
520.14	65.54
520.31	0.00
520.48	93.62
520.65	32.77
520.83	70.22
521.00	0.00
521.17	9.36
521.34	51.49
521.52	35.11
521.69	16.38
521.86	44.47
522.03	51.49
522.20	56.17
522.38	0.00
522.55	0.00
522.72	4.68
522.89	46.81
523.07	46.81
523.24	60.85
523.41	32.77
523.58	42.13
523.75	30.43
523.92	25.75
524.10	74.90
524.27	14.04
524.44	53.83
524.61	7.02
524.78	21.06
524.96	39.79
525.13	0.00
525.30	84.26
525.47	0.00
525.64	14.04
525.81	91.28
525.98	60.85
526.16	58.51
526.33	51.49
526.50	44.47
526.67	65.54
526.84	58.51
527.01	21.06
527.18	42.13
527.36	49.15
527.53	2.34
527.70	84.26
527.87	42.13
528.04	49.15
528.21	11.70
528.38	79.58
528.55	37.45
528.72	9.36
528.89	95.96
529.07	25.75
529.24	0.00
529.41	0.00
529.58	14.04
529.75	42.13
529.92	46.81
530.09	35.11
530.26	74.90
530.43	32.77
530.60	0.00
530.77	67.88
530.94	44.47
531.11	30.43
531.28	107.66
531.46	25.75
531.63	46.81
531.80	0.00
531.97	30.43
532.14	67.88
532.31	25.75
532.48	39.79
532.65	51.49
532.82	44.47
532.99	51.49
533.16	60.85
533.33	0.00
533.50	11.70
533.67	58.51
533.84	56.17
534.01	74.90
534.18	14.04
534.35	56.17
534.52	72.56
534.69	32.77
534.86	72.56
535.03	107.66
535.20	67.88
535.37	79.58
535.54	65.54
535.71	44.47
535.88	65.54
536.05	84.26
536.22	46.81
536.38	86.60
536.55	25.75
536.72	67.88
536.89	56.17
537.06	11.70
537.23	0.00
537.40	7.02
537.57	46.81
537.74	51.49
537.91	9.36
538.08	9.36
538.25	49.15
538.42	35.11
538.59	0.00
538.75	0.00
538.92	37.45
539.09	88.94
539.26	77.24
539.43	14.04
539.60	51.49
539.77	25.75
539.94	63.19
540.11	4.68
540.28	58.51
540.44	7.02
540.61	42.13
540.78	63.19
540.95	0.00
541.12	35.11
541.29	86.60
541.46	14.04
541.62	79.58
541.79	4.68
541.96	18.72
542.13	0.00
542.30	35.11
542.47	95.96
542.63	0.00
542.80	86.60
542.97	63.19
543.14	42.13
543.31	95.96
543.48	23.41
543.64	58.51
543.81	39.79
543.98	67.88
544.15	77.24
544.32	2.34
544.48	0.00
544.65	42.13
544.82	0.00
544.99	49.15
545.16	98.30
545.32	30.43
545.49	21.06
545.66	60.85
545.83	21.06
546.00	72.56
546.16	0.00
546.33	63.19
546.50	0.00
546.67	32.77
546.83	14.04
547.00	0.00
547.17	39.79
547.34	67.88
547.50	32.77
547.67	72.56
547.84	4.68
548.00	0.00
548.17	4.68
548.34	51.49
548.51	102.98
548.67	30.43
548.84	4.68
549.01	37.45
549.18	81.92
549.34	7.02
549.51	44.47
549.68	51.49
549.84	65.54
550.01	81.92
550.18	56.17
550.34	79.58
550.51	60.85
550.68	53.83
550.84	39.79
551.01	70.22
551.18	0.00
551.34	84.26
551.51	0.00
551.68	56.17
551.84	140.43
552.01	16.38
552.18	32.77
552.34	32.77
552.51	25.75
552.68	32.77
552.84	65.54
553.01	0.00
553.18	32.77
553.34	11.70
553.51	0.00
553.67	86.60
553.84	51.49
554.01	91.28
554.17	23.41
554.34	0.00
554.51	14.04
554.67	58.51
554.84	35.11
555.00	16.38
555.17	72.56
555.33	39.79
555.50	49.15
555.67	67.88
555.83	0.00
556.00	0.00
556.16	44.47
556.33	39.79
556.50	4.68
556.66	0.00
556.83	72.56
556.99	37.45
557.16	16.38
557.32	30.43
557.49	0.00
557.65	98.30
557.82	0.00
557.98	0.00
558.15	7.02
558.32	35.11
558.48	0.00
558.65	21.06
558.81	32.77
558.98	44.47
559.14	79.58
559.31	70.22
559.47	32.77
559.64	51.49
559.80	107.66
559.97	39.79
560.13	11.70
560.30	0.00
560.46	126.39
560.63	86.60
560.79	14.04
560.96	0.00
561.12	16.38
561.29	72.56
561.45	7.02
561.61	42.13
561.78	0.00
561.94	28.09
562.11	23.41
562.27	70.22
562.44	18.72
562.60	67.88
562.77	21.06
562.93	102.98
563.10	114.69
563.26	98.30
563.42	42.13
563.59	53.83
563.75	0.00
563.92	7.02
564.08	46.81
564.24	0.00
564.41	63.19
564.57	56.17
564.74	74.90
564.90	0.00
565.07	23.41
565.23	37.45
565.39	72.56
565.56	105.32
565.72	56.17
565.88	21.06
566.05	72.56
566.21	42.13
566.38	37.45
566.54	0.00
566.70	9.36
566.87	35.11
567.03	35.11
567.19	30.43
567.36	16.38
567.52	37.45
567.68	23.41
567.85	0.00
568.01	56.17
568.17	53.83
568.34	21.06
568.50	11.70
568.66	2.34
568.83	65.54
568.99	0.00
569.15	0.00
569.32	79.58
569.48	44.47
569.64	53.83
569.81	14.04
569.97	95.96
570.13	44.47
570.30	46.81
570.46	9.36
570.62	30.43
570.78	0.00
570.95	0.00
571.11	44.47
571.27	9.36
571.43	21.06
571.60	49.15
571.76	0.00
571.92	72.56
572.09	39.79
572.25	25.75
572.41	4.68
572.57	72.56
572.74	72.56
572.90	37.45
573.06	88.94
573.22	65.54
573.38	25.75
573.55	7.02
573.71	9.36
573.87	14.04
574.03	44.47
574.20	35.11
574.36	28.09
574.52	14.04
574.68	0.00
574.84	60.85
575.01	32.77
575.17	53.83
575.33	2.34
575.49	7.02
575.65	25.75
575.82	0.00
575.98	39.79
576.14	51.49
576.30	14.04
576.46	16.38
576.62	39.79
576.79	4.68
576.95	44.47
577.11	70.22
577.27	98.30
577.43	0.00
577.59	39.79
577.75	46.81
577.92	0.00
578.08	0.00
578.24	21.06
578.40	98.30
578.56	23.41
578.72	28.09
578.88	72.56
579.04	39.79
579.21	32.77
579.37	44.47
579.53	46.81
579.69	32.77
579.85	16.38
580.01	46.81
580.17	42.13
580.33	0.00
580.49	74.90
580.65	32.77
580.82	2.34
580.98	32.77
581.14	65.54
581.30	110.01
581.46	0.00
581.62	114.69
581.78	72.56
581.94	11.70
582.10	0.00
582.26	95.96
582.42	135.75
582.58	0.00
582.74	70.22
582.90	46.81
583.06	14.04
583.22	100.64
583.38	14.04
583.54	46.81
583.70	56.17
583.86	86.60
584.02	56.17
584.18	67.88
584.34	58.51
584.50	77.24
584.66	358.10
584.82	866.00
584.98	1186.65
585.14	1172.61
585.30	744.29
585.46	505.56
585.62	351.08
585.78	187.24
585.94	93.62
586.10	65.54
586.26	93.62
586.42	0.00
586.58	67.88
586.74	18.72
586.90	67.88
587.06	70.22
587.22	0.00
587.38	91.28
587.54	95.96
587.70	14.04
587.86	65.54
588.02	149.79
588.18	163.84
588.34	114.69
588.49	25.75
588.65	0.00
588.81	65.54
588.97	51.49
589.13	65.54
589.29	9.36
589.45	49.15
589.61	7.02
589.77	0.00
589.93	30.43
590.08	0.00
590.24	23.41
590.40	63.19
590.56	74.90
590.72	70.22
590.88	135.75
591.04	67.88
591.20	4.68
591.35	84.26
591.51	42.13
591.67	18.72
591.83	0.00
591.99	0.00
592.15	51.49
592.31	49.15
592.46	0.00
592.62	98.30
592.78	49.15
592.94	7.02
593.10	74.90
593.26	100.64
593.41	93.62
593.57	44.47
593.73	14.04
593.89	93.62
594.05	182.56
594.20	222.35
594.36	177.88
594.52	112.35
594.68	79.58
594.84	95.96
594.99	46.81
595.15	30.43
595.31	138.09
595.47	72.56
595.62	16.38
595.78	49.15
595.94	0.00
596.10	72.56
596.25	37.45
596.41	49.15
596.57	28.09
596.73	93.62
596.88	0.00
597.04	79.58
597.20	51.49
597.36	93.62
597.51	79.58
597.67	70.22
597.83	9.36
597.99	16.38
598.14	4.68
598.30	28.09
598.46	23.41
598.61	0.00
598.77	60.85
598.93	39.79
599.09	63.19
599.24	0.00
599.40	105.32
599.56	49.15
599.71	0.00
599.87	37.45
600.03	51.49
600.18	107.66
600.34	65.54
600.50	53.83
600.65	44.47
600.81	0.00
600.97	60.85
601.12	0.00
601.28	25.75
601.44	100.64
601.59	4.68
601.75	30.43
601.91	72.56
602.06	21.06
602.22	51.49
602.37	39.79
602.53	28.09
602.69	0.00
602.84	14.04
603.00	110.01
603.16	128.73
603.31	70.22
603.47	53.83
603.62	23.41
603.78	74.90
603.94	4.68
604.09	0.00
604.25	142.77
604.40	53.83
604.56	9.36
604.71	72.56
604.87	100.64
605.03	56.17
605.18	42.13
605.34	56.17
605.49	39.79
605.65	25.75
605.80	0.00
605.96	72.56
606.12	91.28
606.27	49.15
606.43	65.54
606.58	56.17
606.74	42.13
606.89	159.16
607.05	161.50
607.20	98.30
607.36	154.48
607.51	149.79
607.67	100.64
607.82	126.39
607.98	35.11
608.13	67.88
608.29	35.11
608.44	74.90
608.60	37.45
608.75	4.68
608.91	23.41
609.06	142.77
609.22	187.24
609.37	285.55
609.53	236.39
609.68	142.77
609.84	198.95
609.99	117.03
610.15	53.83
610.30	56.17
610.46	81.92
610.61	0.00
610.76	0.00
610.92	0.00
611.07	39.79
611.23	4.68
611.38	51.49
611.54	23.41
611.69	56.17
611.84	30.43
612.00	0.00
612.15	42.13
612.31	49.15
612.46	60.85
612.62	0.00
612.77	79.58
612.92	56.17
613.08	100.64
613.23	51.49
613.39	77.24
613.54	35.11
613.69	140.43
613.85	241.08
614.00	341.72
614.15	411.93
614.31	290.23
614.46	212.99
614.62	145.11
614.77	126.39
614.92	84.26
615.08	60.85
615.23	23.41
615.38	63.19
615.54	77.24
615.69	30.43
615.84	28.09
616.00	98.30
616.15	86.60
616.30	14.04
616.46	102.98
616.61	79.58
616.76	39.79
616.92	63.19
617.07	77.24
617.22	0.00
617.37	39.79
617.53	4.68
617.68	100.64
617.83	28.09
617.99	107.66
618.14	60.85
618.29	63.19
618.45	21.06
618.60	56.17
618.75	46.81
618.90	0.00
619.06	16.38
619.21	39.79
619.36	21.06
619.51	28.09
619.67	0.00
619.82	16.38
619.97	0.00
620.12	0.00
620.28	46.81
620.43	0.00
620.58	0.00
620.73	100.64
620.89	86.60
621.04	42.13
621.19	114.69
621.34	100.64
621.49	91.28
621.65	67.88
621.80	67.88
621.95	46.81
622.10	56.17
622.25	135.75
622.41	88.94
622.56	21.06
622.71	0.00
622.86	42.13
623.01	18.72
623.16	0.00
623.32	39.79
623.47	0.00
623.62	23.41
623.77	30.43
623.92	77.24
624.07	21.06
624.23	11.70
624.38	14.04
624.53	0.00
624.68	0.00
624.83	86.60
624.98	56.17
625.13	49.15
625.29	2.34
625.44	58.51
625.59	14.04
625.74	65.54
625.89	37.45
626.04	98.30
626.19	163.84
626.34	208.31
626.49	252.78
626.65	124.05
626.80	121.71
626.95	135.75
627.10	65.54
627.25	79.58
627.40	72.56
627.55	60.85
627.70	88.94
627.85	74.90
628.00	56.17
628.15	58.51
628.30	56.17
628.45	56.17
628.60	53.83
628.76	58.51
628.91	100.64
629.06	53.83
629.21	42.13
629.36	9.36
629.51	14.04
629.66	4.68
629.81	67.88
629.96	100.64
630.11	112.35
630.26	88.94
630.41	30.43
630.56	65.54
630.71	56.17
630.86	72.56
631.01	51.49
631.16	60.85
631.31	7.02
631.46	39.79
631.61	72.56
631.76	70.22
631.91	7.02
632.06	14.04
632.21	46.81
632.36	39.79
632.51	49.15
632.66	46.81
632.81	79.58
632.96	126.39
633.10	152.13
633.25	173.20
633.40	126.39
633.55	208.31
633.70	23.41
633.85	0.00
634.00	32.77
634.15	95.96
634.30	18.72
634.45	88.94
634.60	7.02
634.75	168.52
634.90	37.45
635.05	60.85
635.19	0.00
635.34	28.09
635.49	58.51
635.64	18.72
635.79	2.34
635.94	51.49
636.09	14.04
636.24	58.51
636.39	28.09
636.53	21.06
636.68	16.38
636.83	11.70
636.98	77.24
637.13	72.56
637.28	70.22
637.43	0.00
637.57	124.05
637.72	95.96
637.87	173.20
638.02	299.59
638.17	355.76
638.32	217.67
638.46	147.45
638.61	91.28
638.76	67.88
638.91	49.15
639.06	124.05
639.20	70.22
639.35	81.92
639.50	32.77
639.65	110.01
639.80	215.33
639.94	430.66
640.09	486.83
640.24	325.33
640.39	250.44
640.54	198.95
640.68	72.56
640.83	88.94
640.98	91.28
641.13	23.41
641.27	56.17
641.42	102.98
641.57	72.56
641.72	35.11
641.86	0.00
642.01	84.26
642.16	11.70
642.31	0.00
642.45	28.09
642.60	42.13
642.75	60.85
642.90	58.51
643.04	11.70
643.19	7.02
643.34	58.51
643.48	77.24
643.63	4.68
643.78	67.88
643.93	21.06
644.07	58.51
644.22	102.98
644.37	30.43
644.51	42.13
644.66	28.09
644.81	56.17
644.95	67.88
645.10	4.68
645.25	32.77
645.39	112.35
645.54	9.36
645.69	124.05
645.83	100.64
645.98	53.83
646.13	39.79
646.27	53.83
646.42	46.81
646.57	65.54
646.71	70.22
646.86	18.72
647.00	30.43
647.15	93.62
647.30	28.09
647.44	30.43
647.59	65.54
647.74	37.45
647.88	4.68
648.03	32.77
648.17	35.11
648.32	44.47
648.47	18.72
648.61	95.96
648.76	25.75
648.90	67.88
649.05	0.00
649.20	21.06
649.34	28.09
649.49	11.70
649.63	0.00
649.78	11.70
649.92	18.72
650.07	77.24
650.21	72.56
650.36	166.18
650.51	227.03
650.65	201.29
650.80	145.11
650.94	147.45
651.09	91.28
651.23	102.98
651.38	79.58
651.52	23.41
651.67	18.72
651.81	4.68
651.96	18.72
652.10	16.38
652.25	35.11
652.39	53.83
652.54	44.47
652.68	30.43
652.83	30.43
652.97	72.56
653.12	74.90
653.26	121.71
653.41	131.07
653.55	84.26
653.70	28.09
653.84	44.47
653.99	37.45
654.13	37.45
654.27	42.13
654.42	7.02
654.56	72.56
654.71	72.56
654.85	37.45
655.00	7.02
655.14	67.88
655.29	23.41
655.43	35.11
655.57	9.36
655.72	11.70
655.86	79.58
656.01	35.11
656.15	0.00
656.30	9.36
656.44	42.13
656.58	53.83
656.73	58.51
656.87	18.72
657.01	14.04
657.16	53.83
657.30	74.90
657.45	21.06
657.59	79.58
657.73	11.70
657.88	44.47
658.02	0.00
658.16	56.17
658.31	37.45
658.45	46.81
658.60	67.88
658.74	65.54
658.88	42.13
659.03	65.54
659.17	46.81
659.31	49.15
659.46	77.24
659.60	81.92
659.74	88.94
659.89	126.39
660.03	84.26
660.17	53.83
660.32	117.03
660.46	18.72
660.60	84.26
660.74	58.51
660.89	58.51
661.03	72.56
661.17	63.19
661.32	32.77
661.46	0.00
661.60	51.49
661.74	7.02
661.89	46.81
662.03	65.54
662.17	16.38
662.31	2.34
662.46	79.58
662.60	11.70
662.74	0.00
662.88	91.28
663.03	35.11
663.17	25.75
663.31	0.00
663.45	100.64
663.60	65.54
663.74	9.36
663.88	67.88
664.02	49.15
664.17	70.22
664.31	58.51
664.45	42.13
664.59	63.19
664.73	58.51
664.88	37.45
665.02	30.43
665.16	14.04
665.30	0.00
665.44	37.45
665.59	25.75
665.73	100.64
665.87	49.15
666.01	63.19
666.15	0.00
666.29	0.00
666.44	0.00
666.58	49.15
666.72	67.88
666.86	42.13
667.00	32.77
667.14	84.26
667.28	100.64
667.43	102.98
667.57	168.52
667.71	257.46
667.85	196.60
667.99	140.43
668.13	98.30
668.27	58.51
668.41	114.69
668.56	53.83
668.70	133.41
668.84	152.13
668.98	39.79
669.12	37.45
669.26	35.11
669.40	35.11
669.54	7.02
669.68	56.17
669.82	51.49
669.96	77.24
670.10	95.96
670.25	14.04
670.39	60.85
670.53	16.38
670.67	56.17
670.81	65.54
670.95	0.00
671.09	56.17
671.23	30.43
671.37	91.28
671.51	112.35
671.65	100.64
671.79	131.07
671.93	95.96
672.07	0.00
672.21	9.36
672.35	46.81
672.49	91.28
672.63	46.81
672.77	18.72
672.91	79.58
673.05	67.88
673.19	39.79
673.33	53.83
673.47	35.11
673.61	32.77
673.75	114.69
673.89	0.00
674.03	0.00
674.17	98.30
674.31	46.81
674.45	0.00
674.59	53.83
674.73	18.72
674.87	56.17
675.01	74.90
675.15	35.11
675.29	86.60
675.43	65.54
675.56	65.54
675.70	7.02
675.84	117.03
675.98	4.68
676.12	46.81
676.26	18.72
676.40	35.11
676.54	0.00
676.68	42.13
676.82	56.17
676.96	16.38
677.10	53.83
677.23	67.88
677.37	23.41
677.51	9.36
677.65	107.66
677.79	42.13
677.93	63.19
678.07	93.62
678.21	14.04
678.34	9.36
678.48	7.02
678.62	58.51
678.76	102.98
678.90	58.51
679.04	9.36
679.18	35.11
679.31	23.41
679.45	46.81
679.59	91.28
679.73	23.41
679.87	63.19
680.00	72.56
680.14	63.19
680.28	11.70
680.42	28.09
680.56	0.00
680.70	2.34
680.83	128.73
680.97	49.15
681.11	44.47
681.25	81.92
681.39	77.24
681.52	72.56
681.66	11.70
681.80	84.26
681.94	72.56
682.07	14.04
682.21	56.17
682.35	60.85
682.49	44.47
682.62	30.43
682.76	16.38
682.90	14.04
683.04	46.81
683.17	56.17
683.31	32.77
683.45	0.00
683.59	67.88
683.72	0.00
683.86	72.56
684.00	67.88
684.13	0.00
684.27	51.49
684.41	79.58
684.55	46.81
684.68	16.38
684.82	25.75
684.96	0.00
685.09	88.94
685.23	23.41
685.37	11.70
685.50	30.43
685.64	98.30
685.78	35.11
685.91	4.68
686.05	0.00
686.19	60.85
686.32	18.72
686.46	16.38
686.60	4.68
686.73	0.00
686.87	35.11
687.01	0.00
687.14	0.00
687.28	46.81
687.42	60.85
687.55	0.00
687.69	0.00
687.82	46.81
687.96	46.81
688.10	0.00
688.23	23.41
688.37	77.24
688.50	7.02
688.64	44.47
688.78	18.72
688.91	65.54
689.05	9.36
689.18	4.68
689.32	84.26
689.46	9.36
689.59	23.41
689.73	30.43
689.86	100.64
690.00	37.45
690.13	0.00
690.27	14.04
690.41	39.79
690.54	46.81
690.68	53.83
690.81	0.00
690.95	65.54
691.08	39.79
691.22	32.77
691.35	49.15
691.49	30.43
691.62	0.00
691.76	35.11
691.89	63.19
692.03	37.45
692.16	9.36
692.30	0.00
692.43	0.00
692.57	4.68
692.70	77.24
692.84	53.83
692.97	58.51
693.11	35.11
693.24	95.96
693.38	0.00
693.51	39.79
693.65	51.49
693.78	58.51
693.92	49.15
694.05	51.49
694.19	0.00
694.32	7.02
694.45	0.00
694.59	65.54
694.72	32.77
694.86	0.00
694.99	46.81
695.13	58.51
695.26	65.54
695.39	67.88
695.53	72.56
695.66	51.49
695.80	9.36
695.93	58.51
696.07	14.04
696.20	0.00
696.33	42.13
696.47	56.17
696.60	79.58
696.73	49.15
696.87	2.34
697.00	70.22
697.14	37.45
697.27	72.56
697.40	72.56
697.54	98.30
697.67	53.83
697.80	0.00
697.94	51.49
698.07	0.00
698.21	30.43
698.34	18.72
698.47	42.13
698.61	23.41
698.74	0.00
698.87	7.02
699.01	28.09
699.14	0.00
699.27	37.45
699.40	93.62
699.54	42.13
699.67	49.15
699.80	67.88
699.94	0.00
700.07	0.00
700.20	42.13
700.34	98.30
700.47	25.75
700.60	0.00
700.73	14.04
700.87	14.04
701.00	32.77
701.13	51.49
701.26	70.22
701.40	88.94
701.53	42.13
701.66	0.00
701.79	0.00
701.93	70.22
702.06	35.11
702.19	0.00
702.32	16.38
702.46	23.41
702.59	46.81
702.72	32.77
702.85	65.54
702.99	175.54
703.12	224.69
703.25	203.63
703.38	198.95
703.51	168.52
703.65	98.30
703.78	74.90
703.91	53.83
704.04	2.34
704.17	0.00
704.31	21.06
704.44	37.45
704.57	23.41
704.70	0.00
704.83	18.72
704.96	39.79
705.10	21.06
705.23	63.19
>>>>>End Processed Spectral Data<<<<<
