SpectraSuite Data File
++++++++++++++++++++++++++++++++++++
Date: Fri Oct 04 12:13:35 GMT-05:00 2013
User: price-jones
Dark Spectrum Present: No
Reference Spectrum Present: No
Number of Sampled Component Spectra: 1
Spectrometers: USB2+H05261
Integration Time (usec): 10000 (USB2+H05261)
Spectra Averaged: 1 (USB2+H05261)
Boxcar Smoothing: 0 (USB2+H05261)
Correct for Electrical Dark: No (USB2+H05261)
Strobe/Lamp Enabled: No (USB2+H05261)
Correct for Detector Non-linearity: No (USB2+H05261)
Correct for Stray Light: No (USB2+H05261)
Number of Pixels in Processed Spectrum: 2048
>>>>>Begin Processed Spectral Data<<<<<
365.73	37.45
365.92	37.45
366.12	37.45
366.32	0.00
366.52	0.00
366.72	0.00
366.91	0.00
367.11	0.00
367.31	0.00
367.51	0.00
367.70	0.00
367.90	0.00
368.10	0.00
368.30	0.00
368.49	0.00
368.69	0.00
368.89	0.00
369.09	0.00
369.28	0.00
369.48	0.00
369.68	0.00
369.87	0.00
370.07	0.00
370.27	0.00
370.47	0.00
370.66	0.00
370.86	0.00
371.06	14.04
371.25	0.00
371.45	28.09
371.65	21.06
371.84	63.19
372.04	63.19
372.24	11.70
372.44	4.68
372.63	72.56
372.83	77.24
373.03	67.88
373.22	0.00
373.42	23.41
373.62	7.02
373.81	51.49
374.01	0.00
374.21	51.49
374.40	0.00
374.60	100.64
374.79	25.75
374.99	18.72
375.19	70.22
375.38	30.43
375.58	25.75
375.78	70.22
375.97	28.09
376.17	60.85
376.37	14.04
376.56	35.11
376.76	0.00
376.95	39.79
377.15	25.75
377.35	30.43
377.54	0.00
377.74	0.00
377.93	58.51
378.13	95.96
378.33	0.00
378.52	23.41
378.72	81.92
378.91	18.72
379.11	0.00
379.31	0.00
379.50	56.17
379.70	0.00
379.89	0.00
380.09	18.72
380.28	37.45
380.48	14.04
380.68	11.70
380.87	0.00
381.07	0.00
381.26	0.00
381.46	23.41
381.65	4.68
381.85	0.00
382.04	0.00
382.24	25.75
382.43	39.79
382.63	56.17
382.83	53.83
383.02	42.13
383.22	58.51
383.41	9.36
383.61	14.04
383.80	23.41
384.00	0.00
384.19	39.79
384.39	4.68
384.58	0.00
384.78	93.62
384.97	81.92
385.17	0.00
385.36	11.70
385.56	25.75
385.75	0.00
385.95	32.77
386.14	42.13
386.34	21.06
386.53	72.56
386.72	0.00
386.92	81.92
387.11	0.00
387.31	0.00
387.50	49.15
387.70	42.13
387.89	16.38
388.09	67.88
388.28	37.45
388.48	0.00
388.67	0.00
388.86	46.81
389.06	4.68
389.25	18.72
389.45	9.36
389.64	74.90
389.84	28.09
390.03	9.36
390.22	0.00
390.42	0.00
390.61	81.92
390.81	63.19
391.00	9.36
391.19	42.13
391.39	4.68
391.58	0.00
391.78	63.19
391.97	4.68
392.16	0.00
392.36	0.00
392.55	117.03
392.75	7.02
392.94	23.41
393.13	23.41
393.33	0.00
393.52	0.00
393.71	21.06
393.91	67.88
394.10	35.11
394.29	0.00
394.49	74.90
394.68	79.58
394.88	32.77
395.07	70.22
395.26	0.00
395.46	35.11
395.65	35.11
395.84	9.36
396.04	58.51
396.23	91.28
396.42	0.00
396.62	58.51
396.81	4.68
397.00	23.41
397.19	0.00
397.39	95.96
397.58	18.72
397.77	0.00
397.97	0.00
398.16	0.00
398.35	39.79
398.55	18.72
398.74	0.00
398.93	21.06
399.12	0.00
399.32	63.19
399.51	49.15
399.70	35.11
399.90	9.36
400.09	11.70
400.28	0.00
400.47	88.94
400.67	53.83
400.86	37.45
401.05	0.00
401.24	0.00
401.44	30.43
401.63	51.49
401.82	65.54
402.01	14.04
402.21	0.00
402.40	0.00
402.59	0.00
402.78	25.75
402.97	25.75
403.17	42.13
403.36	35.11
403.55	42.13
403.74	63.19
403.93	51.49
404.13	93.62
404.32	88.94
404.51	4.68
404.70	18.72
404.89	21.06
405.09	56.17
405.28	9.36
405.47	32.77
405.66	30.43
405.85	32.77
406.05	28.09
406.24	9.36
406.43	23.41
406.62	37.45
406.81	14.04
407.00	44.47
407.20	58.51
407.39	0.00
407.58	7.02
407.77	46.81
407.96	74.90
408.15	9.36
408.34	128.73
408.54	77.24
408.73	84.26
408.92	0.00
409.11	37.45
409.30	0.00
409.49	14.04
409.68	49.15
409.87	0.00
410.07	84.26
410.26	25.75
410.45	21.06
410.64	0.00
410.83	86.60
411.02	49.15
411.21	35.11
411.40	53.83
411.59	21.06
411.78	23.41
411.98	65.54
412.17	23.41
412.36	51.49
412.55	86.60
412.74	23.41
412.93	11.70
413.12	0.00
413.31	56.17
413.50	88.94
413.69	70.22
413.88	11.70
414.07	88.94
414.26	32.77
414.45	2.34
414.64	56.17
414.83	84.26
415.02	28.09
415.22	14.04
415.41	117.03
415.60	37.45
415.79	21.06
415.98	100.64
416.17	44.47
416.36	46.81
416.55	32.77
416.74	79.58
416.93	18.72
417.12	18.72
417.31	56.17
417.50	84.26
417.69	65.54
417.88	63.19
418.07	0.00
418.26	70.22
418.45	60.85
418.64	67.88
418.83	67.88
419.02	65.54
419.21	46.81
419.39	44.47
419.58	0.00
419.77	60.85
419.96	0.00
420.15	16.38
420.34	65.54
420.53	25.75
420.72	32.77
420.91	93.62
421.10	2.34
421.29	121.71
421.48	56.17
421.67	0.00
421.86	110.01
422.05	0.00
422.24	28.09
422.43	30.43
422.61	21.06
422.80	56.17
422.99	30.43
423.18	21.06
423.37	51.49
423.56	100.64
423.75	37.45
423.94	58.51
424.13	56.17
424.32	25.75
424.50	44.47
424.69	25.75
424.88	110.01
425.07	14.04
425.26	37.45
425.45	53.83
425.64	0.00
425.83	60.85
426.01	30.43
426.20	32.77
426.39	72.56
426.58	124.05
426.77	56.17
426.96	63.19
427.15	49.15
427.33	51.49
427.52	23.41
427.71	88.94
427.90	63.19
428.09	23.41
428.28	58.51
428.46	18.72
428.65	42.13
428.84	81.92
429.03	79.58
429.22	32.77
429.40	46.81
429.59	0.00
429.78	28.09
429.97	7.02
430.16	74.90
430.34	7.02
430.53	25.75
430.72	100.64
430.91	105.32
431.10	72.56
431.28	44.47
431.47	37.45
431.66	37.45
431.85	25.75
432.03	25.75
432.22	77.24
432.41	44.47
432.60	28.09
432.79	63.19
432.97	46.81
433.16	0.00
433.35	63.19
433.54	74.90
433.72	0.00
433.91	0.00
434.10	0.00
434.28	86.60
434.47	46.81
434.66	93.62
434.85	42.13
435.03	0.00
435.22	142.77
435.41	42.13
435.59	100.64
435.78	95.96
435.97	91.28
436.16	110.01
436.34	133.41
436.53	93.62
436.72	11.70
436.90	84.26
437.09	93.62
437.28	28.09
437.46	81.92
437.65	60.85
437.84	91.28
438.02	58.51
438.21	35.11
438.40	58.51
438.58	93.62
438.77	93.62
438.96	72.56
439.14	32.77
439.33	0.00
439.52	0.00
439.70	88.94
439.89	72.56
440.08	67.88
440.26	53.83
440.45	84.26
440.63	72.56
440.82	32.77
441.01	51.49
441.19	49.15
441.38	98.30
441.57	49.15
441.75	56.17
441.94	7.02
442.12	142.77
442.31	46.81
442.50	23.41
442.68	23.41
442.87	53.83
443.05	46.81
443.24	18.72
443.43	42.13
443.61	21.06
443.80	46.81
443.98	4.68
444.17	46.81
444.35	105.32
444.54	81.92
444.73	124.05
444.91	39.79
445.10	35.11
445.28	119.37
445.47	63.19
445.65	25.75
445.84	28.09
446.02	70.22
446.21	79.58
446.39	63.19
446.58	46.81
446.77	67.88
446.95	23.41
447.14	39.79
447.32	77.24
447.51	60.85
447.69	84.26
447.88	84.26
448.06	100.64
448.25	0.00
448.43	21.06
448.62	49.15
448.80	30.43
448.99	14.04
449.17	84.26
449.36	72.56
449.54	32.77
449.73	21.06
449.91	126.39
450.10	37.45
450.28	25.75
450.46	84.26
450.65	16.38
450.83	25.75
451.02	51.49
451.20	30.43
451.39	58.51
451.57	53.83
451.76	25.75
451.94	21.06
452.13	18.72
452.31	72.56
452.49	30.43
452.68	98.30
452.86	126.39
453.05	21.06
453.23	51.49
453.42	98.30
453.60	37.45
453.78	53.83
453.97	51.49
454.15	37.45
454.34	79.58
454.52	70.22
454.70	0.00
454.89	18.72
455.07	49.15
455.26	42.13
455.44	25.75
455.62	63.19
455.81	39.79
455.99	23.41
456.17	0.00
456.36	100.64
456.54	37.45
456.73	98.30
456.91	95.96
457.09	53.83
457.28	56.17
457.46	60.85
457.64	65.54
457.83	28.09
458.01	11.70
458.19	63.19
458.38	0.00
458.56	63.19
458.74	21.06
458.93	65.54
459.11	86.60
459.29	84.26
459.48	67.88
459.66	95.96
459.84	51.49
460.03	0.00
460.21	2.34
460.39	28.09
460.57	21.06
460.76	37.45
460.94	65.54
461.12	107.66
461.31	102.98
461.49	32.77
461.67	30.43
461.85	110.01
462.04	140.43
462.22	128.73
462.40	105.32
462.59	0.00
462.77	0.00
462.95	105.32
463.13	107.66
463.32	60.85
463.50	51.49
463.68	7.02
463.86	58.51
464.05	51.49
464.23	112.35
464.41	112.35
464.59	107.66
464.78	84.26
464.96	84.26
465.14	100.64
465.32	72.56
465.50	105.32
465.69	60.85
465.87	44.47
466.05	91.28
466.23	93.62
466.41	79.58
466.60	30.43
466.78	70.22
466.96	44.47
467.14	65.54
467.32	112.35
467.51	42.13
467.69	156.82
467.87	77.24
468.05	32.77
468.23	39.79
468.41	119.37
468.60	37.45
468.78	35.11
468.96	81.92
469.14	23.41
469.32	72.56
469.50	46.81
469.69	81.92
469.87	16.38
470.05	105.32
470.23	93.62
470.41	0.00
470.59	30.43
470.77	11.70
470.95	63.19
471.14	70.22
471.32	58.51
471.50	86.60
471.68	124.05
471.86	77.24
472.04	110.01
472.22	84.26
472.40	77.24
472.58	95.96
472.77	51.49
472.95	53.83
473.13	63.19
473.31	16.38
473.49	95.96
473.67	112.35
473.85	98.30
474.03	53.83
474.21	91.28
474.39	44.47
474.57	30.43
474.75	74.90
474.93	72.56
475.12	81.92
475.30	105.32
475.48	105.32
475.66	39.79
475.84	98.30
476.02	58.51
476.20	30.43
476.38	7.02
476.56	86.60
476.74	23.41
476.92	42.13
477.10	0.00
477.28	25.75
477.46	46.81
477.64	21.06
477.82	44.47
478.00	102.98
478.18	37.45
478.36	100.64
478.54	39.79
478.72	121.71
478.90	84.26
479.08	53.83
479.26	35.11
479.44	37.45
479.62	110.01
479.80	7.02
479.98	121.71
480.16	102.98
480.34	39.79
480.52	30.43
480.70	84.26
480.88	56.17
481.06	91.28
481.24	32.77
481.41	37.45
481.59	18.72
481.77	126.39
481.95	23.41
482.13	30.43
482.31	140.43
482.49	105.32
482.67	0.00
482.85	58.51
483.03	60.85
483.21	18.72
483.39	53.83
483.57	2.34
483.74	39.79
483.92	114.69
484.10	42.13
484.28	133.41
484.46	60.85
484.64	105.32
484.82	37.45
485.00	60.85
485.18	9.36
485.35	114.69
485.53	35.11
485.71	117.03
485.89	67.88
486.07	32.77
486.25	81.92
486.43	107.66
486.61	91.28
486.78	140.43
486.96	128.73
487.14	107.66
487.32	51.49
487.50	65.54
487.68	95.96
487.85	65.54
488.03	84.26
488.21	81.92
488.39	25.75
488.57	107.66
488.75	42.13
488.92	7.02
489.10	140.43
489.28	81.92
489.46	53.83
489.64	0.00
489.81	32.77
489.99	121.71
490.17	42.13
490.35	65.54
490.53	7.02
490.70	44.47
490.88	44.47
491.06	67.88
491.24	72.56
491.41	0.00
491.59	72.56
491.77	44.47
491.95	84.26
492.13	110.01
492.30	0.00
492.48	32.77
492.66	37.45
492.84	74.90
493.01	93.62
493.19	140.43
493.37	121.71
493.54	58.51
493.72	51.49
493.90	32.77
494.08	65.54
494.25	112.35
494.43	51.49
494.61	84.26
494.79	72.56
494.96	72.56
495.14	88.94
495.32	124.05
495.49	51.49
495.67	107.66
495.85	74.90
496.02	18.72
496.20	0.00
496.38	65.54
496.55	39.79
496.73	63.19
496.91	56.17
497.09	70.22
497.26	70.22
497.44	44.47
497.62	60.85
497.79	2.34
497.97	60.85
498.14	117.03
498.32	44.47
498.50	135.75
498.67	70.22
498.85	25.75
499.03	154.48
499.20	149.79
499.38	156.82
499.56	56.17
499.73	9.36
499.91	49.15
500.08	121.71
500.26	95.96
500.44	117.03
500.61	152.13
500.79	105.32
500.97	65.54
501.14	91.28
501.32	102.98
501.49	100.64
501.67	95.96
501.84	84.26
502.02	88.94
502.20	58.51
502.37	77.24
502.55	67.88
502.72	77.24
502.90	110.01
503.07	84.26
503.25	84.26
503.43	25.75
503.60	51.49
503.78	72.56
503.95	28.09
504.13	70.22
504.30	79.58
504.48	53.83
504.65	46.81
504.83	72.56
505.01	74.90
505.18	119.37
505.36	112.35
505.53	44.47
505.71	0.00
505.88	65.54
506.06	100.64
506.23	63.19
506.41	86.60
506.58	88.94
506.76	42.13
506.93	110.01
507.11	72.56
507.28	63.19
507.46	28.09
507.63	121.71
507.81	30.43
507.98	79.58
508.16	35.11
508.33	119.37
508.50	100.64
508.68	53.83
508.85	21.06
509.03	35.11
509.20	105.32
509.38	149.79
509.55	60.85
509.73	91.28
509.90	67.88
510.08	102.98
510.25	114.69
510.42	91.28
510.60	74.90
510.77	114.69
510.95	70.22
511.12	102.98
511.30	133.41
511.47	131.07
511.64	93.62
511.82	74.90
511.99	152.13
512.17	49.15
512.34	140.43
512.51	77.24
512.69	51.49
512.86	91.28
513.04	44.47
513.21	77.24
513.38	98.30
513.56	98.30
513.73	53.83
513.90	110.01
514.08	112.35
514.25	53.83
514.43	114.69
514.60	67.88
514.77	86.60
514.95	95.96
515.12	60.85
515.29	107.66
515.47	44.47
515.64	91.28
515.81	124.05
515.99	114.69
516.16	46.81
516.33	93.62
516.51	79.58
516.68	0.00
516.85	124.05
517.03	112.35
517.20	147.45
517.37	112.35
517.54	147.45
517.72	67.88
517.89	72.56
518.06	60.85
518.24	126.39
518.41	166.18
518.58	70.22
518.75	79.58
518.93	126.39
519.10	102.98
519.27	95.96
519.45	67.88
519.62	65.54
519.79	86.60
519.96	102.98
520.14	93.62
520.31	138.09
520.48	77.24
520.65	0.00
520.83	79.58
521.00	95.96
521.17	91.28
521.34	51.49
521.52	105.32
521.69	74.90
521.86	119.37
522.03	81.92
522.20	95.96
522.38	72.56
522.55	79.58
522.72	77.24
522.89	84.26
523.07	56.17
523.24	21.06
523.41	84.26
523.58	39.79
523.75	112.35
523.92	95.96
524.10	142.77
524.27	67.88
524.44	93.62
524.61	98.30
524.78	114.69
524.96	39.79
525.13	152.13
525.30	88.94
525.47	114.69
525.64	100.64
525.81	39.79
525.98	67.88
526.16	81.92
526.33	126.39
526.50	67.88
526.67	25.75
526.84	77.24
527.01	117.03
527.18	107.66
527.36	51.49
527.53	58.51
527.70	168.52
527.87	88.94
528.04	128.73
528.21	110.01
528.38	65.54
528.55	65.54
528.72	81.92
528.89	77.24
529.07	152.13
529.24	65.54
529.41	70.22
529.58	53.83
529.75	42.13
529.92	110.01
530.09	114.69
530.26	18.72
530.43	18.72
530.60	100.64
530.77	65.54
530.94	86.60
531.11	65.54
531.28	119.37
531.46	42.13
531.63	119.37
531.80	140.43
531.97	81.92
532.14	79.58
532.31	98.30
532.48	84.26
532.65	91.28
532.82	100.64
532.99	30.43
533.16	84.26
533.33	44.47
533.50	102.98
533.67	98.30
533.84	105.32
534.01	46.81
534.18	51.49
534.35	117.03
534.52	100.64
534.69	86.60
534.86	110.01
535.03	51.49
535.20	119.37
535.37	191.92
535.54	93.62
535.71	147.45
535.88	105.32
536.05	46.81
536.22	84.26
536.38	35.11
536.55	63.19
536.72	60.85
536.89	112.35
537.06	81.92
537.23	98.30
537.40	51.49
537.57	131.07
537.74	100.64
537.91	18.72
538.08	37.45
538.25	46.81
538.42	98.30
538.59	107.66
538.75	74.90
538.92	121.71
539.09	65.54
539.26	67.88
539.43	37.45
539.60	56.17
539.77	79.58
539.94	102.98
540.11	124.05
540.28	60.85
540.44	86.60
540.61	88.94
540.78	67.88
540.95	44.47
541.12	112.35
541.29	9.36
541.46	65.54
541.62	63.19
541.79	88.94
541.96	86.60
542.13	88.94
542.30	84.26
542.47	149.79
542.63	72.56
542.80	77.24
542.97	74.90
543.14	74.90
543.31	133.41
543.48	159.16
543.64	91.28
543.81	95.96
543.98	56.17
544.15	117.03
544.32	77.24
544.48	56.17
544.65	105.32
544.82	100.64
544.99	102.98
545.16	105.32
545.32	91.28
545.49	84.26
545.66	114.69
545.83	128.73
546.00	72.56
546.16	39.79
546.33	81.92
546.50	95.96
546.67	135.75
546.83	114.69
547.00	95.96
547.17	74.90
547.34	72.56
547.50	154.48
547.67	112.35
547.84	98.30
548.00	166.18
548.17	102.98
548.34	70.22
548.51	114.69
548.67	173.20
548.84	117.03
549.01	7.02
549.18	67.88
549.34	114.69
549.51	112.35
549.68	107.66
549.84	86.60
550.01	138.09
550.18	16.38
550.34	88.94
550.51	114.69
550.68	100.64
550.84	86.60
551.01	145.11
551.18	138.09
551.34	77.24
551.51	49.15
551.68	86.60
551.84	154.48
552.01	114.69
552.18	163.84
552.34	56.17
552.51	107.66
552.68	88.94
552.84	81.92
553.01	58.51
553.18	128.73
553.34	49.15
553.51	21.06
553.67	79.58
553.84	135.75
554.01	117.03
554.17	86.60
554.34	74.90
554.51	95.96
554.67	23.41
554.84	53.83
555.00	159.16
555.17	84.26
555.33	60.85
555.50	53.83
555.67	49.15
555.83	173.20
556.00	110.01
556.16	53.83
556.33	98.30
556.50	128.73
556.66	121.71
556.83	79.58
556.99	72.56
557.16	42.13
557.32	117.03
557.49	60.85
557.65	112.35
557.82	81.92
557.98	44.47
558.15	93.62
558.32	93.62
558.48	93.62
558.65	159.16
558.81	79.58
558.98	70.22
559.14	166.18
559.31	58.51
559.47	100.64
559.64	95.96
559.80	51.49
559.97	77.24
560.13	152.13
560.30	110.01
560.46	126.39
560.63	77.24
560.79	46.81
560.96	93.62
561.12	88.94
561.29	72.56
561.45	49.15
561.61	93.62
561.78	110.01
561.94	161.50
562.11	91.28
562.27	81.92
562.44	58.51
562.60	42.13
562.77	100.64
562.93	86.60
563.10	86.60
563.26	128.73
563.42	46.81
563.59	58.51
563.75	93.62
563.92	65.54
564.08	46.81
564.24	74.90
564.41	84.26
564.57	0.00
564.74	86.60
564.90	100.64
565.07	16.38
565.23	51.49
565.39	44.47
565.56	49.15
565.72	79.58
565.88	88.94
566.05	133.41
566.21	70.22
566.38	121.71
566.54	79.58
566.70	74.90
566.87	28.09
567.03	117.03
567.19	39.79
567.36	74.90
567.52	18.72
567.68	98.30
567.85	107.66
568.01	74.90
568.17	91.28
568.34	63.19
568.50	121.71
568.66	11.70
568.83	147.45
568.99	72.56
569.15	86.60
569.32	77.24
569.48	105.32
569.64	95.96
569.81	91.28
569.97	51.49
570.13	28.09
570.30	86.60
570.46	91.28
570.62	79.58
570.78	98.30
570.95	67.88
571.11	117.03
571.27	102.98
571.43	114.69
571.60	39.79
571.76	70.22
571.92	32.77
572.09	72.56
572.25	86.60
572.41	72.56
572.57	126.39
572.74	105.32
572.90	58.51
573.06	79.58
573.22	168.52
573.38	173.20
573.55	102.98
573.71	53.83
573.87	81.92
574.03	168.52
574.20	74.90
574.36	145.11
574.52	93.62
574.68	131.07
574.84	88.94
575.01	58.51
575.17	105.32
575.33	105.32
575.49	98.30
575.65	107.66
575.82	86.60
575.98	70.22
576.14	140.43
576.30	131.07
576.46	119.37
576.62	105.32
576.79	133.41
576.95	84.26
577.11	21.06
577.27	58.51
577.43	126.39
577.59	98.30
577.75	32.77
577.92	14.04
578.08	58.51
578.24	72.56
578.40	86.60
578.56	53.83
578.72	32.77
578.88	7.02
579.04	70.22
579.21	81.92
579.37	49.15
579.53	105.32
579.69	119.37
579.85	49.15
580.01	124.05
580.17	88.94
580.33	119.37
580.49	16.38
580.65	72.56
580.82	86.60
580.98	88.94
581.14	124.05
581.30	14.04
581.46	79.58
581.62	86.60
581.78	196.60
581.94	0.00
582.10	142.77
582.26	84.26
582.42	74.90
582.58	49.15
582.74	98.30
582.90	98.30
583.06	60.85
583.22	93.62
583.38	53.83
583.54	70.22
583.70	112.35
583.86	70.22
584.02	77.24
584.18	131.07
584.34	35.11
584.50	58.51
584.66	93.62
584.82	128.73
584.98	67.88
585.14	142.77
585.30	9.36
585.46	37.45
585.62	51.49
585.78	79.58
585.94	65.54
586.10	91.28
586.26	95.96
586.42	44.47
586.58	51.49
586.74	84.26
586.90	93.62
587.06	72.56
587.22	124.05
587.38	21.06
587.54	86.60
587.70	91.28
587.86	44.47
588.02	100.64
588.18	18.72
588.34	117.03
588.49	53.83
588.65	159.16
588.81	25.75
588.97	77.24
589.13	46.81
589.29	86.60
589.45	60.85
589.61	65.54
589.77	110.01
589.93	72.56
590.08	42.13
590.24	112.35
590.40	149.79
590.56	53.83
590.72	49.15
590.88	110.01
591.04	25.75
591.20	32.77
591.35	107.66
591.51	65.54
591.67	72.56
591.83	102.98
591.99	105.32
592.15	72.56
592.31	128.73
592.46	28.09
592.62	74.90
592.78	67.88
592.94	70.22
593.10	77.24
593.26	91.28
593.41	51.49
593.57	81.92
593.73	88.94
593.89	0.00
594.05	70.22
594.20	117.03
594.36	0.00
594.52	51.49
594.68	58.51
594.84	102.98
594.99	102.98
595.15	44.47
595.31	84.26
595.47	77.24
595.62	147.45
595.78	56.17
595.94	84.26
596.10	65.54
596.25	98.30
596.41	0.00
596.57	44.47
596.73	154.48
596.88	65.54
597.04	98.30
597.20	81.92
597.36	67.88
597.51	100.64
597.67	53.83
597.83	0.00
597.99	131.07
598.14	117.03
598.30	72.56
598.46	128.73
598.61	79.58
598.77	95.96
598.93	58.51
599.09	105.32
599.24	88.94
599.40	124.05
599.56	133.41
599.71	93.62
599.87	67.88
600.03	35.11
600.18	46.81
600.34	46.81
600.50	117.03
600.65	98.30
600.81	93.62
600.97	65.54
601.12	46.81
601.28	23.41
601.44	56.17
601.59	74.90
601.75	56.17
601.91	110.01
602.06	110.01
602.22	23.41
602.37	91.28
602.53	84.26
602.69	63.19
602.84	88.94
603.00	91.28
603.16	86.60
603.31	72.56
603.47	32.77
603.62	14.04
603.78	93.62
603.94	21.06
604.09	51.49
604.25	77.24
604.40	102.98
604.56	79.58
604.71	84.26
604.87	23.41
605.03	88.94
605.18	79.58
605.34	72.56
605.49	72.56
605.65	79.58
605.80	105.32
605.96	91.28
606.12	56.17
606.27	35.11
606.43	102.98
606.58	124.05
606.74	58.51
606.89	56.17
607.05	23.41
607.20	114.69
607.36	114.69
607.51	91.28
607.67	49.15
607.82	119.37
607.98	93.62
608.13	117.03
608.29	84.26
608.44	42.13
608.60	86.60
608.75	42.13
608.91	4.68
609.06	86.60
609.22	81.92
609.37	46.81
609.53	67.88
609.68	9.36
609.84	32.77
609.99	100.64
610.15	107.66
610.30	91.28
610.46	95.96
610.61	84.26
610.76	102.98
610.92	81.92
611.07	49.15
611.23	126.39
611.38	74.90
611.54	65.54
611.69	110.01
611.84	63.19
612.00	35.11
612.15	2.34
612.31	0.00
612.46	32.77
612.62	32.77
612.77	49.15
612.92	86.60
613.08	65.54
613.23	86.60
613.39	42.13
613.54	60.85
613.69	35.11
613.85	95.96
614.00	70.22
614.15	70.22
614.31	16.38
614.46	161.50
614.62	67.88
614.77	81.92
614.92	4.68
615.08	11.70
615.23	60.85
615.38	74.90
615.54	79.58
615.69	42.13
615.84	67.88
616.00	91.28
616.15	121.71
616.30	112.35
616.46	74.90
616.61	42.13
616.76	95.96
616.92	159.16
617.07	37.45
617.22	25.75
617.37	9.36
617.53	117.03
617.68	11.70
617.83	39.79
617.99	86.60
618.14	42.13
618.29	46.81
618.45	30.43
618.60	70.22
618.75	95.96
618.90	72.56
619.06	46.81
619.21	86.60
619.36	0.00
619.51	79.58
619.67	100.64
619.82	81.92
619.97	81.92
620.12	110.01
620.28	119.37
620.43	107.66
620.58	58.51
620.73	35.11
620.89	114.69
621.04	30.43
621.19	37.45
621.34	79.58
621.49	0.00
621.65	28.09
621.80	49.15
621.95	44.47
622.10	102.98
622.25	65.54
622.41	67.88
622.56	63.19
622.71	119.37
622.86	21.06
623.01	0.00
623.16	30.43
623.32	86.60
623.47	77.24
623.62	44.47
623.77	79.58
623.92	93.62
624.07	77.24
624.23	81.92
624.38	70.22
624.53	53.83
624.68	53.83
624.83	70.22
624.98	56.17
625.13	63.19
625.29	124.05
625.44	37.45
625.59	18.72
625.74	72.56
625.89	131.07
626.04	7.02
626.19	28.09
626.34	124.05
626.49	44.47
626.65	56.17
626.80	88.94
626.95	28.09
627.10	58.51
627.25	67.88
627.40	91.28
627.55	77.24
627.70	70.22
627.85	77.24
628.00	114.69
628.15	0.00
628.30	72.56
628.45	14.04
628.60	114.69
628.76	88.94
628.91	42.13
629.06	67.88
629.21	95.96
629.36	0.00
629.51	25.75
629.66	63.19
629.81	74.90
629.96	14.04
630.11	46.81
630.26	81.92
630.41	51.49
630.56	53.83
630.71	79.58
630.86	23.41
631.01	4.68
631.16	58.51
631.31	49.15
631.46	63.19
631.61	107.66
631.76	49.15
631.91	60.85
632.06	84.26
632.21	16.38
632.36	9.36
632.51	53.83
632.66	51.49
632.81	30.43
632.96	46.81
633.10	49.15
633.25	72.56
633.40	0.00
633.55	133.41
633.70	138.09
633.85	67.88
634.00	30.43
634.15	51.49
634.30	65.54
634.45	46.81
634.60	102.98
634.75	51.49
634.90	35.11
635.05	60.85
635.19	63.19
635.34	117.03
635.49	18.72
635.64	63.19
635.79	16.38
635.94	23.41
636.09	88.94
636.24	42.13
636.39	60.85
636.53	70.22
636.68	0.00
636.83	37.45
636.98	74.90
637.13	77.24
637.28	42.13
637.43	70.22
637.57	65.54
637.72	177.88
637.87	161.50
638.02	98.30
638.17	67.88
638.32	72.56
638.46	65.54
638.61	65.54
638.76	117.03
638.91	16.38
639.06	0.00
639.20	2.34
639.35	51.49
639.50	42.13
639.65	49.15
639.80	67.88
639.94	9.36
640.09	105.32
640.24	74.90
640.39	63.19
640.54	49.15
640.68	58.51
640.83	93.62
640.98	46.81
641.13	100.64
641.27	35.11
641.42	105.32
641.57	42.13
641.72	44.47
641.86	51.49
642.01	77.24
642.16	112.35
642.31	37.45
642.45	93.62
642.60	35.11
642.75	39.79
642.90	86.60
643.04	105.32
643.19	86.60
643.34	39.79
643.48	53.83
643.63	81.92
643.78	0.00
643.93	58.51
644.07	32.77
644.22	74.90
644.37	98.30
644.51	131.07
644.66	77.24
644.81	70.22
644.95	63.19
645.10	28.09
645.25	0.00
645.39	23.41
645.54	32.77
645.69	81.92
645.83	77.24
645.98	49.15
646.13	86.60
646.27	177.88
646.42	74.90
646.57	81.92
646.71	35.11
646.86	58.51
647.00	124.05
647.15	72.56
647.30	9.36
647.44	39.79
647.59	72.56
647.74	95.96
647.88	25.75
648.03	18.72
648.17	42.13
648.32	70.22
648.47	63.19
648.61	30.43
648.76	51.49
648.90	67.88
649.05	42.13
649.20	84.26
649.34	60.85
649.49	72.56
649.63	67.88
649.78	49.15
649.92	28.09
650.07	16.38
650.21	88.94
650.36	58.51
650.51	9.36
650.65	53.83
650.80	51.49
650.94	98.30
651.09	30.43
651.23	140.43
651.38	124.05
651.52	32.77
651.67	0.00
651.81	23.41
651.96	74.90
652.10	91.28
652.25	84.26
652.39	84.26
652.54	30.43
652.68	51.49
652.83	119.37
652.97	35.11
653.12	86.60
653.26	49.15
653.41	95.96
653.55	63.19
653.70	0.00
653.84	56.17
653.99	65.54
654.13	0.00
654.27	77.24
654.42	58.51
654.56	51.49
654.71	53.83
654.85	88.94
655.00	30.43
655.14	72.56
655.29	39.79
655.43	119.37
655.57	60.85
655.72	117.03
655.86	16.38
656.01	25.75
656.15	0.00
656.30	37.45
656.44	0.00
656.58	98.30
656.73	63.19
656.87	74.90
657.01	42.13
657.16	0.00
657.30	39.79
657.45	93.62
657.59	46.81
657.73	37.45
657.88	11.70
658.02	65.54
658.16	0.00
658.31	16.38
658.45	56.17
658.60	53.83
658.74	0.00
658.88	91.28
659.03	51.49
659.17	72.56
659.31	44.47
659.46	63.19
659.60	86.60
659.74	49.15
659.89	77.24
660.03	51.49
660.17	30.43
660.32	81.92
660.46	110.01
660.60	110.01
660.74	37.45
660.89	32.77
661.03	0.00
661.17	112.35
661.32	60.85
661.46	100.64
661.60	4.68
661.74	102.98
661.89	124.05
662.03	74.90
662.17	0.00
662.31	91.28
662.46	21.06
662.60	159.16
662.74	51.49
662.88	79.58
663.03	67.88
663.17	65.54
663.31	0.00
663.45	135.75
663.60	70.22
663.74	81.92
663.88	81.92
664.02	53.83
664.17	60.85
664.31	35.11
664.45	23.41
664.59	25.75
664.73	32.77
664.88	30.43
665.02	77.24
665.16	149.79
665.30	11.70
665.44	39.79
665.59	7.02
665.73	58.51
665.87	63.19
666.01	30.43
666.15	86.60
666.29	65.54
666.44	37.45
666.58	35.11
666.72	88.94
666.86	35.11
667.00	0.00
667.14	98.30
667.28	11.70
667.43	16.38
667.57	0.00
667.71	0.00
667.85	81.92
667.99	63.19
668.13	0.00
668.27	42.13
668.41	37.45
668.56	25.75
668.70	16.38
668.84	44.47
668.98	0.00
669.12	51.49
669.26	67.88
669.40	0.00
669.54	49.15
669.68	56.17
669.82	30.43
669.96	28.09
670.10	30.43
670.25	53.83
670.39	28.09
670.53	0.00
670.67	53.83
670.81	145.11
670.95	98.30
671.09	95.96
671.23	133.41
671.37	18.72
671.51	58.51
671.65	49.15
671.79	7.02
671.93	37.45
672.07	112.35
672.21	32.77
672.35	0.00
672.49	74.90
672.63	63.19
672.77	93.62
672.91	53.83
673.05	53.83
673.19	65.54
673.33	63.19
673.47	42.13
673.61	25.75
673.75	88.94
673.89	0.00
674.03	23.41
674.17	0.00
674.31	49.15
674.45	0.00
674.59	14.04
674.73	81.92
674.87	42.13
675.01	72.56
675.15	58.51
675.29	93.62
675.43	77.24
675.56	112.35
675.70	23.41
675.84	63.19
675.98	117.03
676.12	58.51
676.26	107.66
676.40	98.30
676.54	44.47
676.68	110.01
676.82	70.22
676.96	46.81
677.10	100.64
677.23	53.83
677.37	4.68
677.51	79.58
677.65	0.00
677.79	56.17
677.93	18.72
678.07	25.75
678.21	58.51
678.34	16.38
678.48	67.88
678.62	9.36
678.76	0.00
678.90	74.90
679.04	0.00
679.18	86.60
679.31	23.41
679.45	0.00
679.59	56.17
679.73	79.58
679.87	16.38
680.00	28.09
680.14	25.75
680.28	42.13
680.42	37.45
680.56	16.38
680.70	37.45
680.83	124.05
680.97	51.49
681.11	0.00
681.25	18.72
681.39	30.43
681.52	0.00
681.66	0.00
681.80	37.45
681.94	32.77
682.07	65.54
682.21	72.56
682.35	74.90
682.49	30.43
682.62	11.70
682.76	67.88
682.90	32.77
683.04	42.13
683.17	58.51
683.31	30.43
683.45	0.00
683.59	58.51
683.72	74.90
683.86	28.09
684.00	67.88
684.13	39.79
684.27	23.41
684.41	11.70
684.55	138.09
684.68	46.81
684.82	0.00
684.96	32.77
685.09	88.94
685.23	16.38
685.37	95.96
685.50	30.43
685.64	39.79
685.78	53.83
685.91	21.06
686.05	63.19
686.19	44.47
686.32	67.88
686.46	53.83
686.60	0.00
686.73	42.13
686.87	37.45
687.01	91.28
687.14	0.00
687.28	77.24
687.42	0.00
687.55	14.04
687.69	63.19
687.82	42.13
687.96	56.17
688.10	79.58
688.23	0.00
688.37	56.17
688.50	60.85
688.64	93.62
688.78	35.11
688.91	44.47
689.05	0.00
689.18	81.92
689.32	37.45
689.46	0.00
689.59	32.77
689.73	23.41
689.86	51.49
690.00	58.51
690.13	37.45
690.27	18.72
690.41	60.85
690.54	0.00
690.68	35.11
690.81	44.47
690.95	0.00
691.08	86.60
691.22	28.09
691.35	25.75
691.49	119.37
691.62	30.43
691.76	42.13
691.89	79.58
692.03	154.48
692.16	63.19
692.30	70.22
692.43	37.45
692.57	37.45
692.70	4.68
692.84	58.51
692.97	60.85
693.11	25.75
693.24	0.00
693.38	53.83
693.51	56.17
693.65	51.49
693.78	39.79
693.92	44.47
694.05	46.81
694.19	28.09
694.32	23.41
694.45	14.04
694.59	0.00
694.72	102.98
694.86	0.00
694.99	126.39
695.13	9.36
695.26	32.77
695.39	145.11
695.53	23.41
695.66	9.36
695.80	35.11
695.93	56.17
696.07	0.00
696.20	51.49
696.33	37.45
696.47	58.51
696.60	49.15
696.73	21.06
696.87	110.01
697.00	7.02
697.14	58.51
697.27	154.48
697.40	112.35
697.54	37.45
697.67	0.00
697.80	9.36
697.94	51.49
698.07	39.79
698.21	9.36
698.34	49.15
698.47	30.43
698.61	0.00
698.74	86.60
698.87	49.15
699.01	39.79
699.14	44.47
699.27	0.00
699.40	0.00
699.54	60.85
699.67	65.54
699.80	16.38
699.94	18.72
700.07	56.17
700.20	44.47
700.34	0.00
700.47	18.72
700.60	0.00
700.73	32.77
700.87	91.28
701.00	49.15
701.13	39.79
701.26	18.72
701.40	46.81
701.53	91.28
701.66	49.15
701.79	18.72
701.93	9.36
702.06	65.54
702.19	0.00
702.32	42.13
702.46	25.75
702.59	95.96
702.72	42.13
702.85	72.56
702.99	18.72
703.12	11.70
703.25	0.00
703.38	102.98
703.51	0.00
703.65	30.43
703.78	0.00
703.91	21.06
704.04	72.56
704.17	23.41
704.31	0.00
704.44	86.60
704.57	0.00
704.70	4.68
704.83	140.43
704.96	46.81
705.10	37.45
705.23	77.24
>>>>>End Processed Spectral Data<<<<<
