SpectraSuite Data File
++++++++++++++++++++++++++++++++++++
Date: Fri Oct 04 12:13:30 GMT-05:00 2013
User: price-jones
Dark Spectrum Present: No
Reference Spectrum Present: No
Number of Sampled Component Spectra: 1
Spectrometers: USB2+H05261
Integration Time (usec): 10000 (USB2+H05261)
Spectra Averaged: 1 (USB2+H05261)
Boxcar Smoothing: 0 (USB2+H05261)
Correct for Electrical Dark: No (USB2+H05261)
Strobe/Lamp Enabled: No (USB2+H05261)
Correct for Detector Non-linearity: No (USB2+H05261)
Correct for Stray Light: No (USB2+H05261)
Number of Pixels in Processed Spectrum: 2048
>>>>>Begin Processed Spectral Data<<<<<
365.73	0.00
365.92	0.00
366.12	0.00
366.32	0.00
366.52	0.00
366.72	0.00
366.91	0.00
367.11	0.00
367.31	0.00
367.51	0.00
367.70	0.00
367.90	0.00
368.10	0.00
368.30	0.00
368.49	0.00
368.69	0.00
368.89	0.00
369.09	0.00
369.28	0.00
369.48	0.00
369.68	0.00
369.87	0.00
370.07	0.00
370.27	0.00
370.47	0.00
370.66	0.00
370.86	0.00
371.06	0.00
371.25	0.00
371.45	0.00
371.65	0.00
371.84	0.00
372.04	42.13
372.24	21.06
372.44	14.04
372.63	18.72
372.83	30.43
373.03	46.81
373.22	32.77
373.42	28.09
373.62	23.41
373.81	18.72
374.01	39.79
374.21	9.36
374.40	58.51
374.60	49.15
374.79	39.79
374.99	35.11
375.19	63.19
375.38	0.00
375.58	72.56
375.78	35.11
375.97	53.83
376.17	102.98
376.37	30.43
376.56	46.81
376.76	49.15
376.95	23.41
377.15	0.00
377.35	0.00
377.54	0.00
377.74	0.00
377.93	42.13
378.13	67.88
378.33	0.00
378.52	0.00
378.72	28.09
378.91	14.04
379.11	32.77
379.31	11.70
379.50	53.83
379.70	65.54
379.89	0.00
380.09	70.22
380.28	35.11
380.48	0.00
380.68	18.72
380.87	37.45
381.07	93.62
381.26	0.00
381.46	72.56
381.65	60.85
381.85	23.41
382.04	0.00
382.24	0.00
382.43	0.00
382.63	0.00
382.83	0.00
383.02	30.43
383.22	16.38
383.41	18.72
383.61	28.09
383.80	42.13
384.00	35.11
384.19	91.28
384.39	14.04
384.58	0.00
384.78	0.00
384.97	0.00
385.17	53.83
385.36	14.04
385.56	4.68
385.75	0.00
385.95	18.72
386.14	25.75
386.34	35.11
386.53	2.34
386.72	42.13
386.92	0.00
387.11	0.00
387.31	0.00
387.50	7.02
387.70	18.72
387.89	0.00
388.09	0.00
388.28	21.06
388.48	9.36
388.67	37.45
388.86	21.06
389.06	0.00
389.25	0.00
389.45	9.36
389.64	0.00
389.84	14.04
390.03	0.00
390.22	53.83
390.42	39.79
390.61	4.68
390.81	39.79
391.00	98.30
391.19	0.00
391.39	16.38
391.58	25.75
391.78	53.83
391.97	35.11
392.16	67.88
392.36	25.75
392.55	42.13
392.75	0.00
392.94	56.17
393.13	2.34
393.33	42.13
393.52	37.45
393.71	0.00
393.91	0.00
394.10	0.00
394.29	9.36
394.49	0.00
394.68	21.06
394.88	16.38
395.07	0.00
395.26	7.02
395.46	0.00
395.65	56.17
395.84	21.06
396.04	25.75
396.23	53.83
396.42	39.79
396.62	39.79
396.81	0.00
397.00	25.75
397.19	74.90
397.39	0.00
397.58	0.00
397.77	0.00
397.97	53.83
398.16	60.85
398.35	0.00
398.55	18.72
398.74	72.56
398.93	58.51
399.12	44.47
399.32	102.98
399.51	0.00
399.70	0.00
399.90	37.45
400.09	37.45
400.28	0.00
400.47	0.00
400.67	0.00
400.86	23.41
401.05	53.83
401.24	0.00
401.44	46.81
401.63	60.85
401.82	32.77
402.01	0.00
402.21	49.15
402.40	4.68
402.59	42.13
402.78	49.15
402.97	0.00
403.17	11.70
403.36	0.00
403.55	0.00
403.74	0.00
403.93	0.00
404.13	14.04
404.32	63.19
404.51	35.11
404.70	37.45
404.89	37.45
405.09	18.72
405.28	0.00
405.47	30.43
405.66	65.54
405.85	32.77
406.05	21.06
406.24	42.13
406.43	37.45
406.62	28.09
406.81	63.19
407.00	0.00
407.20	46.81
407.39	28.09
407.58	0.00
407.77	93.62
407.96	4.68
408.15	0.00
408.34	102.98
408.54	0.00
408.73	9.36
408.92	23.41
409.11	49.15
409.30	35.11
409.49	16.38
409.68	0.00
409.87	39.79
410.07	37.45
410.26	51.49
410.45	39.79
410.64	4.68
410.83	44.47
411.02	2.34
411.21	0.00
411.40	63.19
411.59	0.00
411.78	0.00
411.98	39.79
412.17	11.70
412.36	0.00
412.55	9.36
412.74	28.09
412.93	35.11
413.12	95.96
413.31	135.75
413.50	0.00
413.69	42.13
413.88	67.88
414.07	77.24
414.26	0.00
414.45	58.51
414.64	0.00
414.83	63.19
415.02	49.15
415.22	105.32
415.41	21.06
415.60	16.38
415.79	2.34
415.98	16.38
416.17	63.19
416.36	77.24
416.55	98.30
416.74	16.38
416.93	42.13
417.12	49.15
417.31	44.47
417.50	49.15
417.69	67.88
417.88	32.77
418.07	49.15
418.26	74.90
418.45	46.81
418.64	67.88
418.83	100.64
419.02	9.36
419.21	51.49
419.39	0.00
419.58	18.72
419.77	14.04
419.96	0.00
420.15	23.41
420.34	46.81
420.53	37.45
420.72	53.83
420.91	28.09
421.10	60.85
421.29	114.69
421.48	88.94
421.67	81.92
421.86	70.22
422.05	42.13
422.24	37.45
422.43	39.79
422.61	51.49
422.80	23.41
422.99	30.43
423.18	51.49
423.37	0.00
423.56	0.00
423.75	44.47
423.94	39.79
424.13	114.69
424.32	23.41
424.50	42.13
424.69	23.41
424.88	0.00
425.07	0.00
425.26	74.90
425.45	37.45
425.64	100.64
425.83	2.34
426.01	25.75
426.20	18.72
426.39	98.30
426.58	0.00
426.77	11.70
426.96	77.24
427.15	0.00
427.33	0.00
427.52	42.13
427.71	0.00
427.90	23.41
428.09	0.00
428.28	60.85
428.46	28.09
428.65	0.00
428.84	0.00
429.03	0.00
429.22	72.56
429.40	23.41
429.59	37.45
429.78	25.75
429.97	42.13
430.16	32.77
430.34	53.83
430.53	35.11
430.72	70.22
430.91	0.00
431.10	21.06
431.28	35.11
431.47	39.79
431.66	65.54
431.85	28.09
432.03	39.79
432.22	49.15
432.41	0.00
432.60	21.06
432.79	0.00
432.97	0.00
433.16	28.09
433.35	0.00
433.54	56.17
433.72	0.00
433.91	2.34
434.10	35.11
434.28	77.24
434.47	70.22
434.66	112.35
434.85	21.06
435.03	58.51
435.22	0.00
435.41	51.49
435.59	49.15
435.78	21.06
435.97	51.49
436.16	46.81
436.34	81.92
436.53	84.26
436.72	110.01
436.90	23.41
437.09	0.00
437.28	14.04
437.46	2.34
437.65	107.66
437.84	7.02
438.02	81.92
438.21	0.00
438.40	46.81
438.58	70.22
438.77	11.70
438.96	46.81
439.14	9.36
439.33	51.49
439.52	65.54
439.70	25.75
439.89	21.06
440.08	79.58
440.26	53.83
440.45	60.85
440.63	35.11
440.82	53.83
441.01	16.38
441.19	42.13
441.38	0.00
441.57	0.00
441.75	4.68
441.94	18.72
442.12	32.77
442.31	25.75
442.50	9.36
442.68	11.70
442.87	7.02
443.05	0.00
443.24	0.00
443.43	0.00
443.61	16.38
443.80	11.70
443.98	46.81
444.17	74.90
444.35	44.47
444.54	18.72
444.73	0.00
444.91	0.00
445.10	0.00
445.28	28.09
445.47	30.43
445.65	79.58
445.84	23.41
446.02	91.28
446.21	42.13
446.39	0.00
446.58	7.02
446.77	72.56
446.95	30.43
447.14	105.32
447.32	42.13
447.51	18.72
447.69	49.15
447.88	67.88
448.06	7.02
448.25	51.49
448.43	56.17
448.62	30.43
448.80	0.00
448.99	9.36
449.17	70.22
449.36	2.34
449.54	0.00
449.73	102.98
449.91	16.38
450.10	18.72
450.28	21.06
450.46	11.70
450.65	0.00
450.83	23.41
451.02	0.00
451.20	117.03
451.39	21.06
451.57	0.00
451.76	63.19
451.94	67.88
452.13	39.79
452.31	0.00
452.49	4.68
452.68	0.00
452.86	28.09
453.05	25.75
453.23	23.41
453.42	18.72
453.60	9.36
453.78	21.06
453.97	0.00
454.15	65.54
454.34	79.58
454.52	25.75
454.70	18.72
454.89	0.00
455.07	18.72
455.26	49.15
455.44	0.00
455.62	32.77
455.81	0.00
455.99	65.54
456.17	9.36
456.36	72.56
456.54	70.22
456.73	21.06
456.91	0.00
457.09	42.13
457.28	0.00
457.46	58.51
457.64	0.00
457.83	70.22
458.01	65.54
458.19	11.70
458.38	91.28
458.56	65.54
458.74	0.00
458.93	0.00
459.11	102.98
459.29	63.19
459.48	60.85
459.66	65.54
459.84	7.02
460.03	9.36
460.21	0.00
460.39	53.83
460.57	7.02
460.76	9.36
460.94	0.00
461.12	58.51
461.31	60.85
461.49	21.06
461.67	88.94
461.85	56.17
462.04	39.79
462.22	110.01
462.40	0.00
462.59	46.81
462.77	4.68
462.95	4.68
463.13	0.00
463.32	67.88
463.50	56.17
463.68	70.22
463.86	51.49
464.05	63.19
464.23	60.85
464.41	28.09
464.59	14.04
464.78	14.04
464.96	2.34
465.14	79.58
465.32	23.41
465.50	21.06
465.69	0.00
465.87	42.13
466.05	16.38
466.23	0.00
466.41	30.43
466.60	98.30
466.78	63.19
466.96	0.00
467.14	0.00
467.32	37.45
467.51	49.15
467.69	16.38
467.87	7.02
468.05	30.43
468.23	32.77
468.41	74.90
468.60	67.88
468.78	56.17
468.96	7.02
469.14	11.70
469.32	70.22
469.50	0.00
469.69	51.49
469.87	30.43
470.05	70.22
470.23	53.83
470.41	37.45
470.59	56.17
470.77	14.04
470.95	23.41
471.14	0.00
471.32	63.19
471.50	88.94
471.68	23.41
471.86	0.00
472.04	4.68
472.22	84.26
472.40	2.34
472.58	44.47
472.77	35.11
472.95	81.92
473.13	30.43
473.31	56.17
473.49	81.92
473.67	0.00
473.85	0.00
474.03	0.00
474.21	11.70
474.39	39.79
474.57	28.09
474.75	35.11
474.93	0.00
475.12	117.03
475.30	0.00
475.48	0.00
475.66	0.00
475.84	16.38
476.02	16.38
476.20	9.36
476.38	60.85
476.56	16.38
476.74	2.34
476.92	23.41
477.10	49.15
477.28	0.00
477.46	35.11
477.64	72.56
477.82	39.79
478.00	32.77
478.18	63.19
478.36	74.90
478.54	0.00
478.72	107.66
478.90	72.56
479.08	63.19
479.26	37.45
479.44	93.62
479.62	9.36
479.80	100.64
479.98	56.17
480.16	0.00
480.34	42.13
480.52	77.24
480.70	72.56
480.88	79.58
481.06	51.49
481.24	23.41
481.41	0.00
481.59	46.81
481.77	21.06
481.95	0.00
482.13	58.51
482.31	35.11
482.49	32.77
482.67	37.45
482.85	112.35
483.03	86.60
483.21	56.17
483.39	7.02
483.57	114.69
483.74	28.09
483.92	79.58
484.10	44.47
484.28	14.04
484.46	35.11
484.64	0.00
484.82	100.64
485.00	25.75
485.18	56.17
485.35	25.75
485.53	72.56
485.71	42.13
485.89	42.13
486.07	77.24
486.25	42.13
486.43	46.81
486.61	60.85
486.78	46.81
486.96	51.49
487.14	93.62
487.32	91.28
487.50	58.51
487.68	53.83
487.85	14.04
488.03	23.41
488.21	0.00
488.39	11.70
488.57	42.13
488.75	23.41
488.92	81.92
489.10	18.72
489.28	32.77
489.46	35.11
489.64	53.83
489.81	25.75
489.99	84.26
490.17	44.47
490.35	58.51
490.53	37.45
490.70	98.30
490.88	98.30
491.06	53.83
491.24	37.45
491.41	67.88
491.59	79.58
491.77	25.75
491.95	21.06
492.13	81.92
492.30	37.45
492.48	67.88
492.66	67.88
492.84	16.38
493.01	72.56
493.19	0.00
493.37	67.88
493.54	35.11
493.72	147.45
493.90	91.28
494.08	0.00
494.25	7.02
494.43	0.00
494.61	53.83
494.79	86.60
494.96	95.96
495.14	86.60
495.32	35.11
495.49	0.00
495.67	84.26
495.85	14.04
496.02	65.54
496.20	4.68
496.38	91.28
496.55	0.00
496.73	4.68
496.91	30.43
497.09	65.54
497.26	72.56
497.44	25.75
497.62	25.75
497.79	70.22
497.97	25.75
498.14	88.94
498.32	16.38
498.50	18.72
498.67	79.58
498.85	28.09
499.03	79.58
499.20	16.38
499.38	0.00
499.56	0.00
499.73	63.19
499.91	74.90
500.08	60.85
500.26	60.85
500.44	37.45
500.61	67.88
500.79	84.26
500.97	72.56
501.14	49.15
501.32	112.35
501.49	0.00
501.67	32.77
501.84	44.47
502.02	16.38
502.20	0.00
502.37	0.00
502.55	18.72
502.72	72.56
502.90	88.94
503.07	56.17
503.25	21.06
503.43	16.38
503.60	77.24
503.78	37.45
503.95	9.36
504.13	58.51
504.30	51.49
504.48	70.22
504.65	32.77
504.83	93.62
505.01	58.51
505.18	53.83
505.36	0.00
505.53	72.56
505.71	53.83
505.88	56.17
506.06	74.90
506.23	51.49
506.41	14.04
506.58	49.15
506.76	84.26
506.93	84.26
507.11	0.00
507.28	49.15
507.46	72.56
507.63	14.04
507.81	7.02
507.98	49.15
508.16	112.35
508.33	56.17
508.50	21.06
508.68	2.34
508.85	119.37
509.03	32.77
509.20	67.88
509.38	95.96
509.55	56.17
509.73	58.51
509.90	88.94
510.08	4.68
510.25	46.81
510.42	67.88
510.60	0.00
510.77	35.11
510.95	0.00
511.12	18.72
511.30	49.15
511.47	81.92
511.64	100.64
511.82	32.77
511.99	60.85
512.17	21.06
512.34	32.77
512.51	65.54
512.69	74.90
512.86	16.38
513.04	91.28
513.21	0.00
513.38	35.11
513.56	51.49
513.73	0.00
513.90	23.41
514.08	25.75
514.25	39.79
514.43	35.11
514.60	60.85
514.77	49.15
514.95	51.49
515.12	60.85
515.29	88.94
515.47	67.88
515.64	30.43
515.81	0.00
515.99	32.77
516.16	93.62
516.33	70.22
516.51	30.43
516.68	4.68
516.85	49.15
517.03	37.45
517.20	65.54
517.37	0.00
517.54	14.04
517.72	42.13
517.89	0.00
518.06	0.00
518.24	81.92
518.41	53.83
518.58	49.15
518.75	9.36
518.93	0.00
519.10	49.15
519.27	0.00
519.45	32.77
519.62	0.00
519.79	86.60
519.96	84.26
520.14	93.62
520.31	98.30
520.48	53.83
520.65	49.15
520.83	81.92
521.00	32.77
521.17	56.17
521.34	4.68
521.52	37.45
521.69	102.98
521.86	30.43
522.03	9.36
522.20	81.92
522.38	9.36
522.55	107.66
522.72	0.00
522.89	44.47
523.07	0.00
523.24	0.00
523.41	28.09
523.58	60.85
523.75	70.22
523.92	0.00
524.10	70.22
524.27	88.94
524.44	105.32
524.61	74.90
524.78	63.19
524.96	11.70
525.13	74.90
525.30	107.66
525.47	0.00
525.64	0.00
525.81	0.00
525.98	37.45
526.16	79.58
526.33	84.26
526.50	32.77
526.67	28.09
526.84	77.24
527.01	51.49
527.18	56.17
527.36	56.17
527.53	65.54
527.70	63.19
527.87	0.00
528.04	51.49
528.21	42.13
528.38	49.15
528.55	25.75
528.72	37.45
528.89	0.00
529.07	56.17
529.24	53.83
529.41	81.92
529.58	72.56
529.75	117.03
529.92	46.81
530.09	93.62
530.26	37.45
530.43	46.81
530.60	0.00
530.77	42.13
530.94	86.60
531.11	79.58
531.28	30.43
531.46	28.09
531.63	102.98
531.80	25.75
531.97	70.22
532.14	21.06
532.31	30.43
532.48	63.19
532.65	49.15
532.82	58.51
532.99	30.43
533.16	25.75
533.33	11.70
533.50	21.06
533.67	49.15
533.84	18.72
534.01	114.69
534.18	63.19
534.35	14.04
534.52	60.85
534.69	67.88
534.86	0.00
535.03	86.60
535.20	119.37
535.37	46.81
535.54	44.47
535.71	0.00
535.88	11.70
536.05	39.79
536.22	79.58
536.38	0.00
536.55	112.35
536.72	72.56
536.89	0.00
537.06	0.00
537.23	0.00
537.40	21.06
537.57	32.77
537.74	46.81
537.91	60.85
538.08	30.43
538.25	53.83
538.42	39.79
538.59	51.49
538.75	30.43
538.92	14.04
539.09	25.75
539.26	30.43
539.43	86.60
539.60	60.85
539.77	88.94
539.94	93.62
540.11	42.13
540.28	65.54
540.44	53.83
540.61	7.02
540.78	60.85
540.95	95.96
541.12	51.49
541.29	65.54
541.46	37.45
541.62	28.09
541.79	14.04
541.96	14.04
542.13	25.75
542.30	63.19
542.47	0.00
542.63	0.00
542.80	58.51
542.97	23.41
543.14	16.38
543.31	0.00
543.48	0.00
543.64	0.00
543.81	16.38
543.98	63.19
544.15	63.19
544.32	37.45
544.48	39.79
544.65	49.15
544.82	0.00
544.99	0.00
545.16	56.17
545.32	28.09
545.49	37.45
545.66	65.54
545.83	56.17
546.00	28.09
546.16	53.83
546.33	112.35
546.50	100.64
546.67	72.56
546.83	23.41
547.00	60.85
547.17	30.43
547.34	37.45
547.50	9.36
547.67	16.38
547.84	9.36
548.00	37.45
548.17	37.45
548.34	11.70
548.51	37.45
548.67	18.72
548.84	0.00
549.01	23.41
549.18	28.09
549.34	0.00
549.51	65.54
549.68	65.54
549.84	39.79
550.01	60.85
550.18	14.04
550.34	63.19
550.51	67.88
550.68	60.85
550.84	28.09
551.01	32.77
551.18	79.58
551.34	91.28
551.51	0.00
551.68	51.49
551.84	56.17
552.01	21.06
552.18	102.98
552.34	11.70
552.51	0.00
552.68	9.36
552.84	49.15
553.01	79.58
553.18	23.41
553.34	44.47
553.51	56.17
553.67	0.00
553.84	9.36
554.01	93.62
554.17	51.49
554.34	72.56
554.51	35.11
554.67	56.17
554.84	23.41
555.00	60.85
555.17	0.00
555.33	56.17
555.50	30.43
555.67	95.96
555.83	44.47
556.00	7.02
556.16	107.66
556.33	70.22
556.50	0.00
556.66	23.41
556.83	32.77
556.99	53.83
557.16	86.60
557.32	0.00
557.49	0.00
557.65	28.09
557.82	105.32
557.98	0.00
558.15	11.70
558.32	98.30
558.48	49.15
558.65	56.17
558.81	32.77
558.98	11.70
559.14	23.41
559.31	100.64
559.47	11.70
559.64	16.38
559.80	4.68
559.97	77.24
560.13	0.00
560.30	39.79
560.46	39.79
560.63	0.00
560.79	37.45
560.96	51.49
561.12	0.00
561.29	70.22
561.45	56.17
561.61	42.13
561.78	4.68
561.94	74.90
562.11	98.30
562.27	7.02
562.44	37.45
562.60	0.00
562.77	102.98
562.93	0.00
563.10	0.00
563.26	28.09
563.42	35.11
563.59	37.45
563.75	93.62
563.92	63.19
564.08	4.68
564.24	72.56
564.41	0.00
564.57	28.09
564.74	72.56
564.90	65.54
565.07	56.17
565.23	56.17
565.39	72.56
565.56	60.85
565.72	58.51
565.88	105.32
566.05	86.60
566.21	53.83
566.38	70.22
566.54	117.03
566.70	25.75
566.87	0.00
567.03	11.70
567.19	72.56
567.36	102.98
567.52	25.75
567.68	70.22
567.85	14.04
568.01	60.85
568.17	60.85
568.34	0.00
568.50	63.19
568.66	126.39
568.83	56.17
568.99	56.17
569.15	44.47
569.32	70.22
569.48	30.43
569.64	63.19
569.81	32.77
569.97	60.85
570.13	84.26
570.30	133.41
570.46	32.77
570.62	39.79
570.78	21.06
570.95	4.68
571.11	39.79
571.27	86.60
571.43	39.79
571.60	60.85
571.76	121.71
571.92	37.45
572.09	58.51
572.25	88.94
572.41	72.56
572.57	51.49
572.74	18.72
572.90	37.45
573.06	51.49
573.22	70.22
573.38	112.35
573.55	11.70
573.71	39.79
573.87	0.00
574.03	0.00
574.20	88.94
574.36	81.92
574.52	67.88
574.68	0.00
574.84	30.43
575.01	35.11
575.17	21.06
575.33	0.00
575.49	9.36
575.65	46.81
575.82	67.88
575.98	63.19
576.14	56.17
576.30	37.45
576.46	35.11
576.62	30.43
576.79	23.41
576.95	65.54
577.11	0.00
577.27	32.77
577.43	114.69
577.59	107.66
577.75	4.68
577.92	23.41
578.08	37.45
578.24	9.36
578.40	7.02
578.56	37.45
578.72	49.15
578.88	0.00
579.04	60.85
579.21	67.88
579.37	56.17
579.53	46.81
579.69	58.51
579.85	25.75
580.01	70.22
580.17	42.13
580.33	72.56
580.49	11.70
580.65	30.43
580.82	42.13
580.98	0.00
581.14	91.28
581.30	58.51
581.46	0.00
581.62	56.17
581.78	56.17
581.94	77.24
582.10	70.22
582.26	23.41
582.42	28.09
582.58	16.38
582.74	77.24
582.90	65.54
583.06	39.79
583.22	0.00
583.38	142.77
583.54	35.11
583.70	23.41
583.86	32.77
584.02	70.22
584.18	79.58
584.34	60.85
584.50	147.45
584.66	833.23
584.82	2090.10
584.98	2593.31
585.14	2289.04
585.30	1462.83
585.46	926.85
585.62	603.86
585.78	344.06
585.94	173.20
586.10	51.49
586.26	65.54
586.42	0.00
586.58	60.85
586.74	4.68
586.90	105.32
587.06	0.00
587.22	2.34
587.38	0.00
587.54	0.00
587.70	124.05
587.86	191.92
588.02	102.98
588.18	161.50
588.34	117.03
588.49	102.98
588.65	56.17
588.81	21.06
588.97	65.54
589.13	65.54
589.29	11.70
589.45	16.38
589.61	70.22
589.77	21.06
589.93	100.64
590.08	70.22
590.24	107.66
590.40	16.38
590.56	16.38
590.72	72.56
590.88	0.00
591.04	0.00
591.20	93.62
591.35	0.00
591.51	14.04
591.67	49.15
591.83	30.43
591.99	67.88
592.15	60.85
592.31	23.41
592.46	60.85
592.62	42.13
592.78	14.04
592.94	30.43
593.10	21.06
593.26	9.36
593.41	21.06
593.57	67.88
593.73	16.38
593.89	177.88
594.05	273.84
594.20	360.44
594.36	360.44
594.52	259.80
594.68	182.56
594.84	140.43
594.99	58.51
595.15	84.26
595.31	49.15
595.47	63.19
595.62	88.94
595.78	53.83
595.94	72.56
596.10	0.00
596.25	14.04
596.41	11.70
596.57	7.02
596.73	56.17
596.88	46.81
597.04	0.00
597.20	149.79
597.36	86.60
597.51	98.30
597.67	42.13
597.83	42.13
597.99	100.64
598.14	4.68
598.30	42.13
598.46	0.00
598.61	35.11
598.77	100.64
598.93	18.72
599.09	0.00
599.24	0.00
599.40	39.79
599.56	119.37
599.71	44.47
599.87	11.70
600.03	21.06
600.18	21.06
600.34	44.47
600.50	107.66
600.65	37.45
600.81	93.62
600.97	56.17
601.12	21.06
601.28	2.34
601.44	46.81
601.59	37.45
601.75	11.70
601.91	49.15
602.06	46.81
602.22	0.00
602.37	63.19
602.53	84.26
602.69	81.92
602.84	175.54
603.00	63.19
603.16	88.94
603.31	91.28
603.47	91.28
603.62	32.77
603.78	0.00
603.94	37.45
604.09	42.13
604.25	44.47
604.40	30.43
604.56	37.45
604.71	86.60
604.87	0.00
605.03	25.75
605.18	0.00
605.34	0.00
605.49	25.75
605.65	0.00
605.80	49.15
605.96	56.17
606.12	30.43
606.27	65.54
606.43	16.38
606.58	49.15
606.74	91.28
606.89	147.45
607.05	278.52
607.20	381.51
607.36	224.69
607.51	187.24
607.67	203.63
607.82	67.88
607.98	70.22
608.13	81.92
608.29	100.64
608.44	98.30
608.60	49.15
608.75	114.69
608.91	131.07
609.06	236.39
609.22	416.62
609.37	596.84
609.53	440.02
609.68	351.08
609.84	198.95
609.99	175.54
610.15	117.03
610.30	30.43
610.46	51.49
610.61	81.92
610.76	23.41
610.92	35.11
611.07	35.11
611.23	0.00
611.38	37.45
611.54	65.54
611.69	105.32
611.84	74.90
612.00	44.47
612.15	0.00
612.31	32.77
612.46	25.75
612.62	63.19
612.77	84.26
612.92	74.90
613.08	65.54
613.23	14.04
613.39	39.79
613.54	0.00
613.69	191.92
613.85	568.75
614.00	784.08
614.15	814.51
614.31	657.69
614.46	402.57
614.62	280.86
614.77	227.03
614.92	105.32
615.08	28.09
615.23	81.92
615.38	39.79
615.54	114.69
615.69	84.26
615.84	46.81
616.00	159.16
616.15	189.58
616.30	217.67
616.46	187.24
616.61	140.43
616.76	98.30
616.92	37.45
617.07	88.94
617.22	46.81
617.37	74.90
617.53	0.00
617.68	81.92
617.83	60.85
617.99	56.17
618.14	100.64
618.29	107.66
618.45	0.00
618.60	16.38
618.75	56.17
618.90	63.19
619.06	98.30
619.21	28.09
619.36	21.06
619.51	32.77
619.67	88.94
619.82	0.00
619.97	0.00
620.12	72.56
620.28	56.17
620.43	18.72
620.58	39.79
620.73	0.00
620.89	131.07
621.04	23.41
621.19	72.56
621.34	100.64
621.49	210.65
621.65	124.05
621.80	110.01
621.95	37.45
622.10	63.19
622.25	0.00
622.41	88.94
622.56	35.11
622.71	98.30
622.86	23.41
623.01	72.56
623.16	67.88
623.32	72.56
623.47	0.00
623.62	84.26
623.77	7.02
623.92	70.22
624.07	0.00
624.23	7.02
624.38	0.00
624.53	39.79
624.68	7.02
624.83	98.30
624.98	112.35
625.13	79.58
625.29	14.04
625.44	14.04
625.59	35.11
625.74	28.09
625.89	21.06
626.04	107.66
626.19	299.59
626.34	437.68
626.49	447.04
626.65	311.29
626.80	201.29
626.95	147.45
627.10	135.75
627.25	74.90
627.40	37.45
627.55	21.06
627.70	0.00
627.85	46.81
628.00	0.00
628.15	39.79
628.30	72.56
628.45	0.00
628.60	9.36
628.76	32.77
628.91	95.96
629.06	0.00
629.21	56.17
629.36	32.77
629.51	51.49
629.66	0.00
629.81	0.00
629.96	119.37
630.11	102.98
630.26	154.48
630.41	93.62
630.56	117.03
630.71	53.83
630.86	67.88
631.01	2.34
631.16	67.88
631.31	39.79
631.46	30.43
631.61	2.34
631.76	0.00
631.91	0.00
632.06	11.70
632.21	86.60
632.36	0.00
632.51	79.58
632.66	23.41
632.81	72.56
632.96	217.67
633.10	271.50
633.25	283.20
633.40	236.39
633.55	266.82
633.70	161.50
633.85	147.45
634.00	21.06
634.15	42.13
634.30	63.19
634.45	70.22
634.60	67.88
634.75	74.90
634.90	49.15
635.05	0.00
635.19	0.00
635.34	30.43
635.49	2.34
635.64	11.70
635.79	37.45
635.94	72.56
636.09	0.00
636.24	9.36
636.39	0.00
636.53	16.38
636.68	0.00
636.83	4.68
636.98	67.88
637.13	0.00
637.28	65.54
637.43	37.45
637.57	65.54
637.72	149.79
637.87	362.78
638.02	524.28
638.17	540.66
638.32	470.45
638.46	250.44
638.61	203.63
638.76	212.99
638.91	91.28
639.06	18.72
639.20	110.01
639.35	21.06
639.50	102.98
639.65	191.92
639.80	521.94
639.94	870.68
640.09	849.61
640.24	624.92
640.39	543.00
640.54	337.04
640.68	166.18
640.83	173.20
640.98	35.11
641.13	32.77
641.27	107.66
641.42	131.07
641.57	32.77
641.72	74.90
641.86	65.54
642.01	63.19
642.16	37.45
642.31	91.28
642.45	70.22
642.60	0.00
642.75	0.00
642.90	67.88
643.04	49.15
643.19	11.70
643.34	105.32
643.48	35.11
643.63	7.02
643.78	63.19
643.93	86.60
644.07	56.17
644.22	11.70
644.37	63.19
644.51	16.38
644.66	105.32
644.81	49.15
644.95	74.90
645.10	0.00
645.25	2.34
645.39	28.09
645.54	23.41
645.69	67.88
645.83	42.13
645.98	0.00
646.13	86.60
646.27	0.00
646.42	11.70
646.57	0.00
646.71	51.49
646.86	95.96
647.00	93.62
647.15	18.72
647.30	30.43
647.44	53.83
647.59	81.92
647.74	74.90
647.88	7.02
648.03	14.04
648.17	70.22
648.32	65.54
648.47	0.00
648.61	0.00
648.76	0.00
648.90	44.47
649.05	70.22
649.20	25.75
649.34	44.47
649.49	0.00
649.63	44.47
649.78	56.17
649.92	63.19
650.07	168.52
650.21	276.18
650.36	430.66
650.51	451.72
650.65	407.25
650.80	234.05
650.94	156.82
651.09	95.96
651.23	84.26
651.38	28.09
651.52	28.09
651.67	32.77
651.81	0.00
651.96	42.13
652.10	58.51
652.25	105.32
652.39	28.09
652.54	49.15
652.68	58.51
652.83	32.77
652.97	201.29
653.12	224.69
653.26	159.16
653.41	154.48
653.55	147.45
653.70	51.49
653.84	74.90
653.99	23.41
654.13	23.41
654.27	30.43
654.42	37.45
654.56	58.51
654.71	86.60
654.85	72.56
655.00	0.00
655.14	58.51
655.29	21.06
655.43	44.47
655.57	42.13
655.72	88.94
655.86	0.00
656.01	44.47
656.15	30.43
656.30	0.00
656.44	49.15
656.58	14.04
656.73	67.88
656.87	0.00
657.01	0.00
657.16	53.83
657.30	23.41
657.45	63.19
657.59	0.00
657.73	4.68
657.88	42.13
658.02	88.94
658.16	23.41
658.31	25.75
658.45	35.11
658.60	35.11
658.74	0.00
658.88	67.88
659.03	86.60
659.17	35.11
659.31	72.56
659.46	154.48
659.60	142.77
659.74	252.78
659.89	180.22
660.03	149.79
660.17	170.86
660.32	77.24
660.46	23.41
660.60	4.68
660.74	30.43
660.89	0.00
661.03	23.41
661.17	67.88
661.32	70.22
661.46	74.90
661.60	56.17
661.74	28.09
661.89	11.70
662.03	21.06
662.17	67.88
662.31	58.51
662.46	25.75
662.60	72.56
662.74	21.06
662.88	35.11
663.03	51.49
663.17	53.83
663.31	14.04
663.45	56.17
663.60	98.30
663.74	0.00
663.88	0.00
664.02	39.79
664.17	0.00
664.31	30.43
664.45	0.00
664.59	65.54
664.73	32.77
664.88	37.45
665.02	0.00
665.16	32.77
665.30	0.00
665.44	63.19
665.59	42.13
665.73	65.54
665.87	11.70
666.01	30.43
666.15	0.00
666.29	0.00
666.44	60.85
666.58	114.69
666.72	0.00
666.86	4.68
667.00	98.30
667.14	35.11
667.28	91.28
667.43	168.52
667.57	374.49
667.71	374.49
667.85	367.46
667.99	205.97
668.13	161.50
668.27	63.19
668.41	91.28
668.56	42.13
668.70	88.94
668.84	0.00
668.98	84.26
669.12	21.06
669.26	81.92
669.40	67.88
669.54	49.15
669.68	63.19
669.82	46.81
669.96	46.81
670.10	28.09
670.25	30.43
670.39	39.79
670.53	0.00
670.67	53.83
670.81	25.75
670.95	88.94
671.09	18.72
671.23	100.64
671.37	215.33
671.51	330.02
671.65	203.63
671.79	205.97
671.93	147.45
672.07	114.69
672.21	84.26
672.35	93.62
672.49	63.19
672.63	44.47
672.77	0.00
672.91	18.72
673.05	7.02
673.19	14.04
673.33	46.81
673.47	32.77
673.61	7.02
673.75	0.00
673.89	0.00
674.03	0.00
674.17	37.45
674.31	11.70
674.45	95.96
674.59	91.28
674.73	84.26
674.87	95.96
675.01	51.49
675.15	9.36
675.29	0.00
675.43	51.49
675.56	0.00
675.70	39.79
675.84	0.00
675.98	67.88
676.12	0.00
676.26	0.00
676.40	18.72
676.54	0.00
676.68	16.38
676.82	0.00
676.96	67.88
677.10	30.43
677.23	0.00
677.37	25.75
677.51	70.22
677.65	32.77
677.79	25.75
677.93	77.24
678.07	98.30
678.21	63.19
678.34	16.38
678.48	51.49
678.62	49.15
678.76	49.15
678.90	0.00
679.04	0.00
679.18	49.15
679.31	9.36
679.45	0.00
679.59	11.70
679.73	25.75
679.87	25.75
680.00	32.77
680.14	56.17
680.28	14.04
680.42	32.77
680.56	65.54
680.70	16.38
680.83	0.00
680.97	18.72
681.11	7.02
681.25	28.09
681.39	0.00
681.52	16.38
681.66	0.00
681.80	58.51
681.94	0.00
682.07	11.70
682.21	49.15
682.35	70.22
682.49	0.00
682.62	42.13
682.76	102.98
682.90	100.64
683.04	11.70
683.17	88.94
683.31	91.28
683.45	56.17
683.59	58.51
683.72	0.00
683.86	60.85
684.00	86.60
684.13	65.54
684.27	51.49
684.41	46.81
684.55	102.98
684.68	0.00
684.82	32.77
684.96	0.00
685.09	28.09
685.23	49.15
685.37	7.02
685.50	51.49
685.64	0.00
685.78	37.45
685.91	21.06
686.05	2.34
686.19	67.88
686.32	21.06
686.46	0.00
686.60	51.49
686.73	72.56
686.87	81.92
687.01	114.69
687.14	72.56
687.28	2.34
687.42	0.00
687.55	37.45
687.69	32.77
687.82	0.00
687.96	35.11
688.10	91.28
688.23	0.00
688.37	23.41
688.50	72.56
688.64	53.83
688.78	72.56
688.91	42.13
689.05	25.75
689.18	49.15
689.32	11.70
689.46	30.43
689.59	46.81
689.73	65.54
689.86	0.00
690.00	23.41
690.13	74.90
690.27	42.13
690.41	49.15
690.54	11.70
690.68	117.03
690.81	79.58
690.95	79.58
691.08	0.00
691.22	0.00
691.35	9.36
691.49	16.38
691.62	9.36
691.76	51.49
691.89	49.15
692.03	28.09
692.16	58.51
692.30	70.22
692.43	98.30
692.57	74.90
692.70	194.26
692.84	147.45
692.97	208.31
693.11	84.26
693.24	67.88
693.38	100.64
693.51	77.24
693.65	60.85
693.78	60.85
693.92	65.54
694.05	7.02
694.19	14.04
694.32	30.43
694.45	21.06
694.59	25.75
694.72	0.00
694.86	67.88
694.99	65.54
695.13	7.02
695.26	79.58
695.39	70.22
695.53	49.15
695.66	0.00
695.80	84.26
695.93	14.04
696.07	23.41
696.20	32.77
696.33	0.00
696.47	4.68
696.60	42.13
696.73	56.17
696.87	51.49
697.00	119.37
697.14	2.34
697.27	72.56
697.40	16.38
697.54	0.00
697.67	42.13
697.80	30.43
697.94	56.17
698.07	14.04
698.21	39.79
698.34	37.45
698.47	35.11
698.61	21.06
698.74	0.00
698.87	49.15
699.01	102.98
699.14	0.00
699.27	44.47
699.40	79.58
699.54	67.88
699.67	86.60
699.80	37.45
699.94	23.41
700.07	77.24
700.20	49.15
700.34	81.92
700.47	32.77
700.60	37.45
700.73	0.00
700.87	0.00
701.00	21.06
701.13	65.54
701.26	14.04
701.40	30.43
701.53	0.00
701.66	72.56
701.79	51.49
701.93	46.81
702.06	79.58
702.19	58.51
702.32	25.75
702.46	35.11
702.59	0.00
702.72	42.13
702.85	140.43
702.99	266.82
703.12	341.72
703.25	287.89
703.38	250.44
703.51	301.93
703.65	220.01
703.78	135.75
703.91	81.92
704.04	16.38
704.17	100.64
704.31	56.17
704.44	25.75
704.57	14.04
704.70	21.06
704.83	0.00
704.96	72.56
705.10	65.54
705.23	42.13
>>>>>End Processed Spectral Data<<<<<
