SpectraSuite Data File
++++++++++++++++++++++++++++++++++++
Date: Fri Oct 04 12:13:39 GMT-05:00 2013
User: price-jones
Dark Spectrum Present: No
Reference Spectrum Present: No
Number of Sampled Component Spectra: 1
Spectrometers: USB2+H05261
Integration Time (usec): 10000 (USB2+H05261)
Spectra Averaged: 1 (USB2+H05261)
Boxcar Smoothing: 0 (USB2+H05261)
Correct for Electrical Dark: No (USB2+H05261)
Strobe/Lamp Enabled: No (USB2+H05261)
Correct for Detector Non-linearity: No (USB2+H05261)
Correct for Stray Light: No (USB2+H05261)
Number of Pixels in Processed Spectrum: 2048
>>>>>Begin Processed Spectral Data<<<<<
365.73	44.47
365.92	44.47
366.12	44.47
366.32	0.00
366.52	0.00
366.72	0.00
366.91	0.00
367.11	0.00
367.31	0.00
367.51	0.00
367.70	0.00
367.90	0.00
368.10	0.00
368.30	0.00
368.49	0.00
368.69	0.00
368.89	0.00
369.09	0.00
369.28	0.00
369.48	0.00
369.68	0.00
369.87	0.00
370.07	0.00
370.27	0.00
370.47	0.00
370.66	0.00
370.86	0.00
371.06	0.00
371.25	0.00
371.45	91.28
371.65	0.00
371.84	0.00
372.04	0.00
372.24	0.00
372.44	60.85
372.63	0.00
372.83	21.06
373.03	0.00
373.22	4.68
373.42	4.68
373.62	0.00
373.81	0.00
374.01	56.17
374.21	42.13
374.40	0.00
374.60	42.13
374.79	0.00
374.99	4.68
375.19	46.81
375.38	23.41
375.58	0.00
375.78	18.72
375.97	67.88
376.17	14.04
376.37	7.02
376.56	63.19
376.76	16.38
376.95	0.00
377.15	60.85
377.35	39.79
377.54	28.09
377.74	53.83
377.93	18.72
378.13	49.15
378.33	93.62
378.52	0.00
378.72	100.64
378.91	14.04
379.11	32.77
379.31	0.00
379.50	0.00
379.70	44.47
379.89	0.00
380.09	0.00
380.28	28.09
380.48	32.77
380.68	39.79
380.87	91.28
381.07	0.00
381.26	7.02
381.46	11.70
381.65	21.06
381.85	16.38
382.04	0.00
382.24	58.51
382.43	18.72
382.63	46.81
382.83	0.00
383.02	0.00
383.22	0.00
383.41	126.39
383.61	14.04
383.80	0.00
384.00	49.15
384.19	56.17
384.39	32.77
384.58	74.90
384.78	0.00
384.97	16.38
385.17	30.43
385.36	49.15
385.56	0.00
385.75	2.34
385.95	2.34
386.14	21.06
386.34	0.00
386.53	32.77
386.72	63.19
386.92	18.72
387.11	9.36
387.31	11.70
387.50	9.36
387.70	37.45
387.89	0.00
388.09	58.51
388.28	44.47
388.48	42.13
388.67	37.45
388.86	23.41
389.06	126.39
389.25	0.00
389.45	0.00
389.64	100.64
389.84	0.00
390.03	18.72
390.22	35.11
390.42	42.13
390.61	0.00
390.81	0.00
391.00	0.00
391.19	21.06
391.39	0.00
391.58	53.83
391.78	9.36
391.97	4.68
392.16	77.24
392.36	9.36
392.55	7.02
392.75	70.22
392.94	18.72
393.13	49.15
393.33	16.38
393.52	14.04
393.71	88.94
393.91	4.68
394.10	23.41
394.29	18.72
394.49	84.26
394.68	0.00
394.88	88.94
395.07	11.70
395.26	60.85
395.46	25.75
395.65	0.00
395.84	14.04
396.04	74.90
396.23	88.94
396.42	0.00
396.62	60.85
396.81	56.17
397.00	0.00
397.19	2.34
397.39	30.43
397.58	0.00
397.77	28.09
397.97	0.00
398.16	42.13
398.35	18.72
398.55	44.47
398.74	91.28
398.93	44.47
399.12	53.83
399.32	0.00
399.51	0.00
399.70	46.81
399.90	0.00
400.09	70.22
400.28	79.58
400.47	30.43
400.67	93.62
400.86	28.09
401.05	18.72
401.24	25.75
401.44	28.09
401.63	0.00
401.82	0.00
402.01	30.43
402.21	2.34
402.40	53.83
402.59	0.00
402.78	0.00
402.97	58.51
403.17	32.77
403.36	79.58
403.55	86.60
403.74	49.15
403.93	42.13
404.13	32.77
404.32	128.73
404.51	77.24
404.70	18.72
404.89	0.00
405.09	9.36
405.28	79.58
405.47	0.00
405.66	95.96
405.85	51.49
406.05	7.02
406.24	67.88
406.43	21.06
406.62	35.11
406.81	21.06
407.00	84.26
407.20	114.69
407.39	46.81
407.58	39.79
407.77	18.72
407.96	46.81
408.15	138.09
408.34	0.00
408.54	53.83
408.73	49.15
408.92	37.45
409.11	7.02
409.30	30.43
409.49	0.00
409.68	28.09
409.87	42.13
410.07	39.79
410.26	0.00
410.45	14.04
410.64	51.49
410.83	28.09
411.02	58.51
411.21	25.75
411.40	0.00
411.59	0.00
411.78	100.64
411.98	23.41
412.17	30.43
412.36	23.41
412.55	35.11
412.74	4.68
412.93	51.49
413.12	0.00
413.31	14.04
413.50	39.79
413.69	0.00
413.88	0.00
414.07	42.13
414.26	28.09
414.45	49.15
414.64	0.00
414.83	79.58
415.02	0.00
415.22	63.19
415.41	30.43
415.60	0.00
415.79	14.04
415.98	65.54
416.17	98.30
416.36	14.04
416.55	46.81
416.74	58.51
416.93	37.45
417.12	30.43
417.31	37.45
417.50	44.47
417.69	91.28
417.88	53.83
418.07	14.04
418.26	84.26
418.45	18.72
418.64	98.30
418.83	70.22
419.02	4.68
419.21	46.81
419.39	11.70
419.58	102.98
419.77	49.15
419.96	46.81
420.15	81.92
420.34	42.13
420.53	39.79
420.72	0.00
420.91	81.92
421.10	23.41
421.29	37.45
421.48	58.51
421.67	74.90
421.86	30.43
422.05	16.38
422.24	32.77
422.43	79.58
422.61	42.13
422.80	21.06
422.99	42.13
423.18	77.24
423.37	0.00
423.56	28.09
423.75	0.00
423.94	42.13
424.13	21.06
424.32	65.54
424.50	0.00
424.69	14.04
424.88	67.88
425.07	14.04
425.26	63.19
425.45	49.15
425.64	23.41
425.83	77.24
426.01	46.81
426.20	0.00
426.39	53.83
426.58	14.04
426.77	63.19
426.96	2.34
427.15	18.72
427.33	0.00
427.52	0.00
427.71	70.22
427.90	0.00
428.09	72.56
428.28	39.79
428.46	42.13
428.65	65.54
428.84	42.13
429.03	11.70
429.22	0.00
429.40	25.75
429.59	23.41
429.78	56.17
429.97	18.72
430.16	0.00
430.34	56.17
430.53	70.22
430.72	49.15
430.91	9.36
431.10	32.77
431.28	25.75
431.47	37.45
431.66	35.11
431.85	0.00
432.03	56.17
432.22	39.79
432.41	44.47
432.60	60.85
432.79	37.45
432.97	37.45
433.16	23.41
433.35	77.24
433.54	95.96
433.72	0.00
433.91	60.85
434.10	46.81
434.28	58.51
434.47	9.36
434.66	0.00
434.85	28.09
435.03	63.19
435.22	98.30
435.41	79.58
435.59	121.71
435.78	86.60
435.97	121.71
436.16	184.90
436.34	44.47
436.53	98.30
436.72	51.49
436.90	84.26
437.09	2.34
437.28	39.79
437.46	0.00
437.65	7.02
437.84	44.47
438.02	0.00
438.21	35.11
438.40	67.88
438.58	91.28
438.77	46.81
438.96	77.24
439.14	9.36
439.33	42.13
439.52	84.26
439.70	14.04
439.89	46.81
440.08	72.56
440.26	100.64
440.45	67.88
440.63	0.00
440.82	9.36
441.01	70.22
441.19	58.51
441.38	56.17
441.57	70.22
441.75	95.96
441.94	63.19
442.12	0.00
442.31	42.13
442.50	56.17
442.68	88.94
442.87	51.49
443.05	67.88
443.24	0.00
443.43	70.22
443.61	65.54
443.80	35.11
443.98	32.77
444.17	0.00
444.35	23.41
444.54	170.86
444.73	107.66
444.91	0.00
445.10	53.83
445.28	93.62
445.47	23.41
445.65	53.83
445.84	18.72
446.02	84.26
446.21	44.47
446.39	72.56
446.58	0.00
446.77	28.09
446.95	100.64
447.14	72.56
447.32	32.77
447.51	42.13
447.69	72.56
447.88	117.03
448.06	100.64
448.25	77.24
448.43	102.98
448.62	105.32
448.80	46.81
448.99	56.17
449.17	119.37
449.36	21.06
449.54	79.58
449.73	42.13
449.91	88.94
450.10	51.49
450.28	65.54
450.46	42.13
450.65	112.35
450.83	0.00
451.02	0.00
451.20	67.88
451.39	60.85
451.57	107.66
451.76	32.77
451.94	63.19
452.13	60.85
452.31	53.83
452.49	91.28
452.68	7.02
452.86	72.56
453.05	88.94
453.23	32.77
453.42	58.51
453.60	86.60
453.78	98.30
453.97	91.28
454.15	39.79
454.34	53.83
454.52	107.66
454.70	72.56
454.89	44.47
455.07	56.17
455.26	77.24
455.44	0.00
455.62	63.19
455.81	18.72
455.99	65.54
456.17	37.45
456.36	79.58
456.54	88.94
456.73	63.19
456.91	53.83
457.09	65.54
457.28	42.13
457.46	67.88
457.64	65.54
457.83	7.02
458.01	18.72
458.19	30.43
458.38	0.00
458.56	88.94
458.74	67.88
458.93	100.64
459.11	11.70
459.29	46.81
459.48	46.81
459.66	81.92
459.84	37.45
460.03	4.68
460.21	23.41
460.39	65.54
460.57	70.22
460.76	9.36
460.94	37.45
461.12	126.39
461.31	65.54
461.49	37.45
461.67	95.96
461.85	60.85
462.04	35.11
462.22	128.73
462.40	0.00
462.59	9.36
462.77	23.41
462.95	11.70
463.13	88.94
463.32	51.49
463.50	0.00
463.68	46.81
463.86	0.00
464.05	56.17
464.23	28.09
464.41	58.51
464.59	65.54
464.78	0.00
464.96	16.38
465.14	14.04
465.32	46.81
465.50	46.81
465.69	25.75
465.87	44.47
466.05	74.90
466.23	23.41
466.41	56.17
466.60	53.83
466.78	91.28
466.96	21.06
467.14	79.58
467.32	16.38
467.51	30.43
467.69	37.45
467.87	21.06
468.05	117.03
468.23	51.49
468.41	35.11
468.60	119.37
468.78	56.17
468.96	46.81
469.14	56.17
469.32	67.88
469.50	46.81
469.69	72.56
469.87	70.22
470.05	56.17
470.23	63.19
470.41	46.81
470.59	9.36
470.77	114.69
470.95	58.51
471.14	84.26
471.32	28.09
471.50	18.72
471.68	70.22
471.86	53.83
472.04	65.54
472.22	53.83
472.40	23.41
472.58	107.66
472.77	46.81
472.95	53.83
473.13	72.56
473.31	42.13
473.49	37.45
473.67	86.60
473.85	112.35
474.03	42.13
474.21	84.26
474.39	37.45
474.57	131.07
474.75	93.62
474.93	128.73
475.12	42.13
475.30	37.45
475.48	28.09
475.66	79.58
475.84	65.54
476.02	0.00
476.20	4.68
476.38	86.60
476.56	93.62
476.74	81.92
476.92	84.26
477.10	37.45
477.28	81.92
477.46	74.90
477.64	0.00
477.82	46.81
478.00	56.17
478.18	44.47
478.36	147.45
478.54	11.70
478.72	131.07
478.90	7.02
479.08	4.68
479.26	53.83
479.44	86.60
479.62	67.88
479.80	49.15
479.98	65.54
480.16	154.48
480.34	51.49
480.52	11.70
480.70	67.88
480.88	86.60
481.06	51.49
481.24	65.54
481.41	30.43
481.59	53.83
481.77	93.62
481.95	46.81
482.13	16.38
482.31	14.04
482.49	32.77
482.67	0.00
482.85	70.22
483.03	107.66
483.21	37.45
483.39	37.45
483.57	49.15
483.74	49.15
483.92	91.28
484.10	70.22
484.28	56.17
484.46	112.35
484.64	49.15
484.82	63.19
485.00	9.36
485.18	60.85
485.35	37.45
485.53	42.13
485.71	93.62
485.89	21.06
486.07	35.11
486.25	124.05
486.43	0.00
486.61	0.00
486.78	23.41
486.96	70.22
487.14	16.38
487.32	11.70
487.50	56.17
487.68	67.88
487.85	21.06
488.03	145.11
488.21	44.47
488.39	63.19
488.57	126.39
488.75	95.96
488.92	74.90
489.10	49.15
489.28	23.41
489.46	74.90
489.64	107.66
489.81	114.69
489.99	100.64
490.17	81.92
490.35	105.32
490.53	60.85
490.70	149.79
490.88	51.49
491.06	88.94
491.24	67.88
491.41	58.51
491.59	88.94
491.77	88.94
491.95	86.60
492.13	9.36
492.30	46.81
492.48	91.28
492.66	65.54
492.84	102.98
493.01	67.88
493.19	46.81
493.37	93.62
493.54	32.77
493.72	4.68
493.90	117.03
494.08	95.96
494.25	98.30
494.43	140.43
494.61	107.66
494.79	0.00
494.96	105.32
495.14	93.62
495.32	79.58
495.49	84.26
495.67	124.05
495.85	39.79
496.02	81.92
496.20	14.04
496.38	133.41
496.55	126.39
496.73	114.69
496.91	203.63
497.09	98.30
497.26	138.09
497.44	124.05
497.62	79.58
497.79	119.37
497.97	72.56
498.14	32.77
498.32	63.19
498.50	63.19
498.67	98.30
498.85	100.64
499.03	145.11
499.20	95.96
499.38	0.00
499.56	44.47
499.73	112.35
499.91	128.73
500.08	131.07
500.26	60.85
500.44	51.49
500.61	51.49
500.79	72.56
500.97	53.83
501.14	91.28
501.32	60.85
501.49	65.54
501.67	77.24
501.84	60.85
502.02	154.48
502.20	166.18
502.37	117.03
502.55	142.77
502.72	81.92
502.90	105.32
503.07	119.37
503.25	30.43
503.43	58.51
503.60	56.17
503.78	110.01
503.95	0.00
504.13	23.41
504.30	98.30
504.48	49.15
504.65	102.98
504.83	67.88
505.01	86.60
505.18	110.01
505.36	91.28
505.53	30.43
505.71	0.00
505.88	77.24
506.06	126.39
506.23	142.77
506.41	133.41
506.58	49.15
506.76	159.16
506.93	72.56
507.11	138.09
507.28	149.79
507.46	81.92
507.63	74.90
507.81	86.60
507.98	18.72
508.16	91.28
508.33	149.79
508.50	117.03
508.68	112.35
508.85	32.77
509.03	37.45
509.20	142.77
509.38	102.98
509.55	77.24
509.73	135.75
509.90	42.13
510.08	58.51
510.25	79.58
510.42	46.81
510.60	77.24
510.77	98.30
510.95	77.24
511.12	133.41
511.30	81.92
511.47	117.03
511.64	88.94
511.82	67.88
511.99	102.98
512.17	84.26
512.34	154.48
512.51	95.96
512.69	88.94
512.86	152.13
513.04	124.05
513.21	21.06
513.38	44.47
513.56	30.43
513.73	35.11
513.90	102.98
514.08	51.49
514.25	112.35
514.43	135.75
514.60	60.85
514.77	67.88
514.95	91.28
515.12	86.60
515.29	163.84
515.47	30.43
515.64	107.66
515.81	93.62
515.99	28.09
516.16	72.56
516.33	67.88
516.51	51.49
516.68	0.00
516.85	18.72
517.03	98.30
517.20	91.28
517.37	65.54
517.54	56.17
517.72	53.83
517.89	35.11
518.06	58.51
518.24	105.32
518.41	74.90
518.58	28.09
518.75	28.09
518.93	95.96
519.10	51.49
519.27	72.56
519.45	145.11
519.62	74.90
519.79	117.03
519.96	70.22
520.14	74.90
520.31	46.81
520.48	128.73
520.65	72.56
520.83	107.66
521.00	72.56
521.17	212.99
521.34	72.56
521.52	98.30
521.69	208.31
521.86	81.92
522.03	42.13
522.20	102.98
522.38	74.90
522.55	107.66
522.72	0.00
522.89	65.54
523.07	77.24
523.24	88.94
523.41	51.49
523.58	65.54
523.75	147.45
523.92	88.94
524.10	56.17
524.27	51.49
524.44	117.03
524.61	53.83
524.78	30.43
524.96	0.00
525.13	74.90
525.30	98.30
525.47	100.64
525.64	74.90
525.81	44.47
525.98	112.35
526.16	11.70
526.33	107.66
526.50	107.66
526.67	81.92
526.84	65.54
527.01	98.30
527.18	138.09
527.36	86.60
527.53	74.90
527.70	145.11
527.87	126.39
528.04	77.24
528.21	86.60
528.38	117.03
528.55	63.19
528.72	51.49
528.89	74.90
529.07	39.79
529.24	128.73
529.41	65.54
529.58	133.41
529.75	37.45
529.92	81.92
530.09	128.73
530.26	91.28
530.43	63.19
530.60	30.43
530.77	107.66
530.94	9.36
531.11	128.73
531.28	51.49
531.46	32.77
531.63	28.09
531.80	63.19
531.97	93.62
532.14	23.41
532.31	84.26
532.48	114.69
532.65	51.49
532.82	58.51
532.99	37.45
533.16	95.96
533.33	124.05
533.50	105.32
533.67	14.04
533.84	58.51
534.01	131.07
534.18	46.81
534.35	131.07
534.52	51.49
534.69	46.81
534.86	128.73
535.03	88.94
535.20	51.49
535.37	60.85
535.54	74.90
535.71	95.96
535.88	93.62
536.05	100.64
536.22	135.75
536.38	81.92
536.55	58.51
536.72	102.98
536.89	72.56
537.06	81.92
537.23	128.73
537.40	98.30
537.57	46.81
537.74	107.66
537.91	91.28
538.08	93.62
538.25	93.62
538.42	102.98
538.59	110.01
538.75	63.19
538.92	74.90
539.09	16.38
539.26	93.62
539.43	65.54
539.60	166.18
539.77	107.66
539.94	49.15
540.11	63.19
540.28	42.13
540.44	98.30
540.61	86.60
540.78	49.15
540.95	37.45
541.12	107.66
541.29	39.79
541.46	140.43
541.62	98.30
541.79	86.60
541.96	77.24
542.13	95.96
542.30	25.75
542.47	105.32
542.63	91.28
542.80	124.05
542.97	102.98
543.14	88.94
543.31	67.88
543.48	72.56
543.64	107.66
543.81	56.17
543.98	44.47
544.15	72.56
544.32	39.79
544.48	42.13
544.65	107.66
544.82	67.88
544.99	98.30
545.16	117.03
545.32	88.94
545.49	49.15
545.66	0.00
545.83	98.30
546.00	37.45
546.16	154.48
546.33	18.72
546.50	88.94
546.67	74.90
546.83	95.96
547.00	88.94
547.17	147.45
547.34	37.45
547.50	133.41
547.67	119.37
547.84	133.41
548.00	49.15
548.17	56.17
548.34	152.13
548.51	70.22
548.67	35.11
548.84	152.13
549.01	49.15
549.18	84.26
549.34	95.96
549.51	98.30
549.68	84.26
549.84	60.85
550.01	35.11
550.18	56.17
550.34	110.01
550.51	84.26
550.68	67.88
550.84	56.17
551.01	110.01
551.18	65.54
551.34	105.32
551.51	56.17
551.68	72.56
551.84	131.07
552.01	70.22
552.18	35.11
552.34	46.81
552.51	51.49
552.68	119.37
552.84	30.43
553.01	32.77
553.18	35.11
553.34	72.56
553.51	107.66
553.67	131.07
553.84	168.52
554.01	112.35
554.17	84.26
554.34	114.69
554.51	70.22
554.67	131.07
554.84	170.86
555.00	114.69
555.17	60.85
555.33	88.94
555.50	84.26
555.67	35.11
555.83	58.51
556.00	95.96
556.16	93.62
556.33	138.09
556.50	21.06
556.66	46.81
556.83	51.49
556.99	93.62
557.16	81.92
557.32	88.94
557.49	110.01
557.65	112.35
557.82	98.30
557.98	84.26
558.15	124.05
558.32	114.69
558.48	110.01
558.65	173.20
558.81	114.69
558.98	77.24
559.14	100.64
559.31	30.43
559.47	51.49
559.64	88.94
559.80	51.49
559.97	67.88
560.13	49.15
560.30	53.83
560.46	0.00
560.63	79.58
560.79	100.64
560.96	0.00
561.12	56.17
561.29	84.26
561.45	98.30
561.61	14.04
561.78	124.05
561.94	107.66
562.11	77.24
562.27	100.64
562.44	30.43
562.60	102.98
562.77	25.75
562.93	79.58
563.10	128.73
563.26	11.70
563.42	105.32
563.59	107.66
563.75	81.92
563.92	23.41
564.08	49.15
564.24	91.28
564.41	56.17
564.57	49.15
564.74	63.19
564.90	102.98
565.07	138.09
565.23	74.90
565.39	70.22
565.56	67.88
565.72	131.07
565.88	84.26
566.05	63.19
566.21	112.35
566.38	149.79
566.54	0.00
566.70	70.22
566.87	46.81
567.03	147.45
567.19	86.60
567.36	46.81
567.52	0.00
567.68	49.15
567.85	105.32
568.01	110.01
568.17	117.03
568.34	131.07
568.50	32.77
568.66	37.45
568.83	63.19
568.99	121.71
569.15	53.83
569.32	56.17
569.48	86.60
569.64	18.72
569.81	124.05
569.97	49.15
570.13	60.85
570.30	72.56
570.46	86.60
570.62	72.56
570.78	102.98
570.95	77.24
571.11	84.26
571.27	79.58
571.43	67.88
571.60	56.17
571.76	152.13
571.92	128.73
572.09	72.56
572.25	100.64
572.41	110.01
572.57	102.98
572.74	100.64
572.90	72.56
573.06	98.30
573.22	119.37
573.38	93.62
573.55	60.85
573.71	98.30
573.87	72.56
574.03	81.92
574.20	121.71
574.36	74.90
574.52	107.66
574.68	86.60
574.84	93.62
575.01	102.98
575.17	135.75
575.33	88.94
575.49	86.60
575.65	65.54
575.82	110.01
575.98	77.24
576.14	37.45
576.30	88.94
576.46	65.54
576.62	84.26
576.79	32.77
576.95	86.60
577.11	119.37
577.27	121.71
577.43	39.79
577.59	102.98
577.75	4.68
577.92	60.85
578.08	86.60
578.24	107.66
578.40	81.92
578.56	154.48
578.72	81.92
578.88	21.06
579.04	30.43
579.21	133.41
579.37	86.60
579.53	63.19
579.69	84.26
579.85	0.00
580.01	16.38
580.17	4.68
580.33	124.05
580.49	72.56
580.65	37.45
580.82	138.09
580.98	93.62
581.14	74.90
581.30	60.85
581.46	131.07
581.62	124.05
581.78	37.45
581.94	37.45
582.10	56.17
582.26	65.54
582.42	91.28
582.58	63.19
582.74	79.58
582.90	51.49
583.06	65.54
583.22	119.37
583.38	124.05
583.54	102.98
583.70	70.22
583.86	37.45
584.02	14.04
584.18	70.22
584.34	77.24
584.50	63.19
584.66	72.56
584.82	98.30
584.98	49.15
585.14	70.22
585.30	93.62
585.46	121.71
585.62	63.19
585.78	14.04
585.94	102.98
586.10	0.00
586.26	4.68
586.42	4.68
586.58	110.01
586.74	0.00
586.90	86.60
587.06	114.69
587.22	95.96
587.38	30.43
587.54	86.60
587.70	81.92
587.86	0.00
588.02	51.49
588.18	98.30
588.34	25.75
588.49	63.19
588.65	128.73
588.81	117.03
588.97	79.58
589.13	42.13
589.29	42.13
589.45	67.88
589.61	72.56
589.77	51.49
589.93	112.35
590.08	81.92
590.24	105.32
590.40	74.90
590.56	184.90
590.72	105.32
590.88	131.07
591.04	95.96
591.20	152.13
591.35	37.45
591.51	58.51
591.67	4.68
591.83	46.81
591.99	32.77
592.15	133.41
592.31	49.15
592.46	23.41
592.62	39.79
592.78	102.98
592.94	93.62
593.10	81.92
593.26	51.49
593.41	147.45
593.57	184.90
593.73	67.88
593.89	70.22
594.05	98.30
594.20	126.39
594.36	112.35
594.52	98.30
594.68	21.06
594.84	72.56
594.99	105.32
595.15	102.98
595.31	65.54
595.47	0.00
595.62	7.02
595.78	72.56
595.94	135.75
596.10	7.02
596.25	63.19
596.41	93.62
596.57	23.41
596.73	67.88
596.88	107.66
597.04	93.62
597.20	42.13
597.36	86.60
597.51	100.64
597.67	72.56
597.83	65.54
597.99	126.39
598.14	42.13
598.30	86.60
598.46	58.51
598.61	91.28
598.77	39.79
598.93	70.22
599.09	53.83
599.24	84.26
599.40	0.00
599.56	98.30
599.71	91.28
599.87	18.72
600.03	81.92
600.18	23.41
600.34	86.60
600.50	16.38
600.65	86.60
600.81	56.17
600.97	124.05
601.12	74.90
601.28	81.92
601.44	79.58
601.59	117.03
601.75	56.17
601.91	70.22
602.06	49.15
602.22	154.48
602.37	11.70
602.53	74.90
602.69	56.17
602.84	86.60
603.00	46.81
603.16	35.11
603.31	60.85
603.47	67.88
603.62	88.94
603.78	128.73
603.94	70.22
604.09	49.15
604.25	44.47
604.40	79.58
604.56	121.71
604.71	119.37
604.87	138.09
605.03	58.51
605.18	18.72
605.34	88.94
605.49	30.43
605.65	81.92
605.80	124.05
605.96	56.17
606.12	95.96
606.27	145.11
606.43	67.88
606.58	77.24
606.74	56.17
606.89	67.88
607.05	100.64
607.20	53.83
607.36	51.49
607.51	81.92
607.67	44.47
607.82	77.24
607.98	0.00
608.13	65.54
608.29	14.04
608.44	110.01
608.60	63.19
608.75	53.83
608.91	98.30
609.06	77.24
609.22	28.09
609.37	30.43
609.53	135.75
609.68	91.28
609.84	49.15
609.99	67.88
610.15	67.88
610.30	91.28
610.46	114.69
610.61	60.85
610.76	2.34
610.92	107.66
611.07	84.26
611.23	124.05
611.38	7.02
611.54	51.49
611.69	53.83
611.84	124.05
612.00	163.84
612.15	65.54
612.31	81.92
612.46	84.26
612.62	30.43
612.77	49.15
612.92	91.28
613.08	51.49
613.23	86.60
613.39	49.15
613.54	65.54
613.69	93.62
613.85	88.94
614.00	11.70
614.15	16.38
614.31	112.35
614.46	63.19
614.62	46.81
614.77	63.19
614.92	35.11
615.08	95.96
615.23	72.56
615.38	77.24
615.54	56.17
615.69	44.47
615.84	42.13
616.00	28.09
616.15	114.69
616.30	84.26
616.46	39.79
616.61	0.00
616.76	98.30
616.92	81.92
617.07	126.39
617.22	35.11
617.37	121.71
617.53	65.54
617.68	81.92
617.83	39.79
617.99	70.22
618.14	74.90
618.29	37.45
618.45	51.49
618.60	37.45
618.75	86.60
618.90	170.86
619.06	0.00
619.21	77.24
619.36	77.24
619.51	49.15
619.67	42.13
619.82	16.38
619.97	67.88
620.12	49.15
620.28	16.38
620.43	53.83
620.58	124.05
620.73	93.62
620.89	95.96
621.04	117.03
621.19	95.96
621.34	65.54
621.49	102.98
621.65	18.72
621.80	0.00
621.95	30.43
622.10	65.54
622.25	102.98
622.41	110.01
622.56	74.90
622.71	28.09
622.86	93.62
623.01	25.75
623.16	84.26
623.32	95.96
623.47	30.43
623.62	110.01
623.77	60.85
623.92	93.62
624.07	74.90
624.23	49.15
624.38	32.77
624.53	4.68
624.68	119.37
624.83	135.75
624.98	14.04
625.13	81.92
625.29	93.62
625.44	112.35
625.59	35.11
625.74	35.11
625.89	100.64
626.04	42.13
626.19	74.90
626.34	51.49
626.49	102.98
626.65	81.92
626.80	37.45
626.95	9.36
627.10	2.34
627.25	51.49
627.40	42.13
627.55	84.26
627.70	107.66
627.85	135.75
628.00	65.54
628.15	74.90
628.30	0.00
628.45	67.88
628.60	145.11
628.76	60.85
628.91	81.92
629.06	35.11
629.21	4.68
629.36	79.58
629.51	49.15
629.66	91.28
629.81	44.47
629.96	67.88
630.11	51.49
630.26	86.60
630.41	42.13
630.56	124.05
630.71	0.00
630.86	14.04
631.01	102.98
631.16	84.26
631.31	56.17
631.46	93.62
631.61	72.56
631.76	51.49
631.91	81.92
632.06	93.62
632.21	100.64
632.36	77.24
632.51	77.24
632.66	25.75
632.81	35.11
632.96	18.72
633.10	46.81
633.25	4.68
633.40	100.64
633.55	32.77
633.70	93.62
633.85	93.62
634.00	18.72
634.15	74.90
634.30	14.04
634.45	119.37
634.60	65.54
634.75	65.54
634.90	21.06
635.05	79.58
635.19	11.70
635.34	51.49
635.49	30.43
635.64	30.43
635.79	65.54
635.94	67.88
636.09	84.26
636.24	93.62
636.39	0.00
636.53	84.26
636.68	39.79
636.83	84.26
636.98	32.77
637.13	9.36
637.28	84.26
637.43	28.09
637.57	67.88
637.72	63.19
637.87	28.09
638.02	0.00
638.17	46.81
638.32	72.56
638.46	0.00
638.61	53.83
638.76	63.19
638.91	49.15
639.06	42.13
639.20	121.71
639.35	65.54
639.50	65.54
639.65	0.00
639.80	79.58
639.94	2.34
640.09	112.35
640.24	63.19
640.39	0.00
640.54	100.64
640.68	107.66
640.83	70.22
640.98	16.38
641.13	63.19
641.27	154.48
641.42	81.92
641.57	46.81
641.72	112.35
641.86	86.60
642.01	30.43
642.16	42.13
642.31	23.41
642.45	58.51
642.60	56.17
642.75	88.94
642.90	93.62
643.04	63.19
643.19	79.58
643.34	0.00
643.48	70.22
643.63	81.92
643.78	30.43
643.93	88.94
644.07	32.77
644.22	114.69
644.37	84.26
644.51	70.22
644.66	98.30
644.81	23.41
644.95	86.60
645.10	79.58
645.25	72.56
645.39	46.81
645.54	93.62
645.69	72.56
645.83	9.36
645.98	58.51
646.13	65.54
646.27	63.19
646.42	0.00
646.57	53.83
646.71	42.13
646.86	84.26
647.00	56.17
647.15	138.09
647.30	74.90
647.44	114.69
647.59	58.51
647.74	37.45
647.88	86.60
648.03	0.00
648.17	65.54
648.32	0.00
648.47	11.70
648.61	16.38
648.76	0.00
648.90	28.09
649.05	21.06
649.20	65.54
649.34	46.81
649.49	124.05
649.63	46.81
649.78	140.43
649.92	49.15
650.07	49.15
650.21	91.28
650.36	72.56
650.51	74.90
650.65	63.19
650.80	84.26
650.94	58.51
651.09	67.88
651.23	70.22
651.38	65.54
651.52	44.47
651.67	28.09
651.81	74.90
651.96	93.62
652.10	65.54
652.25	98.30
652.39	119.37
652.54	30.43
652.68	70.22
652.83	65.54
652.97	32.77
653.12	53.83
653.26	16.38
653.41	18.72
653.55	100.64
653.70	28.09
653.84	9.36
653.99	23.41
654.13	65.54
654.27	30.43
654.42	88.94
654.56	44.47
654.71	0.00
654.85	16.38
655.00	86.60
655.14	9.36
655.29	9.36
655.43	51.49
655.57	11.70
655.72	95.96
655.86	7.02
656.01	53.83
656.15	0.00
656.30	23.41
656.44	44.47
656.58	46.81
656.73	74.90
656.87	112.35
657.01	18.72
657.16	72.56
657.30	67.88
657.45	84.26
657.59	28.09
657.73	9.36
657.88	44.47
658.02	107.66
658.16	67.88
658.31	25.75
658.45	44.47
658.60	56.17
658.74	46.81
658.88	72.56
659.03	49.15
659.17	53.83
659.31	25.75
659.46	46.81
659.60	49.15
659.74	53.83
659.89	86.60
660.03	74.90
660.17	86.60
660.32	86.60
660.46	9.36
660.60	53.83
660.74	154.48
660.89	126.39
661.03	65.54
661.17	21.06
661.32	81.92
661.46	21.06
661.60	0.00
661.74	107.66
661.89	86.60
662.03	67.88
662.17	0.00
662.31	35.11
662.46	65.54
662.60	67.88
662.74	11.70
662.88	7.02
663.03	32.77
663.17	65.54
663.31	105.32
663.45	7.02
663.60	65.54
663.74	67.88
663.88	25.75
664.02	95.96
664.17	77.24
664.31	67.88
664.45	39.79
664.59	79.58
664.73	81.92
664.88	0.00
665.02	11.70
665.16	58.51
665.30	46.81
665.44	53.83
665.59	119.37
665.73	81.92
665.87	63.19
666.01	74.90
666.15	35.11
666.29	74.90
666.44	142.77
666.58	32.77
666.72	100.64
666.86	79.58
667.00	49.15
667.14	91.28
667.28	0.00
667.43	0.00
667.57	0.00
667.71	126.39
667.85	67.88
667.99	67.88
668.13	79.58
668.27	95.96
668.41	102.98
668.56	16.38
668.70	67.88
668.84	14.04
668.98	81.92
669.12	46.81
669.26	70.22
669.40	42.13
669.54	88.94
669.68	70.22
669.82	14.04
669.96	105.32
670.10	81.92
670.25	51.49
670.39	81.92
670.53	58.51
670.67	56.17
670.81	51.49
670.95	0.00
671.09	32.77
671.23	42.13
671.37	72.56
671.51	98.30
671.65	0.00
671.79	53.83
671.93	2.34
672.07	70.22
672.21	0.00
672.35	30.43
672.49	0.00
672.63	65.54
672.77	67.88
672.91	53.83
673.05	51.49
673.19	0.00
673.33	4.68
673.47	65.54
673.61	65.54
673.75	30.43
673.89	98.30
674.03	79.58
674.17	77.24
674.31	32.77
674.45	168.52
674.59	91.28
674.73	0.00
674.87	72.56
675.01	9.36
675.15	98.30
675.29	70.22
675.43	67.88
675.56	88.94
675.70	60.85
675.84	91.28
675.98	16.38
676.12	30.43
676.26	21.06
676.40	49.15
676.54	4.68
676.68	60.85
676.82	42.13
676.96	0.00
677.10	77.24
677.23	44.47
677.37	14.04
677.51	35.11
677.65	30.43
677.79	84.26
677.93	63.19
678.07	51.49
678.21	39.79
678.34	138.09
678.48	63.19
678.62	28.09
678.76	51.49
678.90	70.22
679.04	72.56
679.18	95.96
679.31	30.43
679.45	16.38
679.59	7.02
679.73	63.19
679.87	21.06
680.00	37.45
680.14	28.09
680.28	44.47
680.42	23.41
680.56	60.85
680.70	51.49
680.83	81.92
680.97	39.79
681.11	42.13
681.25	0.00
681.39	0.00
681.52	58.51
681.66	16.38
681.80	42.13
681.94	79.58
682.07	60.85
682.21	0.00
682.35	0.00
682.49	0.00
682.62	7.02
682.76	46.81
682.90	44.47
683.04	51.49
683.17	7.02
683.31	18.72
683.45	14.04
683.59	74.90
683.72	23.41
683.86	0.00
684.00	93.62
684.13	4.68
684.27	107.66
684.41	60.85
684.55	51.49
684.68	53.83
684.82	49.15
684.96	9.36
685.09	0.00
685.23	37.45
685.37	84.26
685.50	91.28
685.64	9.36
685.78	74.90
685.91	72.56
686.05	39.79
686.19	95.96
686.32	93.62
686.46	0.00
686.60	32.77
686.73	77.24
686.87	32.77
687.01	72.56
687.14	39.79
687.28	0.00
687.42	42.13
687.55	98.30
687.69	42.13
687.82	0.00
687.96	14.04
688.10	81.92
688.23	30.43
688.37	42.13
688.50	0.00
688.64	32.77
688.78	9.36
688.91	91.28
689.05	37.45
689.18	23.41
689.32	67.88
689.46	9.36
689.59	0.00
689.73	23.41
689.86	25.75
690.00	98.30
690.13	39.79
690.27	88.94
690.41	44.47
690.54	100.64
690.68	30.43
690.81	11.70
690.95	100.64
691.08	81.92
691.22	67.88
691.35	0.00
691.49	49.15
691.62	56.17
691.76	42.13
691.89	0.00
692.03	25.75
692.16	32.77
692.30	77.24
692.43	37.45
692.57	0.00
692.70	60.85
692.84	131.07
692.97	25.75
693.11	0.00
693.24	39.79
693.38	11.70
693.51	0.00
693.65	58.51
693.78	51.49
693.92	46.81
694.05	112.35
694.19	65.54
694.32	56.17
694.45	49.15
694.59	7.02
694.72	60.85
694.86	25.75
694.99	14.04
695.13	77.24
695.26	60.85
695.39	0.00
695.53	21.06
695.66	49.15
695.80	56.17
695.93	11.70
696.07	60.85
696.20	58.51
696.33	58.51
696.47	0.00
696.60	0.00
696.73	0.00
696.87	23.41
697.00	53.83
697.14	0.00
697.27	32.77
697.40	18.72
697.54	56.17
697.67	21.06
697.80	35.11
697.94	51.49
698.07	79.58
698.21	9.36
698.34	32.77
698.47	0.00
698.61	65.54
698.74	30.43
698.87	42.13
699.01	0.00
699.14	21.06
699.27	9.36
699.40	72.56
699.54	84.26
699.67	11.70
699.80	0.00
699.94	0.00
700.07	0.00
700.20	72.56
700.34	37.45
700.47	18.72
700.60	93.62
700.73	65.54
700.87	91.28
701.00	88.94
701.13	18.72
701.26	37.45
701.40	25.75
701.53	32.77
701.66	0.00
701.79	37.45
701.93	53.83
702.06	37.45
702.19	0.00
702.32	37.45
702.46	44.47
702.59	23.41
702.72	95.96
702.85	53.83
702.99	42.13
703.12	32.77
703.25	11.70
703.38	77.24
703.51	74.90
703.65	0.00
703.78	77.24
703.91	63.19
704.04	44.47
704.17	51.49
704.31	11.70
704.44	39.79
704.57	56.17
704.70	44.47
704.83	0.00
704.96	74.90
705.10	2.34
705.23	84.26
>>>>>End Processed Spectral Data<<<<<
