SpectraSuite Data File
++++++++++++++++++++++++++++++++++++
Date: Fri Oct 04 12:13:36 GMT-05:00 2013
User: price-jones
Dark Spectrum Present: No
Reference Spectrum Present: No
Number of Sampled Component Spectra: 1
Spectrometers: USB2+H05261
Integration Time (usec): 10000 (USB2+H05261)
Spectra Averaged: 1 (USB2+H05261)
Boxcar Smoothing: 0 (USB2+H05261)
Correct for Electrical Dark: No (USB2+H05261)
Strobe/Lamp Enabled: No (USB2+H05261)
Correct for Detector Non-linearity: No (USB2+H05261)
Correct for Stray Light: No (USB2+H05261)
Number of Pixels in Processed Spectrum: 2048
>>>>>Begin Processed Spectral Data<<<<<
365.73	0.00
365.92	0.00
366.12	0.00
366.32	0.00
366.52	0.00
366.72	0.00
366.91	0.00
367.11	0.00
367.31	0.00
367.51	0.00
367.70	0.00
367.90	0.00
368.10	0.00
368.30	0.00
368.49	0.00
368.69	0.00
368.89	0.00
369.09	0.00
369.28	0.00
369.48	0.00
369.68	0.00
369.87	0.00
370.07	0.00
370.27	0.00
370.47	0.00
370.66	0.00
370.86	0.00
371.06	0.00
371.25	0.00
371.45	0.00
371.65	0.00
371.84	0.00
372.04	0.00
372.24	0.00
372.44	0.00
372.63	7.02
372.83	9.36
373.03	7.02
373.22	0.00
373.42	65.54
373.62	37.45
373.81	53.83
374.01	25.75
374.21	32.77
374.40	0.00
374.60	42.13
374.79	58.51
374.99	16.38
375.19	58.51
375.38	0.00
375.58	0.00
375.78	0.00
375.97	0.00
376.17	0.00
376.37	21.06
376.56	0.00
376.76	7.02
376.95	39.79
377.15	42.13
377.35	0.00
377.54	32.77
377.74	42.13
377.93	0.00
378.13	53.83
378.33	21.06
378.52	0.00
378.72	18.72
378.91	100.64
379.11	9.36
379.31	0.00
379.50	16.38
379.70	42.13
379.89	53.83
380.09	0.00
380.28	0.00
380.48	0.00
380.68	51.49
380.87	79.58
381.07	9.36
381.26	46.81
381.46	44.47
381.65	0.00
381.85	0.00
382.04	53.83
382.24	0.00
382.43	0.00
382.63	14.04
382.83	63.19
383.02	0.00
383.22	25.75
383.41	0.00
383.61	23.41
383.80	4.68
384.00	128.73
384.19	21.06
384.39	37.45
384.58	0.00
384.78	0.00
384.97	0.00
385.17	98.30
385.36	49.15
385.56	14.04
385.75	18.72
385.95	0.00
386.14	0.00
386.34	18.72
386.53	79.58
386.72	14.04
386.92	79.58
387.11	14.04
387.31	49.15
387.50	0.00
387.70	0.00
387.89	0.00
388.09	58.51
388.28	7.02
388.48	30.43
388.67	4.68
388.86	0.00
389.06	11.70
389.25	0.00
389.45	0.00
389.64	9.36
389.84	0.00
390.03	0.00
390.22	79.58
390.42	51.49
390.61	70.22
390.81	23.41
391.00	0.00
391.19	4.68
391.39	0.00
391.58	0.00
391.78	58.51
391.97	72.56
392.16	25.75
392.36	0.00
392.55	0.00
392.75	49.15
392.94	37.45
393.13	63.19
393.33	0.00
393.52	2.34
393.71	0.00
393.91	46.81
394.10	16.38
394.29	0.00
394.49	77.24
394.68	60.85
394.88	79.58
395.07	49.15
395.26	23.41
395.46	44.47
395.65	53.83
395.84	0.00
396.04	42.13
396.23	79.58
396.42	7.02
396.62	0.00
396.81	14.04
397.00	32.77
397.19	79.58
397.39	81.92
397.58	0.00
397.77	0.00
397.97	72.56
398.16	0.00
398.35	72.56
398.55	9.36
398.74	23.41
398.93	0.00
399.12	0.00
399.32	51.49
399.51	49.15
399.70	32.77
399.90	18.72
400.09	25.75
400.28	23.41
400.47	25.75
400.67	56.17
400.86	14.04
401.05	0.00
401.24	16.38
401.44	0.00
401.63	0.00
401.82	46.81
402.01	7.02
402.21	60.85
402.40	30.43
402.59	46.81
402.78	28.09
402.97	0.00
403.17	58.51
403.36	79.58
403.55	49.15
403.74	18.72
403.93	32.77
404.13	72.56
404.32	56.17
404.51	7.02
404.70	51.49
404.89	51.49
405.09	18.72
405.28	39.79
405.47	14.04
405.66	60.85
405.85	4.68
406.05	39.79
406.24	88.94
406.43	39.79
406.62	98.30
406.81	0.00
407.00	74.90
407.20	67.88
407.39	18.72
407.58	30.43
407.77	51.49
407.96	77.24
408.15	0.00
408.34	2.34
408.54	46.81
408.73	30.43
408.92	51.49
409.11	35.11
409.30	0.00
409.49	0.00
409.68	56.17
409.87	88.94
410.07	30.43
410.26	81.92
410.45	16.38
410.64	105.32
410.83	173.20
411.02	0.00
411.21	46.81
411.40	39.79
411.59	53.83
411.78	79.58
411.98	30.43
412.17	28.09
412.36	21.06
412.55	84.26
412.74	18.72
412.93	53.83
413.12	44.47
413.31	11.70
413.50	11.70
413.69	74.90
413.88	131.07
414.07	91.28
414.26	74.90
414.45	58.51
414.64	49.15
414.83	28.09
415.02	0.00
415.22	18.72
415.41	4.68
415.60	28.09
415.79	0.00
415.98	74.90
416.17	72.56
416.36	0.00
416.55	51.49
416.74	53.83
416.93	7.02
417.12	79.58
417.31	49.15
417.50	25.75
417.69	91.28
417.88	28.09
418.07	30.43
418.26	23.41
418.45	95.96
418.64	35.11
418.83	30.43
419.02	0.00
419.21	37.45
419.39	11.70
419.58	4.68
419.77	100.64
419.96	23.41
420.15	112.35
420.34	28.09
420.53	21.06
420.72	77.24
420.91	0.00
421.10	39.79
421.29	74.90
421.48	32.77
421.67	11.70
421.86	30.43
422.05	88.94
422.24	0.00
422.43	16.38
422.61	70.22
422.80	0.00
422.99	0.00
423.18	2.34
423.37	105.32
423.56	91.28
423.75	35.11
423.94	0.00
424.13	30.43
424.32	4.68
424.50	79.58
424.69	44.47
424.88	49.15
425.07	4.68
425.26	39.79
425.45	81.92
425.64	58.51
425.83	21.06
426.01	0.00
426.20	30.43
426.39	44.47
426.58	74.90
426.77	100.64
426.96	14.04
427.15	11.70
427.33	88.94
427.52	2.34
427.71	100.64
427.90	21.06
428.09	23.41
428.28	21.06
428.46	72.56
428.65	42.13
428.84	0.00
429.03	95.96
429.22	37.45
429.40	58.51
429.59	0.00
429.78	30.43
429.97	0.00
430.16	70.22
430.34	60.85
430.53	0.00
430.72	0.00
430.91	67.88
431.10	88.94
431.28	107.66
431.47	39.79
431.66	0.00
431.85	39.79
432.03	156.82
432.22	42.13
432.41	44.47
432.60	25.75
432.79	25.75
432.97	39.79
433.16	4.68
433.35	23.41
433.54	11.70
433.72	18.72
433.91	102.98
434.10	93.62
434.28	0.00
434.47	35.11
434.66	0.00
434.85	21.06
435.03	88.94
435.22	70.22
435.41	81.92
435.59	72.56
435.78	88.94
435.97	44.47
436.16	53.83
436.34	30.43
436.53	49.15
436.72	9.36
436.90	98.30
437.09	44.47
437.28	70.22
437.46	70.22
437.65	16.38
437.84	114.69
438.02	0.00
438.21	0.00
438.40	28.09
438.58	56.17
438.77	107.66
438.96	72.56
439.14	93.62
439.33	81.92
439.52	32.77
439.70	49.15
439.89	9.36
440.08	63.19
440.26	21.06
440.45	65.54
440.63	37.45
440.82	77.24
441.01	79.58
441.19	63.19
441.38	0.00
441.57	28.09
441.75	67.88
441.94	63.19
442.12	51.49
442.31	91.28
442.50	46.81
442.68	4.68
442.87	9.36
443.05	79.58
443.24	60.85
443.43	4.68
443.61	18.72
443.80	119.37
443.98	0.00
444.17	0.00
444.35	28.09
444.54	63.19
444.73	74.90
444.91	42.13
445.10	46.81
445.28	0.00
445.47	124.05
445.65	7.02
445.84	105.32
446.02	81.92
446.21	56.17
446.39	0.00
446.58	102.98
446.77	16.38
446.95	32.77
447.14	35.11
447.32	58.51
447.51	72.56
447.69	107.66
447.88	0.00
448.06	156.82
448.25	53.83
448.43	30.43
448.62	44.47
448.80	0.00
448.99	44.47
449.17	86.60
449.36	39.79
449.54	21.06
449.73	4.68
449.91	56.17
450.10	65.54
450.28	107.66
450.46	23.41
450.65	67.88
450.83	74.90
451.02	0.00
451.20	70.22
451.39	37.45
451.57	56.17
451.76	44.47
451.94	0.00
452.13	37.45
452.31	60.85
452.49	16.38
452.68	0.00
452.86	23.41
453.05	70.22
453.23	74.90
453.42	30.43
453.60	0.00
453.78	28.09
453.97	81.92
454.15	39.79
454.34	25.75
454.52	11.70
454.70	81.92
454.89	65.54
455.07	95.96
455.26	60.85
455.44	51.49
455.62	65.54
455.81	25.75
455.99	60.85
456.17	70.22
456.36	100.64
456.54	114.69
456.73	42.13
456.91	81.92
457.09	0.00
457.28	28.09
457.46	0.00
457.64	30.43
457.83	49.15
458.01	74.90
458.19	65.54
458.38	21.06
458.56	16.38
458.74	7.02
458.93	102.98
459.11	105.32
459.29	42.13
459.48	37.45
459.66	58.51
459.84	32.77
460.03	133.41
460.21	0.00
460.39	56.17
460.57	16.38
460.76	25.75
460.94	51.49
461.12	60.85
461.31	67.88
461.49	74.90
461.67	21.06
461.85	4.68
462.04	42.13
462.22	0.00
462.40	11.70
462.59	95.96
462.77	35.11
462.95	9.36
463.13	74.90
463.32	51.49
463.50	32.77
463.68	72.56
463.86	37.45
464.05	53.83
464.23	0.00
464.41	23.41
464.59	0.00
464.78	63.19
464.96	9.36
465.14	21.06
465.32	72.56
465.50	124.05
465.69	49.15
465.87	72.56
466.05	39.79
466.23	56.17
466.41	77.24
466.60	35.11
466.78	58.51
466.96	7.02
467.14	67.88
467.32	39.79
467.51	51.49
467.69	4.68
467.87	39.79
468.05	30.43
468.23	39.79
468.41	60.85
468.60	98.30
468.78	58.51
468.96	4.68
469.14	128.73
469.32	39.79
469.50	100.64
469.69	30.43
469.87	28.09
470.05	23.41
470.23	49.15
470.41	100.64
470.59	88.94
470.77	65.54
470.95	53.83
471.14	37.45
471.32	93.62
471.50	170.86
471.68	58.51
471.86	58.51
472.04	79.58
472.22	79.58
472.40	79.58
472.58	37.45
472.77	16.38
472.95	56.17
473.13	88.94
473.31	79.58
473.49	16.38
473.67	77.24
473.85	74.90
474.03	77.24
474.21	105.32
474.39	37.45
474.57	56.17
474.75	42.13
474.93	86.60
475.12	42.13
475.30	110.01
475.48	60.85
475.66	60.85
475.84	44.47
476.02	56.17
476.20	28.09
476.38	39.79
476.56	7.02
476.74	32.77
476.92	30.43
477.10	23.41
477.28	28.09
477.46	77.24
477.64	79.58
477.82	30.43
478.00	84.26
478.18	51.49
478.36	88.94
478.54	98.30
478.72	102.98
478.90	0.00
479.08	58.51
479.26	131.07
479.44	128.73
479.62	0.00
479.80	18.72
479.98	86.60
480.16	42.13
480.34	74.90
480.52	0.00
480.70	107.66
480.88	23.41
481.06	56.17
481.24	102.98
481.41	23.41
481.59	79.58
481.77	0.00
481.95	79.58
482.13	88.94
482.31	53.83
482.49	121.71
482.67	93.62
482.85	95.96
483.03	53.83
483.21	77.24
483.39	72.56
483.57	60.85
483.74	56.17
483.92	9.36
484.10	74.90
484.28	102.98
484.46	100.64
484.64	102.98
484.82	53.83
485.00	14.04
485.18	51.49
485.35	70.22
485.53	0.00
485.71	56.17
485.89	112.35
486.07	58.51
486.25	30.43
486.43	65.54
486.61	30.43
486.78	72.56
486.96	49.15
487.14	9.36
487.32	102.98
487.50	63.19
487.68	42.13
487.85	88.94
488.03	30.43
488.21	63.19
488.39	142.77
488.57	63.19
488.75	72.56
488.92	91.28
489.10	81.92
489.28	30.43
489.46	135.75
489.64	67.88
489.81	86.60
489.99	56.17
490.17	100.64
490.35	37.45
490.53	0.00
490.70	49.15
490.88	63.19
491.06	105.32
491.24	65.54
491.41	79.58
491.59	95.96
491.77	77.24
491.95	44.47
492.13	102.98
492.30	135.75
492.48	37.45
492.66	0.00
492.84	35.11
493.01	74.90
493.19	46.81
493.37	72.56
493.54	117.03
493.72	119.37
493.90	16.38
494.08	95.96
494.25	79.58
494.43	74.90
494.61	46.81
494.79	0.00
494.96	72.56
495.14	67.88
495.32	98.30
495.49	114.69
495.67	84.26
495.85	126.39
496.02	51.49
496.20	67.88
496.38	37.45
496.55	79.58
496.73	182.56
496.91	39.79
497.09	110.01
497.26	95.96
497.44	117.03
497.62	98.30
497.79	131.07
497.97	60.85
498.14	110.01
498.32	88.94
498.50	93.62
498.67	114.69
498.85	16.38
499.03	126.39
499.20	60.85
499.38	46.81
499.56	95.96
499.73	30.43
499.91	98.30
500.08	46.81
500.26	60.85
500.44	67.88
500.61	72.56
500.79	60.85
500.97	135.75
501.14	72.56
501.32	163.84
501.49	44.47
501.67	142.77
501.84	138.09
502.02	133.41
502.20	67.88
502.37	81.92
502.55	51.49
502.72	16.38
502.90	2.34
503.07	81.92
503.25	77.24
503.43	32.77
503.60	11.70
503.78	102.98
503.95	119.37
504.13	84.26
504.30	79.58
504.48	65.54
504.65	126.39
504.83	100.64
505.01	42.13
505.18	28.09
505.36	107.66
505.53	46.81
505.71	11.70
505.88	42.13
506.06	147.45
506.23	21.06
506.41	70.22
506.58	152.13
506.76	67.88
506.93	28.09
507.11	65.54
507.28	91.28
507.46	72.56
507.63	28.09
507.81	81.92
507.98	154.48
508.16	77.24
508.33	56.17
508.50	102.98
508.68	56.17
508.85	102.98
509.03	110.01
509.20	102.98
509.38	110.01
509.55	30.43
509.73	138.09
509.90	147.45
510.08	77.24
510.25	93.62
510.42	16.38
510.60	105.32
510.77	102.98
510.95	81.92
511.12	121.71
511.30	107.66
511.47	79.58
511.64	140.43
511.82	105.32
511.99	88.94
512.17	100.64
512.34	39.79
512.51	72.56
512.69	74.90
512.86	0.00
513.04	93.62
513.21	126.39
513.38	46.81
513.56	74.90
513.73	46.81
513.90	23.41
514.08	114.69
514.25	145.11
514.43	117.03
514.60	95.96
514.77	86.60
514.95	98.30
515.12	102.98
515.29	100.64
515.47	112.35
515.64	107.66
515.81	74.90
515.99	145.11
516.16	35.11
516.33	124.05
516.51	126.39
516.68	67.88
516.85	56.17
517.03	114.69
517.20	88.94
517.37	42.13
517.54	74.90
517.72	35.11
517.89	142.77
518.06	102.98
518.24	28.09
518.41	51.49
518.58	110.01
518.75	84.26
518.93	112.35
519.10	32.77
519.27	39.79
519.45	100.64
519.62	93.62
519.79	159.16
519.96	126.39
520.14	110.01
520.31	53.83
520.48	0.00
520.65	25.75
520.83	86.60
521.00	98.30
521.17	37.45
521.34	14.04
521.52	81.92
521.69	187.24
521.86	56.17
522.03	56.17
522.20	63.19
522.38	63.19
522.55	98.30
522.72	107.66
522.89	142.77
523.07	117.03
523.24	88.94
523.41	72.56
523.58	86.60
523.75	21.06
523.92	49.15
524.10	170.86
524.27	67.88
524.44	44.47
524.61	126.39
524.78	117.03
524.96	58.51
525.13	107.66
525.30	147.45
525.47	119.37
525.64	0.00
525.81	147.45
525.98	98.30
526.16	51.49
526.33	23.41
526.50	65.54
526.67	98.30
526.84	63.19
527.01	30.43
527.18	60.85
527.36	63.19
527.53	44.47
527.70	9.36
527.87	86.60
528.04	112.35
528.21	102.98
528.38	163.84
528.55	114.69
528.72	86.60
528.89	112.35
529.07	93.62
529.24	49.15
529.41	156.82
529.58	7.02
529.75	46.81
529.92	133.41
530.09	102.98
530.26	86.60
530.43	67.88
530.60	138.09
530.77	0.00
530.94	60.85
531.11	65.54
531.28	128.73
531.46	0.00
531.63	102.98
531.80	91.28
531.97	98.30
532.14	4.68
532.31	131.07
532.48	110.01
532.65	110.01
532.82	117.03
532.99	138.09
533.16	128.73
533.33	149.79
533.50	4.68
533.67	107.66
533.84	56.17
534.01	93.62
534.18	56.17
534.35	128.73
534.52	86.60
534.69	138.09
534.86	124.05
535.03	102.98
535.20	124.05
535.37	84.26
535.54	154.48
535.71	39.79
535.88	74.90
536.05	105.32
536.22	63.19
536.38	88.94
536.55	166.18
536.72	4.68
536.89	84.26
537.06	74.90
537.23	163.84
537.40	77.24
537.57	110.01
537.74	95.96
537.91	25.75
538.08	39.79
538.25	145.11
538.42	128.73
538.59	79.58
538.75	86.60
538.92	88.94
539.09	102.98
539.26	88.94
539.43	93.62
539.60	95.96
539.77	100.64
539.94	0.00
540.11	56.17
540.28	119.37
540.44	110.01
540.61	107.66
540.78	112.35
540.95	39.79
541.12	72.56
541.29	105.32
541.46	142.77
541.62	100.64
541.79	74.90
541.96	9.36
542.13	72.56
542.30	93.62
542.47	107.66
542.63	98.30
542.80	49.15
542.97	46.81
543.14	105.32
543.31	105.32
543.48	81.92
543.64	112.35
543.81	107.66
543.98	98.30
544.15	124.05
544.32	79.58
544.48	63.19
544.65	105.32
544.82	105.32
544.99	86.60
545.16	131.07
545.32	81.92
545.49	98.30
545.66	84.26
545.83	105.32
546.00	46.81
546.16	100.64
546.33	142.77
546.50	105.32
546.67	84.26
546.83	121.71
547.00	117.03
547.17	156.82
547.34	74.90
547.50	70.22
547.67	131.07
547.84	126.39
548.00	67.88
548.17	70.22
548.34	72.56
548.51	56.17
548.67	63.19
548.84	49.15
549.01	4.68
549.18	86.60
549.34	128.73
549.51	114.69
549.68	53.83
549.84	35.11
550.01	56.17
550.18	128.73
550.34	124.05
550.51	37.45
550.68	131.07
550.84	88.94
551.01	67.88
551.18	16.38
551.34	105.32
551.51	23.41
551.68	119.37
551.84	128.73
552.01	77.24
552.18	138.09
552.34	35.11
552.51	98.30
552.68	39.79
552.84	49.15
553.01	65.54
553.18	131.07
553.34	100.64
553.51	88.94
553.67	77.24
553.84	86.60
554.01	28.09
554.17	60.85
554.34	128.73
554.51	70.22
554.67	84.26
554.84	121.71
555.00	25.75
555.17	23.41
555.33	79.58
555.50	65.54
555.67	11.70
555.83	67.88
556.00	70.22
556.16	67.88
556.33	77.24
556.50	112.35
556.66	100.64
556.83	28.09
556.99	86.60
557.16	86.60
557.32	135.75
557.49	53.83
557.65	35.11
557.82	107.66
557.98	138.09
558.15	126.39
558.32	91.28
558.48	117.03
558.65	88.94
558.81	128.73
558.98	35.11
559.14	93.62
559.31	133.41
559.47	110.01
559.64	84.26
559.80	77.24
559.97	70.22
560.13	70.22
560.30	60.85
560.46	112.35
560.63	95.96
560.79	154.48
560.96	117.03
561.12	72.56
561.29	53.83
561.45	110.01
561.61	100.64
561.78	121.71
561.94	98.30
562.11	142.77
562.27	53.83
562.44	56.17
562.60	72.56
562.77	65.54
562.93	4.68
563.10	67.88
563.26	49.15
563.42	51.49
563.59	60.85
563.75	121.71
563.92	135.75
564.08	138.09
564.24	98.30
564.41	91.28
564.57	98.30
564.74	23.41
564.90	39.79
565.07	93.62
565.23	63.19
565.39	91.28
565.56	100.64
565.72	65.54
565.88	63.19
566.05	88.94
566.21	30.43
566.38	107.66
566.54	74.90
566.70	60.85
566.87	58.51
567.03	81.92
567.19	88.94
567.36	51.49
567.52	72.56
567.68	105.32
567.85	60.85
568.01	98.30
568.17	105.32
568.34	86.60
568.50	121.71
568.66	145.11
568.83	37.45
568.99	98.30
569.15	93.62
569.32	126.39
569.48	102.98
569.64	23.41
569.81	84.26
569.97	30.43
570.13	86.60
570.30	63.19
570.46	65.54
570.62	105.32
570.78	121.71
570.95	9.36
571.11	60.85
571.27	46.81
571.43	74.90
571.60	32.77
571.76	84.26
571.92	53.83
572.09	51.49
572.25	60.85
572.41	88.94
572.57	91.28
572.74	86.60
572.90	121.71
573.06	74.90
573.22	58.51
573.38	102.98
573.55	107.66
573.71	30.43
573.87	112.35
574.03	0.00
574.20	81.92
574.36	70.22
574.52	77.24
574.68	100.64
574.84	65.54
575.01	98.30
575.17	194.26
575.33	81.92
575.49	84.26
575.65	114.69
575.82	65.54
575.98	53.83
576.14	58.51
576.30	84.26
576.46	63.19
576.62	95.96
576.79	0.00
576.95	35.11
577.11	88.94
577.27	49.15
577.43	88.94
577.59	147.45
577.75	102.98
577.92	39.79
578.08	46.81
578.24	63.19
578.40	91.28
578.56	49.15
578.72	65.54
578.88	2.34
579.04	58.51
579.21	63.19
579.37	0.00
579.53	53.83
579.69	138.09
579.85	72.56
580.01	58.51
580.17	81.92
580.33	86.60
580.49	145.11
580.65	88.94
580.82	9.36
580.98	84.26
581.14	98.30
581.30	77.24
581.46	56.17
581.62	93.62
581.78	46.81
581.94	60.85
582.10	0.00
582.26	4.68
582.42	105.32
582.58	86.60
582.74	112.35
582.90	91.28
583.06	100.64
583.22	0.00
583.38	91.28
583.54	30.43
583.70	93.62
583.86	74.90
584.02	0.00
584.18	21.06
584.34	93.62
584.50	9.36
584.66	126.39
584.82	128.73
584.98	70.22
585.14	79.58
585.30	112.35
585.46	133.41
585.62	46.81
585.78	84.26
585.94	53.83
586.10	91.28
586.26	7.02
586.42	88.94
586.58	35.11
586.74	37.45
586.90	65.54
587.06	49.15
587.22	46.81
587.38	131.07
587.54	67.88
587.70	126.39
587.86	166.18
588.02	93.62
588.18	30.43
588.34	81.92
588.49	39.79
588.65	37.45
588.81	112.35
588.97	51.49
589.13	126.39
589.29	124.05
589.45	105.32
589.61	18.72
589.77	46.81
589.93	51.49
590.08	42.13
590.24	70.22
590.40	37.45
590.56	30.43
590.72	44.47
590.88	51.49
591.04	81.92
591.20	86.60
591.35	60.85
591.51	60.85
591.67	58.51
591.83	77.24
591.99	65.54
592.15	86.60
592.31	65.54
592.46	9.36
592.62	23.41
592.78	56.17
592.94	119.37
593.10	46.81
593.26	39.79
593.41	81.92
593.57	25.75
593.73	154.48
593.89	56.17
594.05	4.68
594.20	95.96
594.36	63.19
594.52	91.28
594.68	51.49
594.84	39.79
594.99	67.88
595.15	79.58
595.31	60.85
595.47	105.32
595.62	11.70
595.78	102.98
595.94	46.81
596.10	58.51
596.25	72.56
596.41	0.00
596.57	49.15
596.73	37.45
596.88	124.05
597.04	37.45
597.20	46.81
597.36	42.13
597.51	63.19
597.67	110.01
597.83	37.45
597.99	140.43
598.14	142.77
598.30	60.85
598.46	56.17
598.61	102.98
598.77	74.90
598.93	84.26
599.09	0.00
599.24	121.71
599.40	30.43
599.56	21.06
599.71	60.85
599.87	77.24
600.03	70.22
600.18	86.60
600.34	49.15
600.50	37.45
600.65	98.30
600.81	81.92
600.97	44.47
601.12	49.15
601.28	91.28
601.44	124.05
601.59	88.94
601.75	25.75
601.91	107.66
602.06	72.56
602.22	107.66
602.37	23.41
602.53	88.94
602.69	93.62
602.84	49.15
603.00	58.51
603.16	138.09
603.31	58.51
603.47	105.32
603.62	42.13
603.78	11.70
603.94	4.68
604.09	77.24
604.25	32.77
604.40	60.85
604.56	79.58
604.71	95.96
604.87	102.98
605.03	98.30
605.18	9.36
605.34	67.88
605.49	140.43
605.65	58.51
605.80	56.17
605.96	11.70
606.12	21.06
606.27	128.73
606.43	100.64
606.58	0.00
606.74	49.15
606.89	86.60
607.05	63.19
607.20	93.62
607.36	58.51
607.51	84.26
607.67	95.96
607.82	14.04
607.98	135.75
608.13	110.01
608.29	102.98
608.44	63.19
608.60	98.30
608.75	51.49
608.91	60.85
609.06	79.58
609.22	65.54
609.37	60.85
609.53	37.45
609.68	63.19
609.84	0.00
609.99	32.77
610.15	58.51
610.30	14.04
610.46	86.60
610.61	65.54
610.76	7.02
610.92	2.34
611.07	119.37
611.23	18.72
611.38	100.64
611.54	102.98
611.69	67.88
611.84	105.32
612.00	77.24
612.15	107.66
612.31	23.41
612.46	110.01
612.62	131.07
612.77	23.41
612.92	70.22
613.08	16.38
613.23	58.51
613.39	70.22
613.54	81.92
613.69	77.24
613.85	44.47
614.00	23.41
614.15	51.49
614.31	49.15
614.46	95.96
614.62	91.28
614.77	77.24
614.92	72.56
615.08	100.64
615.23	117.03
615.38	28.09
615.54	67.88
615.69	65.54
615.84	56.17
616.00	86.60
616.15	105.32
616.30	110.01
616.46	58.51
616.61	72.56
616.76	81.92
616.92	39.79
617.07	88.94
617.22	93.62
617.37	81.92
617.53	88.94
617.68	67.88
617.83	114.69
617.99	72.56
618.14	114.69
618.29	63.19
618.45	74.90
618.60	63.19
618.75	100.64
618.90	67.88
619.06	86.60
619.21	105.32
619.36	74.90
619.51	35.11
619.67	11.70
619.82	58.51
619.97	25.75
620.12	72.56
620.28	100.64
620.43	112.35
620.58	102.98
620.73	107.66
620.89	2.34
621.04	77.24
621.19	81.92
621.34	91.28
621.49	74.90
621.65	93.62
621.80	58.51
621.95	49.15
622.10	110.01
622.25	84.26
622.41	60.85
622.56	51.49
622.71	105.32
622.86	16.38
623.01	51.49
623.16	145.11
623.32	63.19
623.47	56.17
623.62	88.94
623.77	37.45
623.92	58.51
624.07	28.09
624.23	46.81
624.38	23.41
624.53	102.98
624.68	112.35
624.83	25.75
624.98	39.79
625.13	119.37
625.29	81.92
625.44	51.49
625.59	21.06
625.74	95.96
625.89	56.17
626.04	70.22
626.19	7.02
626.34	63.19
626.49	4.68
626.65	30.43
626.80	23.41
626.95	30.43
627.10	56.17
627.25	110.01
627.40	95.96
627.55	60.85
627.70	9.36
627.85	42.13
628.00	28.09
628.15	65.54
628.30	72.56
628.45	110.01
628.60	98.30
628.76	16.38
628.91	56.17
629.06	0.00
629.21	28.09
629.36	88.94
629.51	37.45
629.66	67.88
629.81	44.47
629.96	117.03
630.11	46.81
630.26	42.13
630.41	42.13
630.56	32.77
630.71	77.24
630.86	39.79
631.01	56.17
631.16	46.81
631.31	72.56
631.46	49.15
631.61	149.79
631.76	0.00
631.91	79.58
632.06	28.09
632.21	51.49
632.36	100.64
632.51	126.39
632.66	95.96
632.81	30.43
632.96	9.36
633.10	67.88
633.25	128.73
633.40	46.81
633.55	67.88
633.70	46.81
633.85	63.19
634.00	37.45
634.15	65.54
634.30	28.09
634.45	91.28
634.60	105.32
634.75	81.92
634.90	88.94
635.05	86.60
635.19	58.51
635.34	58.51
635.49	60.85
635.64	39.79
635.79	28.09
635.94	16.38
636.09	74.90
636.24	79.58
636.39	35.11
636.53	84.26
636.68	81.92
636.83	51.49
636.98	39.79
637.13	72.56
637.28	16.38
637.43	51.49
637.57	91.28
637.72	16.38
637.87	77.24
638.02	35.11
638.17	93.62
638.32	2.34
638.46	25.75
638.61	32.77
638.76	95.96
638.91	70.22
639.06	74.90
639.20	88.94
639.35	37.45
639.50	4.68
639.65	44.47
639.80	46.81
639.94	46.81
640.09	74.90
640.24	42.13
640.39	63.19
640.54	44.47
640.68	14.04
640.83	39.79
640.98	35.11
641.13	60.85
641.27	72.56
641.42	35.11
641.57	56.17
641.72	79.58
641.86	100.64
642.01	74.90
642.16	79.58
642.31	56.17
642.45	23.41
642.60	46.81
642.75	0.00
642.90	25.75
643.04	46.81
643.19	79.58
643.34	105.32
643.48	100.64
643.63	91.28
643.78	84.26
643.93	58.51
644.07	91.28
644.22	77.24
644.37	21.06
644.51	35.11
644.66	0.00
644.81	56.17
644.95	42.13
645.10	72.56
645.25	77.24
645.39	79.58
645.54	63.19
645.69	93.62
645.83	114.69
645.98	44.47
646.13	51.49
646.27	56.17
646.42	44.47
646.57	37.45
646.71	35.11
646.86	37.45
647.00	37.45
647.15	37.45
647.30	53.83
647.44	0.00
647.59	93.62
647.74	30.43
647.88	30.43
648.03	0.00
648.17	0.00
648.32	39.79
648.47	65.54
648.61	46.81
648.76	39.79
648.90	131.07
649.05	84.26
649.20	21.06
649.34	65.54
649.49	163.84
649.63	46.81
649.78	0.00
649.92	4.68
650.07	58.51
650.21	60.85
650.36	0.00
650.51	46.81
650.65	39.79
650.80	58.51
650.94	77.24
651.09	98.30
651.23	65.54
651.38	32.77
651.52	18.72
651.67	88.94
651.81	58.51
651.96	46.81
652.10	2.34
652.25	53.83
652.39	74.90
652.54	39.79
652.68	114.69
652.83	156.82
652.97	30.43
653.12	32.77
653.26	91.28
653.41	0.00
653.55	93.62
653.70	74.90
653.84	58.51
653.99	46.81
654.13	63.19
654.27	112.35
654.42	46.81
654.56	131.07
654.71	0.00
654.85	51.49
655.00	0.00
655.14	107.66
655.29	42.13
655.43	44.47
655.57	88.94
655.72	93.62
655.86	32.77
656.01	49.15
656.15	0.00
656.30	32.77
656.44	84.26
656.58	35.11
656.73	42.13
656.87	37.45
657.01	37.45
657.16	0.00
657.30	100.64
657.45	121.71
657.59	14.04
657.73	56.17
657.88	98.30
658.02	56.17
658.16	44.47
658.31	84.26
658.45	0.00
658.60	107.66
658.74	56.17
658.88	30.43
659.03	60.85
659.17	0.00
659.31	30.43
659.46	74.90
659.60	70.22
659.74	0.00
659.89	7.02
660.03	21.06
660.17	72.56
660.32	81.92
660.46	42.13
660.60	44.47
660.74	74.90
660.89	63.19
661.03	7.02
661.17	44.47
661.32	56.17
661.46	37.45
661.60	0.00
661.74	53.83
661.89	98.30
662.03	2.34
662.17	98.30
662.31	63.19
662.46	56.17
662.60	9.36
662.74	46.81
662.88	63.19
663.03	7.02
663.17	84.26
663.31	72.56
663.45	93.62
663.60	72.56
663.74	28.09
663.88	110.01
664.02	44.47
664.17	79.58
664.31	9.36
664.45	37.45
664.59	28.09
664.73	86.60
664.88	70.22
665.02	23.41
665.16	67.88
665.30	14.04
665.44	110.01
665.59	63.19
665.73	0.00
665.87	102.98
666.01	30.43
666.15	102.98
666.29	11.70
666.44	0.00
666.58	65.54
666.72	112.35
666.86	53.83
667.00	88.94
667.14	23.41
667.28	65.54
667.43	56.17
667.57	77.24
667.71	16.38
667.85	18.72
667.99	30.43
668.13	49.15
668.27	58.51
668.41	25.75
668.56	25.75
668.70	79.58
668.84	60.85
668.98	53.83
669.12	35.11
669.26	84.26
669.40	0.00
669.54	39.79
669.68	88.94
669.82	95.96
669.96	138.09
670.10	74.90
670.25	18.72
670.39	56.17
670.53	4.68
670.67	110.01
670.81	0.00
670.95	30.43
671.09	35.11
671.23	18.72
671.37	18.72
671.51	81.92
671.65	63.19
671.79	14.04
671.93	0.00
672.07	42.13
672.21	81.92
672.35	117.03
672.49	60.85
672.63	56.17
672.77	51.49
672.91	77.24
673.05	7.02
673.19	84.26
673.33	51.49
673.47	16.38
673.61	39.79
673.75	35.11
673.89	35.11
674.03	51.49
674.17	60.85
674.31	79.58
674.45	0.00
674.59	14.04
674.73	42.13
674.87	0.00
675.01	0.00
675.15	42.13
675.29	121.71
675.43	100.64
675.56	23.41
675.70	65.54
675.84	107.66
675.98	102.98
676.12	53.83
676.26	11.70
676.40	72.56
676.54	100.64
676.68	107.66
676.82	81.92
676.96	42.13
677.10	105.32
677.23	0.00
677.37	58.51
677.51	2.34
677.65	11.70
677.79	72.56
677.93	0.00
678.07	0.00
678.21	11.70
678.34	60.85
678.48	35.11
678.62	81.92
678.76	49.15
678.90	0.00
679.04	9.36
679.18	4.68
679.31	49.15
679.45	63.19
679.59	44.47
679.73	44.47
679.87	56.17
680.00	121.71
680.14	65.54
680.28	145.11
680.42	60.85
680.56	25.75
680.70	0.00
680.83	70.22
680.97	102.98
681.11	9.36
681.25	49.15
681.39	60.85
681.52	79.58
681.66	133.41
681.80	44.47
681.94	35.11
682.07	4.68
682.21	4.68
682.35	60.85
682.49	81.92
682.62	53.83
682.76	70.22
682.90	7.02
683.04	28.09
683.17	39.79
683.31	0.00
683.45	91.28
683.59	93.62
683.72	65.54
683.86	0.00
684.00	70.22
684.13	37.45
684.27	72.56
684.41	35.11
684.55	91.28
684.68	37.45
684.82	2.34
684.96	11.70
685.09	46.81
685.23	37.45
685.37	21.06
685.50	0.00
685.64	56.17
685.78	65.54
685.91	42.13
686.05	67.88
686.19	7.02
686.32	21.06
686.46	72.56
686.60	0.00
686.73	28.09
686.87	0.00
687.01	0.00
687.14	35.11
687.28	65.54
687.42	18.72
687.55	77.24
687.69	67.88
687.82	58.51
687.96	42.13
688.10	84.26
688.23	35.11
688.37	42.13
688.50	49.15
688.64	18.72
688.78	0.00
688.91	25.75
689.05	53.83
689.18	91.28
689.32	0.00
689.46	46.81
689.59	30.43
689.73	4.68
689.86	0.00
690.00	37.45
690.13	7.02
690.27	72.56
690.41	32.77
690.54	128.73
690.68	7.02
690.81	51.49
690.95	53.83
691.08	84.26
691.22	124.05
691.35	44.47
691.49	77.24
691.62	44.47
691.76	44.47
691.89	98.30
692.03	21.06
692.16	51.49
692.30	18.72
692.43	67.88
692.57	18.72
692.70	58.51
692.84	67.88
692.97	16.38
693.11	91.28
693.24	30.43
693.38	0.00
693.51	28.09
693.65	39.79
693.78	32.77
693.92	23.41
694.05	46.81
694.19	11.70
694.32	42.13
694.45	35.11
694.59	0.00
694.72	35.11
694.86	51.49
694.99	100.64
695.13	65.54
695.26	42.13
695.39	0.00
695.53	21.06
695.66	0.00
695.80	79.58
695.93	56.17
696.07	51.49
696.20	56.17
696.33	98.30
696.47	56.17
696.60	88.94
696.73	84.26
696.87	51.49
697.00	39.79
697.14	0.00
697.27	86.60
697.40	98.30
697.54	63.19
697.67	86.60
697.80	60.85
697.94	18.72
698.07	18.72
698.21	0.00
698.34	56.17
698.47	21.06
698.61	0.00
698.74	60.85
698.87	56.17
699.01	51.49
699.14	14.04
699.27	74.90
699.40	74.90
699.54	7.02
699.67	63.19
699.80	44.47
699.94	7.02
700.07	98.30
700.20	9.36
700.34	16.38
700.47	95.96
700.60	51.49
700.73	30.43
700.87	98.30
701.00	25.75
701.13	53.83
701.26	81.92
701.40	32.77
701.53	53.83
701.66	79.58
701.79	58.51
701.93	121.71
702.06	86.60
702.19	18.72
702.32	0.00
702.46	63.19
702.59	44.47
702.72	60.85
702.85	49.15
702.99	25.75
703.12	9.36
703.25	37.45
703.38	14.04
703.51	53.83
703.65	112.35
703.78	14.04
703.91	0.00
704.04	0.00
704.17	42.13
704.31	7.02
704.44	53.83
704.57	21.06
704.70	18.72
704.83	30.43
704.96	77.24
705.10	0.00
705.23	39.79
>>>>>End Processed Spectral Data<<<<<
