SpectraSuite Data File
++++++++++++++++++++++++++++++++++++
Date: Fri Oct 04 12:13:39 GMT-05:00 2013
User: price-jones
Dark Spectrum Present: No
Reference Spectrum Present: No
Number of Sampled Component Spectra: 1
Spectrometers: USB2+H05261
Integration Time (usec): 10000 (USB2+H05261)
Spectra Averaged: 1 (USB2+H05261)
Boxcar Smoothing: 0 (USB2+H05261)
Correct for Electrical Dark: No (USB2+H05261)
Strobe/Lamp Enabled: No (USB2+H05261)
Correct for Detector Non-linearity: No (USB2+H05261)
Correct for Stray Light: No (USB2+H05261)
Number of Pixels in Processed Spectrum: 2048
>>>>>Begin Processed Spectral Data<<<<<
365.73	4.68
365.92	4.68
366.12	4.68
366.32	0.00
366.52	0.00
366.72	0.00
366.91	0.00
367.11	0.00
367.31	0.00
367.51	0.00
367.70	0.00
367.90	0.00
368.10	0.00
368.30	0.00
368.49	0.00
368.69	0.00
368.89	0.00
369.09	0.00
369.28	0.00
369.48	0.00
369.68	0.00
369.87	0.00
370.07	0.00
370.27	0.00
370.47	0.00
370.66	0.00
370.86	0.00
371.06	0.00
371.25	0.00
371.45	0.00
371.65	9.36
371.84	0.00
372.04	23.41
372.24	7.02
372.44	79.58
372.63	49.15
372.83	88.94
373.03	16.38
373.22	0.00
373.42	49.15
373.62	46.81
373.81	0.00
374.01	25.75
374.21	37.45
374.40	91.28
374.60	44.47
374.79	46.81
374.99	11.70
375.19	42.13
375.38	86.60
375.58	53.83
375.78	21.06
375.97	67.88
376.17	30.43
376.37	0.00
376.56	74.90
376.76	0.00
376.95	53.83
377.15	53.83
377.35	32.77
377.54	37.45
377.74	65.54
377.93	0.00
378.13	56.17
378.33	0.00
378.52	35.11
378.72	0.00
378.91	16.38
379.11	28.09
379.31	21.06
379.50	0.00
379.70	30.43
379.89	4.68
380.09	16.38
380.28	14.04
380.48	0.00
380.68	0.00
380.87	65.54
381.07	28.09
381.26	0.00
381.46	77.24
381.65	32.77
381.85	25.75
382.04	25.75
382.24	14.04
382.43	42.13
382.63	60.85
382.83	42.13
383.02	67.88
383.22	79.58
383.41	0.00
383.61	37.45
383.80	39.79
384.00	28.09
384.19	56.17
384.39	21.06
384.58	0.00
384.78	44.47
384.97	7.02
385.17	0.00
385.36	35.11
385.56	0.00
385.75	39.79
385.95	18.72
386.14	0.00
386.34	32.77
386.53	70.22
386.72	0.00
386.92	0.00
387.11	0.00
387.31	88.94
387.50	0.00
387.70	0.00
387.89	2.34
388.09	16.38
388.28	9.36
388.48	51.49
388.67	16.38
388.86	35.11
389.06	2.34
389.25	0.00
389.45	18.72
389.64	30.43
389.84	58.51
390.03	14.04
390.22	0.00
390.42	77.24
390.61	30.43
390.81	35.11
391.00	0.00
391.19	35.11
391.39	60.85
391.58	44.47
391.78	46.81
391.97	0.00
392.16	0.00
392.36	0.00
392.55	4.68
392.75	77.24
392.94	11.70
393.13	46.81
393.33	0.00
393.52	39.79
393.71	42.13
393.91	28.09
394.10	0.00
394.29	67.88
394.49	7.02
394.68	42.13
394.88	67.88
395.07	44.47
395.26	112.35
395.46	18.72
395.65	0.00
395.84	23.41
396.04	46.81
396.23	58.51
396.42	0.00
396.62	44.47
396.81	9.36
397.00	46.81
397.19	2.34
397.39	58.51
397.58	11.70
397.77	74.90
397.97	0.00
398.16	81.92
398.35	74.90
398.55	0.00
398.74	35.11
398.93	0.00
399.12	25.75
399.32	86.60
399.51	84.26
399.70	30.43
399.90	25.75
400.09	65.54
400.28	56.17
400.47	72.56
400.67	107.66
400.86	74.90
401.05	18.72
401.24	2.34
401.44	91.28
401.63	53.83
401.82	46.81
402.01	23.41
402.21	35.11
402.40	86.60
402.59	70.22
402.78	0.00
402.97	0.00
403.17	28.09
403.36	23.41
403.55	0.00
403.74	23.41
403.93	42.13
404.13	14.04
404.32	0.00
404.51	14.04
404.70	4.68
404.89	23.41
405.09	95.96
405.28	32.77
405.47	0.00
405.66	0.00
405.85	4.68
406.05	79.58
406.24	28.09
406.43	51.49
406.62	25.75
406.81	0.00
407.00	16.38
407.20	53.83
407.39	37.45
407.58	0.00
407.77	32.77
407.96	56.17
408.15	95.96
408.34	102.98
408.54	35.11
408.73	58.51
408.92	58.51
409.11	49.15
409.30	37.45
409.49	65.54
409.68	2.34
409.87	0.00
410.07	79.58
410.26	9.36
410.45	56.17
410.64	28.09
410.83	65.54
411.02	32.77
411.21	65.54
411.40	7.02
411.59	42.13
411.78	0.00
411.98	4.68
412.17	0.00
412.36	30.43
412.55	121.71
412.74	65.54
412.93	21.06
413.12	49.15
413.31	21.06
413.50	44.47
413.69	56.17
413.88	56.17
414.07	72.56
414.26	42.13
414.45	0.00
414.64	42.13
414.83	0.00
415.02	0.00
415.22	44.47
415.41	32.77
415.60	37.45
415.79	0.00
415.98	35.11
416.17	46.81
416.36	0.00
416.55	0.00
416.74	107.66
416.93	65.54
417.12	37.45
417.31	35.11
417.50	98.30
417.69	53.83
417.88	86.60
418.07	93.62
418.26	39.79
418.45	39.79
418.64	100.64
418.83	9.36
419.02	53.83
419.21	0.00
419.39	51.49
419.58	9.36
419.77	0.00
419.96	77.24
420.15	102.98
420.34	37.45
420.53	0.00
420.72	58.51
420.91	37.45
421.10	35.11
421.29	67.88
421.48	56.17
421.67	32.77
421.86	114.69
422.05	67.88
422.24	25.75
422.43	28.09
422.61	63.19
422.80	14.04
422.99	105.32
423.18	35.11
423.37	110.01
423.56	74.90
423.75	84.26
423.94	51.49
424.13	84.26
424.32	18.72
424.50	49.15
424.69	70.22
424.88	23.41
425.07	46.81
425.26	25.75
425.45	18.72
425.64	49.15
425.83	58.51
426.01	51.49
426.20	23.41
426.39	0.00
426.58	56.17
426.77	0.00
426.96	18.72
427.15	30.43
427.33	56.17
427.52	70.22
427.71	72.56
427.90	46.81
428.09	79.58
428.28	86.60
428.46	53.83
428.65	114.69
428.84	35.11
429.03	51.49
429.22	0.00
429.40	0.00
429.59	84.26
429.78	14.04
429.97	84.26
430.16	9.36
430.34	0.00
430.53	58.51
430.72	98.30
430.91	46.81
431.10	39.79
431.28	18.72
431.47	21.06
431.66	79.58
431.85	77.24
432.03	0.00
432.22	0.00
432.41	63.19
432.60	86.60
432.79	98.30
432.97	74.90
433.16	9.36
433.35	107.66
433.54	63.19
433.72	9.36
433.91	58.51
434.10	0.00
434.28	56.17
434.47	23.41
434.66	16.38
434.85	77.24
435.03	67.88
435.22	100.64
435.41	86.60
435.59	91.28
435.78	67.88
435.97	30.43
436.16	86.60
436.34	88.94
436.53	16.38
436.72	4.68
436.90	44.47
437.09	4.68
437.28	74.90
437.46	63.19
437.65	30.43
437.84	74.90
438.02	37.45
438.21	37.45
438.40	46.81
438.58	42.13
438.77	60.85
438.96	11.70
439.14	100.64
439.33	81.92
439.52	0.00
439.70	0.00
439.89	32.77
440.08	84.26
440.26	91.28
440.45	18.72
440.63	65.54
440.82	51.49
441.01	53.83
441.19	25.75
441.38	74.90
441.57	72.56
441.75	0.00
441.94	35.11
442.12	72.56
442.31	23.41
442.50	46.81
442.68	46.81
442.87	28.09
443.05	46.81
443.24	88.94
443.43	37.45
443.61	2.34
443.80	74.90
443.98	35.11
444.17	21.06
444.35	102.98
444.54	56.17
444.73	67.88
444.91	60.85
445.10	86.60
445.28	51.49
445.47	84.26
445.65	0.00
445.84	65.54
446.02	9.36
446.21	86.60
446.39	100.64
446.58	126.39
446.77	91.28
446.95	91.28
447.14	81.92
447.32	77.24
447.51	56.17
447.69	32.77
447.88	145.11
448.06	42.13
448.25	72.56
448.43	7.02
448.62	110.01
448.80	93.62
448.99	30.43
449.17	44.47
449.36	37.45
449.54	100.64
449.73	56.17
449.91	63.19
450.10	88.94
450.28	42.13
450.46	91.28
450.65	42.13
450.83	70.22
451.02	25.75
451.20	51.49
451.39	70.22
451.57	93.62
451.76	42.13
451.94	32.77
452.13	166.18
452.31	86.60
452.49	88.94
452.68	53.83
452.86	88.94
453.05	112.35
453.23	30.43
453.42	67.88
453.60	74.90
453.78	39.79
453.97	7.02
454.15	102.98
454.34	138.09
454.52	67.88
454.70	14.04
454.89	0.00
455.07	18.72
455.26	72.56
455.44	81.92
455.62	70.22
455.81	9.36
455.99	53.83
456.17	44.47
456.36	0.00
456.54	46.81
456.73	11.70
456.91	16.38
457.09	53.83
457.28	46.81
457.46	9.36
457.64	128.73
457.83	124.05
458.01	49.15
458.19	100.64
458.38	51.49
458.56	18.72
458.74	49.15
458.93	37.45
459.11	105.32
459.29	63.19
459.48	58.51
459.66	100.64
459.84	145.11
460.03	30.43
460.21	112.35
460.39	93.62
460.57	77.24
460.76	72.56
460.94	0.00
461.12	53.83
461.31	46.81
461.49	95.96
461.67	35.11
461.85	119.37
462.04	67.88
462.22	74.90
462.40	53.83
462.59	16.38
462.77	4.68
462.95	58.51
463.13	28.09
463.32	18.72
463.50	42.13
463.68	67.88
463.86	25.75
464.05	60.85
464.23	37.45
464.41	0.00
464.59	0.00
464.78	100.64
464.96	49.15
465.14	74.90
465.32	81.92
465.50	65.54
465.69	0.00
465.87	21.06
466.05	9.36
466.23	58.51
466.41	79.58
466.60	60.85
466.78	100.64
466.96	135.75
467.14	21.06
467.32	53.83
467.51	46.81
467.69	46.81
467.87	117.03
468.05	98.30
468.23	58.51
468.41	72.56
468.60	67.88
468.78	98.30
468.96	53.83
469.14	16.38
469.32	0.00
469.50	37.45
469.69	0.00
469.87	0.00
470.05	0.00
470.23	93.62
470.41	42.13
470.59	32.77
470.77	72.56
470.95	51.49
471.14	44.47
471.32	58.51
471.50	100.64
471.68	95.96
471.86	79.58
472.04	107.66
472.22	11.70
472.40	70.22
472.58	0.00
472.77	16.38
472.95	51.49
473.13	35.11
473.31	79.58
473.49	56.17
473.67	39.79
473.85	56.17
474.03	121.71
474.21	56.17
474.39	63.19
474.57	112.35
474.75	63.19
474.93	67.88
475.12	77.24
475.30	4.68
475.48	44.47
475.66	0.00
475.84	105.32
476.02	46.81
476.20	86.60
476.38	70.22
476.56	42.13
476.74	156.82
476.92	70.22
477.10	2.34
477.28	32.77
477.46	88.94
477.64	51.49
477.82	81.92
478.00	81.92
478.18	63.19
478.36	91.28
478.54	63.19
478.72	0.00
478.90	25.75
479.08	35.11
479.26	42.13
479.44	84.26
479.62	23.41
479.80	74.90
479.98	86.60
480.16	0.00
480.34	11.70
480.52	81.92
480.70	11.70
480.88	95.96
481.06	56.17
481.24	42.13
481.41	0.00
481.59	0.00
481.77	42.13
481.95	14.04
482.13	81.92
482.31	60.85
482.49	21.06
482.67	81.92
482.85	126.39
483.03	44.47
483.21	37.45
483.39	56.17
483.57	35.11
483.74	102.98
483.92	58.51
484.10	58.51
484.28	91.28
484.46	119.37
484.64	74.90
484.82	0.00
485.00	16.38
485.18	28.09
485.35	0.00
485.53	42.13
485.71	0.00
485.89	70.22
486.07	42.13
486.25	81.92
486.43	100.64
486.61	58.51
486.78	56.17
486.96	53.83
487.14	23.41
487.32	53.83
487.50	152.13
487.68	58.51
487.85	49.15
488.03	60.85
488.21	84.26
488.39	91.28
488.57	65.54
488.75	121.71
488.92	133.41
489.10	72.56
489.28	128.73
489.46	7.02
489.64	63.19
489.81	77.24
489.99	53.83
490.17	105.32
490.35	70.22
490.53	91.28
490.70	84.26
490.88	84.26
491.06	23.41
491.24	35.11
491.41	98.30
491.59	98.30
491.77	67.88
491.95	42.13
492.13	65.54
492.30	65.54
492.48	58.51
492.66	63.19
492.84	86.60
493.01	124.05
493.19	98.30
493.37	102.98
493.54	128.73
493.72	86.60
493.90	79.58
494.08	44.47
494.25	72.56
494.43	74.90
494.61	95.96
494.79	67.88
494.96	88.94
495.14	102.98
495.32	58.51
495.49	121.71
495.67	163.84
495.85	84.26
496.02	86.60
496.20	93.62
496.38	110.01
496.55	46.81
496.73	79.58
496.91	70.22
497.09	117.03
497.26	42.13
497.44	42.13
497.62	100.64
497.79	60.85
497.97	56.17
498.14	114.69
498.32	79.58
498.50	131.07
498.67	102.98
498.85	58.51
499.03	72.56
499.20	70.22
499.38	84.26
499.56	58.51
499.73	60.85
499.91	21.06
500.08	28.09
500.26	46.81
500.44	44.47
500.61	63.19
500.79	70.22
500.97	86.60
501.14	39.79
501.32	156.82
501.49	81.92
501.67	102.98
501.84	35.11
502.02	16.38
502.20	51.49
502.37	88.94
502.55	79.58
502.72	84.26
502.90	79.58
503.07	42.13
503.25	138.09
503.43	70.22
503.60	117.03
503.78	79.58
503.95	74.90
504.13	39.79
504.30	84.26
504.48	60.85
504.65	105.32
504.83	100.64
505.01	77.24
505.18	81.92
505.36	42.13
505.53	102.98
505.71	51.49
505.88	18.72
506.06	88.94
506.23	67.88
506.41	67.88
506.58	67.88
506.76	117.03
506.93	102.98
507.11	46.81
507.28	56.17
507.46	88.94
507.63	154.48
507.81	58.51
507.98	65.54
508.16	142.77
508.33	77.24
508.50	100.64
508.68	25.75
508.85	84.26
509.03	72.56
509.20	88.94
509.38	9.36
509.55	107.66
509.73	124.05
509.90	140.43
510.08	95.96
510.25	72.56
510.42	88.94
510.60	65.54
510.77	117.03
510.95	49.15
511.12	51.49
511.30	86.60
511.47	79.58
511.64	98.30
511.82	98.30
511.99	114.69
512.17	58.51
512.34	184.90
512.51	88.94
512.69	126.39
512.86	72.56
513.04	91.28
513.21	77.24
513.38	23.41
513.56	105.32
513.73	107.66
513.90	11.70
514.08	42.13
514.25	67.88
514.43	88.94
514.60	67.88
514.77	16.38
514.95	67.88
515.12	32.77
515.29	110.01
515.47	56.17
515.64	145.11
515.81	149.79
515.99	53.83
516.16	72.56
516.33	77.24
516.51	49.15
516.68	28.09
516.85	30.43
517.03	133.41
517.20	84.26
517.37	63.19
517.54	86.60
517.72	93.62
517.89	88.94
518.06	65.54
518.24	72.56
518.41	32.77
518.58	21.06
518.75	133.41
518.93	21.06
519.10	114.69
519.27	140.43
519.45	21.06
519.62	25.75
519.79	152.13
519.96	58.51
520.14	105.32
520.31	53.83
520.48	67.88
520.65	72.56
520.83	91.28
521.00	112.35
521.17	51.49
521.34	65.54
521.52	56.17
521.69	84.26
521.86	107.66
522.03	81.92
522.20	121.71
522.38	107.66
522.55	79.58
522.72	88.94
522.89	100.64
523.07	25.75
523.24	81.92
523.41	81.92
523.58	128.73
523.75	23.41
523.92	46.81
524.10	124.05
524.27	60.85
524.44	39.79
524.61	107.66
524.78	173.20
524.96	77.24
525.13	67.88
525.30	67.88
525.47	42.13
525.64	152.13
525.81	65.54
525.98	93.62
526.16	60.85
526.33	86.60
526.50	145.11
526.67	49.15
526.84	110.01
527.01	86.60
527.18	102.98
527.36	28.09
527.53	77.24
527.70	49.15
527.87	44.47
528.04	51.49
528.21	93.62
528.38	145.11
528.55	56.17
528.72	140.43
528.89	100.64
529.07	51.49
529.24	32.77
529.41	63.19
529.58	119.37
529.75	100.64
529.92	117.03
530.09	51.49
530.26	114.69
530.43	79.58
530.60	161.50
530.77	95.96
530.94	126.39
531.11	114.69
531.28	39.79
531.46	142.77
531.63	74.90
531.80	14.04
531.97	86.60
532.14	44.47
532.31	0.00
532.48	56.17
532.65	77.24
532.82	53.83
532.99	114.69
533.16	44.47
533.33	126.39
533.50	84.26
533.67	84.26
533.84	0.00
534.01	102.98
534.18	72.56
534.35	163.84
534.52	60.85
534.69	77.24
534.86	86.60
535.03	0.00
535.20	93.62
535.37	102.98
535.54	7.02
535.71	67.88
535.88	145.11
536.05	58.51
536.22	16.38
536.38	140.43
536.55	138.09
536.72	91.28
536.89	16.38
537.06	152.13
537.23	102.98
537.40	81.92
537.57	182.56
537.74	70.22
537.91	100.64
538.08	74.90
538.25	102.98
538.42	114.69
538.59	49.15
538.75	84.26
538.92	102.98
539.09	105.32
539.26	86.60
539.43	14.04
539.60	77.24
539.77	138.09
539.94	67.88
540.11	18.72
540.28	70.22
540.44	42.13
540.61	117.03
540.78	70.22
540.95	23.41
541.12	35.11
541.29	70.22
541.46	156.82
541.62	51.49
541.79	39.79
541.96	56.17
542.13	46.81
542.30	124.05
542.47	98.30
542.63	81.92
542.80	138.09
542.97	98.30
543.14	84.26
543.31	110.01
543.48	95.96
543.64	39.79
543.81	86.60
543.98	86.60
544.15	110.01
544.32	63.19
544.48	110.01
544.65	93.62
544.82	49.15
544.99	51.49
545.16	117.03
545.32	65.54
545.49	84.26
545.66	135.75
545.83	23.41
546.00	28.09
546.16	74.90
546.33	70.22
546.50	0.00
546.67	86.60
546.83	128.73
547.00	168.52
547.17	124.05
547.34	74.90
547.50	16.38
547.67	93.62
547.84	145.11
548.00	152.13
548.17	88.94
548.34	88.94
548.51	25.75
548.67	65.54
548.84	88.94
549.01	86.60
549.18	117.03
549.34	91.28
549.51	37.45
549.68	51.49
549.84	126.39
550.01	72.56
550.18	138.09
550.34	126.39
550.51	74.90
550.68	110.01
550.84	77.24
551.01	79.58
551.18	72.56
551.34	131.07
551.51	46.81
551.68	49.15
551.84	16.38
552.01	168.52
552.18	124.05
552.34	91.28
552.51	58.51
552.68	152.13
552.84	100.64
553.01	102.98
553.18	65.54
553.34	60.85
553.51	86.60
553.67	74.90
553.84	84.26
554.01	131.07
554.17	91.28
554.34	124.05
554.51	145.11
554.67	161.50
554.84	133.41
555.00	44.47
555.17	91.28
555.33	42.13
555.50	28.09
555.67	79.58
555.83	119.37
556.00	102.98
556.16	133.41
556.33	110.01
556.50	154.48
556.66	126.39
556.83	11.70
556.99	39.79
557.16	72.56
557.32	23.41
557.49	88.94
557.65	65.54
557.82	140.43
557.98	65.54
558.15	60.85
558.32	88.94
558.48	18.72
558.65	84.26
558.81	77.24
558.98	105.32
559.14	70.22
559.31	56.17
559.47	84.26
559.64	81.92
559.80	74.90
559.97	114.69
560.13	95.96
560.30	53.83
560.46	58.51
560.63	105.32
560.79	91.28
560.96	18.72
561.12	142.77
561.29	124.05
561.45	145.11
561.61	84.26
561.78	70.22
561.94	63.19
562.11	81.92
562.27	37.45
562.44	39.79
562.60	25.75
562.77	145.11
562.93	77.24
563.10	95.96
563.26	65.54
563.42	63.19
563.59	86.60
563.75	81.92
563.92	140.43
564.08	49.15
564.24	28.09
564.41	60.85
564.57	100.64
564.74	84.26
564.90	7.02
565.07	88.94
565.23	53.83
565.39	58.51
565.56	58.51
565.72	30.43
565.88	51.49
566.05	135.75
566.21	117.03
566.38	110.01
566.54	102.98
566.70	147.45
566.87	131.07
567.03	84.26
567.19	84.26
567.36	65.54
567.52	51.49
567.68	126.39
567.85	93.62
568.01	91.28
568.17	114.69
568.34	112.35
568.50	72.56
568.66	65.54
568.83	182.56
568.99	51.49
569.15	88.94
569.32	65.54
569.48	79.58
569.64	86.60
569.81	98.30
569.97	58.51
570.13	93.62
570.30	152.13
570.46	70.22
570.62	46.81
570.78	2.34
570.95	112.35
571.11	156.82
571.27	74.90
571.43	86.60
571.60	14.04
571.76	49.15
571.92	88.94
572.09	79.58
572.25	74.90
572.41	67.88
572.57	194.26
572.74	121.71
572.90	72.56
573.06	28.09
573.22	58.51
573.38	196.60
573.55	88.94
573.71	9.36
573.87	77.24
574.03	7.02
574.20	124.05
574.36	63.19
574.52	79.58
574.68	51.49
574.84	58.51
575.01	74.90
575.17	91.28
575.33	30.43
575.49	51.49
575.65	114.69
575.82	81.92
575.98	91.28
576.14	58.51
576.30	112.35
576.46	0.00
576.62	93.62
576.79	77.24
576.95	14.04
577.11	98.30
577.27	72.56
577.43	46.81
577.59	28.09
577.75	18.72
577.92	79.58
578.08	91.28
578.24	74.90
578.40	7.02
578.56	107.66
578.72	60.85
578.88	49.15
579.04	56.17
579.21	70.22
579.37	98.30
579.53	58.51
579.69	67.88
579.85	37.45
580.01	124.05
580.17	138.09
580.33	49.15
580.49	117.03
580.65	100.64
580.82	86.60
580.98	0.00
581.14	74.90
581.30	88.94
581.46	95.96
581.62	67.88
581.78	110.01
581.94	65.54
582.10	93.62
582.26	86.60
582.42	93.62
582.58	117.03
582.74	79.58
582.90	91.28
583.06	74.90
583.22	84.26
583.38	98.30
583.54	147.45
583.70	65.54
583.86	58.51
584.02	28.09
584.18	112.35
584.34	72.56
584.50	105.32
584.66	0.00
584.82	4.68
584.98	0.00
585.14	77.24
585.30	67.88
585.46	37.45
585.62	86.60
585.78	42.13
585.94	114.69
586.10	107.66
586.26	65.54
586.42	98.30
586.58	102.98
586.74	44.47
586.90	39.79
587.06	23.41
587.22	32.77
587.38	67.88
587.54	93.62
587.70	117.03
587.86	105.32
588.02	42.13
588.18	70.22
588.34	100.64
588.49	84.26
588.65	65.54
588.81	60.85
588.97	56.17
589.13	100.64
589.29	88.94
589.45	32.77
589.61	49.15
589.77	23.41
589.93	16.38
590.08	30.43
590.24	67.88
590.40	98.30
590.56	67.88
590.72	114.69
590.88	28.09
591.04	81.92
591.20	42.13
591.35	65.54
591.51	51.49
591.67	18.72
591.83	102.98
591.99	39.79
592.15	117.03
592.31	70.22
592.46	124.05
592.62	93.62
592.78	166.18
592.94	65.54
593.10	30.43
593.26	58.51
593.41	67.88
593.57	128.73
593.73	79.58
593.89	65.54
594.05	58.51
594.20	70.22
594.36	121.71
594.52	95.96
594.68	70.22
594.84	88.94
594.99	7.02
595.15	88.94
595.31	84.26
595.47	9.36
595.62	142.77
595.78	53.83
595.94	51.49
596.10	60.85
596.25	86.60
596.41	152.13
596.57	53.83
596.73	102.98
596.88	30.43
597.04	37.45
597.20	58.51
597.36	79.58
597.51	65.54
597.67	65.54
597.83	88.94
597.99	18.72
598.14	88.94
598.30	74.90
598.46	65.54
598.61	37.45
598.77	56.17
598.93	32.77
599.09	0.00
599.24	70.22
599.40	65.54
599.56	131.07
599.71	74.90
599.87	30.43
600.03	88.94
600.18	112.35
600.34	53.83
600.50	16.38
600.65	84.26
600.81	86.60
600.97	100.64
601.12	79.58
601.28	21.06
601.44	21.06
601.59	70.22
601.75	37.45
601.91	114.69
602.06	100.64
602.22	117.03
602.37	79.58
602.53	37.45
602.69	67.88
602.84	7.02
603.00	114.69
603.16	112.35
603.31	63.19
603.47	91.28
603.62	63.19
603.78	32.77
603.94	81.92
604.09	49.15
604.25	65.54
604.40	95.96
604.56	93.62
604.71	21.06
604.87	79.58
605.03	102.98
605.18	72.56
605.34	23.41
605.49	30.43
605.65	131.07
605.80	70.22
605.96	100.64
606.12	65.54
606.27	79.58
606.43	84.26
606.58	100.64
606.74	77.24
606.89	74.90
607.05	53.83
607.20	65.54
607.36	98.30
607.51	67.88
607.67	110.01
607.82	49.15
607.98	9.36
608.13	98.30
608.29	105.32
608.44	84.26
608.60	95.96
608.75	58.51
608.91	91.28
609.06	88.94
609.22	42.13
609.37	30.43
609.53	0.00
609.68	126.39
609.84	105.32
609.99	0.00
610.15	91.28
610.30	102.98
610.46	86.60
610.61	56.17
610.76	65.54
610.92	72.56
611.07	51.49
611.23	124.05
611.38	53.83
611.54	173.20
611.69	74.90
611.84	56.17
612.00	63.19
612.15	51.49
612.31	37.45
612.46	84.26
612.62	42.13
612.77	67.88
612.92	70.22
613.08	23.41
613.23	2.34
613.39	86.60
613.54	0.00
613.69	58.51
613.85	60.85
614.00	35.11
614.15	46.81
614.31	42.13
614.46	11.70
614.62	149.79
614.77	84.26
614.92	0.00
615.08	93.62
615.23	107.66
615.38	58.51
615.54	35.11
615.69	70.22
615.84	16.38
616.00	46.81
616.15	60.85
616.30	18.72
616.46	53.83
616.61	16.38
616.76	72.56
616.92	0.00
617.07	58.51
617.22	138.09
617.37	107.66
617.53	44.47
617.68	63.19
617.83	7.02
617.99	0.00
618.14	32.77
618.29	114.69
618.45	121.71
618.60	53.83
618.75	65.54
618.90	70.22
619.06	51.49
619.21	2.34
619.36	63.19
619.51	100.64
619.67	70.22
619.82	77.24
619.97	0.00
620.12	58.51
620.28	74.90
620.43	102.98
620.58	88.94
620.73	72.56
620.89	44.47
621.04	84.26
621.19	9.36
621.34	23.41
621.49	58.51
621.65	72.56
621.80	107.66
621.95	72.56
622.10	56.17
622.25	67.88
622.41	53.83
622.56	37.45
622.71	102.98
622.86	72.56
623.01	88.94
623.16	84.26
623.32	102.98
623.47	49.15
623.62	98.30
623.77	25.75
623.92	79.58
624.07	49.15
624.23	37.45
624.38	74.90
624.53	56.17
624.68	67.88
624.83	84.26
624.98	32.77
625.13	4.68
625.29	35.11
625.44	112.35
625.59	44.47
625.74	110.01
625.89	28.09
626.04	138.09
626.19	98.30
626.34	77.24
626.49	39.79
626.65	86.60
626.80	42.13
626.95	39.79
627.10	49.15
627.25	39.79
627.40	98.30
627.55	23.41
627.70	105.32
627.85	39.79
628.00	140.43
628.15	0.00
628.30	32.77
628.45	86.60
628.60	23.41
628.76	0.00
628.91	117.03
629.06	46.81
629.21	58.51
629.36	37.45
629.51	105.32
629.66	86.60
629.81	32.77
629.96	42.13
630.11	21.06
630.26	107.66
630.41	56.17
630.56	39.79
630.71	37.45
630.86	77.24
631.01	81.92
631.16	88.94
631.31	93.62
631.46	21.06
631.61	88.94
631.76	91.28
631.91	79.58
632.06	67.88
632.21	14.04
632.36	88.94
632.51	32.77
632.66	30.43
632.81	105.32
632.96	84.26
633.10	65.54
633.25	102.98
633.40	107.66
633.55	77.24
633.70	56.17
633.85	84.26
634.00	11.70
634.15	79.58
634.30	81.92
634.45	2.34
634.60	11.70
634.75	56.17
634.90	91.28
635.05	67.88
635.19	42.13
635.34	35.11
635.49	119.37
635.64	93.62
635.79	84.26
635.94	63.19
636.09	30.43
636.24	86.60
636.39	58.51
636.53	35.11
636.68	37.45
636.83	79.58
636.98	100.64
637.13	56.17
637.28	56.17
637.43	51.49
637.57	28.09
637.72	110.01
637.87	60.85
638.02	49.15
638.17	44.47
638.32	14.04
638.46	32.77
638.61	74.90
638.76	81.92
638.91	67.88
639.06	30.43
639.20	79.58
639.35	88.94
639.50	70.22
639.65	0.00
639.80	46.81
639.94	7.02
640.09	7.02
640.24	28.09
640.39	63.19
640.54	88.94
640.68	0.00
640.83	86.60
640.98	102.98
641.13	81.92
641.27	60.85
641.42	18.72
641.57	37.45
641.72	74.90
641.86	42.13
642.01	46.81
642.16	72.56
642.31	37.45
642.45	63.19
642.60	79.58
642.75	84.26
642.90	9.36
643.04	49.15
643.19	53.83
643.34	23.41
643.48	53.83
643.63	63.19
643.78	63.19
643.93	42.13
644.07	77.24
644.22	84.26
644.37	91.28
644.51	63.19
644.66	88.94
644.81	56.17
644.95	51.49
645.10	53.83
645.25	67.88
645.39	79.58
645.54	25.75
645.69	72.56
645.83	98.30
645.98	65.54
646.13	23.41
646.27	72.56
646.42	74.90
646.57	102.98
646.71	81.92
646.86	39.79
647.00	11.70
647.15	44.47
647.30	95.96
647.44	56.17
647.59	119.37
647.74	65.54
647.88	0.00
648.03	53.83
648.17	60.85
648.32	46.81
648.47	32.77
648.61	84.26
648.76	79.58
648.90	72.56
649.05	39.79
649.20	70.22
649.34	77.24
649.49	88.94
649.63	67.88
649.78	42.13
649.92	0.00
650.07	51.49
650.21	14.04
650.36	53.83
650.51	44.47
650.65	79.58
650.80	114.69
650.94	53.83
651.09	25.75
651.23	88.94
651.38	2.34
651.52	49.15
651.67	28.09
651.81	23.41
651.96	35.11
652.10	49.15
652.25	42.13
652.39	117.03
652.54	70.22
652.68	110.01
652.83	42.13
652.97	0.00
653.12	0.00
653.26	72.56
653.41	58.51
653.55	72.56
653.70	14.04
653.84	77.24
653.99	49.15
654.13	60.85
654.27	63.19
654.42	18.72
654.56	21.06
654.71	53.83
654.85	14.04
655.00	0.00
655.14	51.49
655.29	74.90
655.43	37.45
655.57	18.72
655.72	67.88
655.86	16.38
656.01	70.22
656.15	0.00
656.30	16.38
656.44	56.17
656.58	67.88
656.73	23.41
656.87	37.45
657.01	30.43
657.16	114.69
657.30	16.38
657.45	0.00
657.59	98.30
657.73	91.28
657.88	65.54
658.02	0.00
658.16	0.00
658.31	9.36
658.45	46.81
658.60	72.56
658.74	51.49
658.88	93.62
659.03	23.41
659.17	67.88
659.31	74.90
659.46	56.17
659.60	42.13
659.74	32.77
659.89	60.85
660.03	53.83
660.17	77.24
660.32	37.45
660.46	28.09
660.60	107.66
660.74	56.17
660.89	152.13
661.03	145.11
661.17	0.00
661.32	0.00
661.46	88.94
661.60	30.43
661.74	72.56
661.89	121.71
662.03	46.81
662.17	86.60
662.31	0.00
662.46	18.72
662.60	138.09
662.74	117.03
662.88	14.04
663.03	16.38
663.17	0.00
663.31	46.81
663.45	18.72
663.60	35.11
663.74	60.85
663.88	72.56
664.02	32.77
664.17	79.58
664.31	7.02
664.45	46.81
664.59	93.62
664.73	30.43
664.88	84.26
665.02	0.00
665.16	72.56
665.30	0.00
665.44	21.06
665.59	30.43
665.73	79.58
665.87	32.77
666.01	72.56
666.15	35.11
666.29	37.45
666.44	46.81
666.58	35.11
666.72	91.28
666.86	9.36
667.00	53.83
667.14	0.00
667.28	72.56
667.43	18.72
667.57	25.75
667.71	67.88
667.85	77.24
667.99	0.00
668.13	93.62
668.27	79.58
668.41	84.26
668.56	53.83
668.70	65.54
668.84	0.00
668.98	30.43
669.12	88.94
669.26	0.00
669.40	21.06
669.54	77.24
669.68	51.49
669.82	42.13
669.96	25.75
670.10	28.09
670.25	98.30
670.39	35.11
670.53	21.06
670.67	133.41
670.81	18.72
670.95	21.06
671.09	42.13
671.23	56.17
671.37	63.19
671.51	2.34
671.65	56.17
671.79	79.58
671.93	32.77
672.07	39.79
672.21	58.51
672.35	74.90
672.49	74.90
672.63	35.11
672.77	32.77
672.91	25.75
673.05	25.75
673.19	28.09
673.33	32.77
673.47	35.11
673.61	88.94
673.75	79.58
673.89	14.04
674.03	35.11
674.17	0.00
674.31	30.43
674.45	91.28
674.59	11.70
674.73	0.00
674.87	16.38
675.01	100.64
675.15	37.45
675.29	0.00
675.43	0.00
675.56	70.22
675.70	112.35
675.84	0.00
675.98	42.13
676.12	0.00
676.26	28.09
676.40	95.96
676.54	28.09
676.68	60.85
676.82	42.13
676.96	95.96
677.10	0.00
677.23	117.03
677.37	32.77
677.51	0.00
677.65	74.90
677.79	14.04
677.93	53.83
678.07	2.34
678.21	30.43
678.34	21.06
678.48	23.41
678.62	93.62
678.76	102.98
678.90	67.88
679.04	77.24
679.18	81.92
679.31	18.72
679.45	77.24
679.59	39.79
679.73	102.98
679.87	46.81
680.00	58.51
680.14	21.06
680.28	46.81
680.42	11.70
680.56	74.90
680.70	42.13
680.83	53.83
680.97	60.85
681.11	18.72
681.25	51.49
681.39	60.85
681.52	81.92
681.66	14.04
681.80	32.77
681.94	49.15
682.07	63.19
682.21	63.19
682.35	42.13
682.49	0.00
682.62	11.70
682.76	39.79
682.90	102.98
683.04	49.15
683.17	39.79
683.31	51.49
683.45	42.13
683.59	121.71
683.72	98.30
683.86	93.62
684.00	25.75
684.13	65.54
684.27	79.58
684.41	0.00
684.55	67.88
684.68	58.51
684.82	7.02
684.96	7.02
685.09	0.00
685.23	56.17
685.37	79.58
685.50	149.79
685.64	0.00
685.78	0.00
685.91	0.00
686.05	46.81
686.19	37.45
686.32	53.83
686.46	60.85
686.60	30.43
686.73	86.60
686.87	77.24
687.01	67.88
687.14	0.00
687.28	37.45
687.42	30.43
687.55	14.04
687.69	42.13
687.82	0.00
687.96	4.68
688.10	53.83
688.23	53.83
688.37	159.16
688.50	44.47
688.64	74.90
688.78	9.36
688.91	51.49
689.05	30.43
689.18	49.15
689.32	81.92
689.46	18.72
689.59	0.00
689.73	88.94
689.86	14.04
690.00	84.26
690.13	77.24
690.27	105.32
690.41	0.00
690.54	32.77
690.68	58.51
690.81	65.54
690.95	11.70
691.08	79.58
691.22	16.38
691.35	0.00
691.49	0.00
691.62	28.09
691.76	35.11
691.89	37.45
692.03	91.28
692.16	67.88
692.30	93.62
692.43	7.02
692.57	46.81
692.70	23.41
692.84	18.72
692.97	35.11
693.11	42.13
693.24	37.45
693.38	67.88
693.51	23.41
693.65	88.94
693.78	56.17
693.92	86.60
694.05	121.71
694.19	42.13
694.32	65.54
694.45	35.11
694.59	117.03
694.72	39.79
694.86	53.83
694.99	46.81
695.13	30.43
695.26	16.38
695.39	49.15
695.53	126.39
695.66	42.13
695.80	81.92
695.93	0.00
696.07	30.43
696.20	21.06
696.33	95.96
696.47	37.45
696.60	30.43
696.73	11.70
696.87	0.00
697.00	11.70
697.14	2.34
697.27	74.90
697.40	56.17
697.54	91.28
697.67	2.34
697.80	51.49
697.94	72.56
698.07	28.09
698.21	30.43
698.34	81.92
698.47	0.00
698.61	58.51
698.74	9.36
698.87	9.36
699.01	0.00
699.14	37.45
699.27	39.79
699.40	30.43
699.54	0.00
699.67	93.62
699.80	105.32
699.94	14.04
700.07	77.24
700.20	2.34
700.34	25.75
700.47	30.43
700.60	39.79
700.73	110.01
700.87	100.64
701.00	105.32
701.13	107.66
701.26	28.09
701.40	0.00
701.53	25.75
701.66	21.06
701.79	0.00
701.93	63.19
702.06	4.68
702.19	14.04
702.32	74.90
702.46	56.17
702.59	84.26
702.72	56.17
702.85	91.28
702.99	98.30
703.12	79.58
703.25	0.00
703.38	32.77
703.51	58.51
703.65	46.81
703.78	84.26
703.91	0.00
704.04	49.15
704.17	0.00
704.31	18.72
704.44	63.19
704.57	72.56
704.70	81.92
704.83	81.92
704.96	14.04
705.10	9.36
705.23	74.90
>>>>>End Processed Spectral Data<<<<<
