SpectraSuite Data File
++++++++++++++++++++++++++++++++++++
Date: Fri Oct 04 12:13:42 GMT-05:00 2013
User: price-jones
Dark Spectrum Present: No
Reference Spectrum Present: No
Number of Sampled Component Spectra: 1
Spectrometers: USB2+H05261
Integration Time (usec): 10000 (USB2+H05261)
Spectra Averaged: 1 (USB2+H05261)
Boxcar Smoothing: 0 (USB2+H05261)
Correct for Electrical Dark: No (USB2+H05261)
Strobe/Lamp Enabled: No (USB2+H05261)
Correct for Detector Non-linearity: No (USB2+H05261)
Correct for Stray Light: No (USB2+H05261)
Number of Pixels in Processed Spectrum: 2048
>>>>>Begin Processed Spectral Data<<<<<
365.73	0.00
365.92	0.00
366.12	0.00
366.32	0.00
366.52	0.00
366.72	0.00
366.91	0.00
367.11	0.00
367.31	0.00
367.51	0.00
367.70	0.00
367.90	0.00
368.10	0.00
368.30	0.00
368.49	0.00
368.69	0.00
368.89	0.00
369.09	0.00
369.28	0.00
369.48	0.00
369.68	0.00
369.87	0.00
370.07	0.00
370.27	0.00
370.47	0.00
370.66	0.00
370.86	11.70
371.06	39.79
371.25	9.36
371.45	0.00
371.65	0.00
371.84	0.00
372.04	18.72
372.24	0.00
372.44	16.38
372.63	21.06
372.83	0.00
373.03	0.00
373.22	79.58
373.42	53.83
373.62	32.77
373.81	65.54
374.01	119.37
374.21	88.94
374.40	65.54
374.60	63.19
374.79	117.03
374.99	60.85
375.19	32.77
375.38	0.00
375.58	0.00
375.78	0.00
375.97	58.51
376.17	72.56
376.37	42.13
376.56	0.00
376.76	105.32
376.95	0.00
377.15	7.02
377.35	81.92
377.54	25.75
377.74	53.83
377.93	65.54
378.13	23.41
378.33	16.38
378.52	25.75
378.72	84.26
378.91	21.06
379.11	25.75
379.31	35.11
379.50	42.13
379.70	14.04
379.89	30.43
380.09	30.43
380.28	51.49
380.48	28.09
380.68	0.00
380.87	0.00
381.07	4.68
381.26	56.17
381.46	0.00
381.65	21.06
381.85	53.83
382.04	16.38
382.24	42.13
382.43	0.00
382.63	28.09
382.83	0.00
383.02	11.70
383.22	23.41
383.41	63.19
383.61	9.36
383.80	0.00
384.00	67.88
384.19	18.72
384.39	16.38
384.58	2.34
384.78	65.54
384.97	56.17
385.17	74.90
385.36	37.45
385.56	4.68
385.75	23.41
385.95	11.70
386.14	9.36
386.34	58.51
386.53	0.00
386.72	39.79
386.92	32.77
387.11	46.81
387.31	35.11
387.50	49.15
387.70	4.68
387.89	0.00
388.09	28.09
388.28	65.54
388.48	28.09
388.67	105.32
388.86	28.09
389.06	0.00
389.25	0.00
389.45	44.47
389.64	16.38
389.84	37.45
390.03	46.81
390.22	49.15
390.42	70.22
390.61	93.62
390.81	16.38
391.00	16.38
391.19	18.72
391.39	16.38
391.58	30.43
391.78	0.00
391.97	0.00
392.16	9.36
392.36	51.49
392.55	0.00
392.75	28.09
392.94	16.38
393.13	58.51
393.33	7.02
393.52	35.11
393.71	14.04
393.91	0.00
394.10	28.09
394.29	0.00
394.49	56.17
394.68	14.04
394.88	0.00
395.07	56.17
395.26	0.00
395.46	53.83
395.65	21.06
395.84	42.13
396.04	14.04
396.23	84.26
396.42	11.70
396.62	9.36
396.81	100.64
397.00	84.26
397.19	0.00
397.39	9.36
397.58	65.54
397.77	42.13
397.97	0.00
398.16	30.43
398.35	49.15
398.55	56.17
398.74	0.00
398.93	0.00
399.12	46.81
399.32	58.51
399.51	44.47
399.70	18.72
399.90	4.68
400.09	28.09
400.28	32.77
400.47	53.83
400.67	2.34
400.86	7.02
401.05	70.22
401.24	49.15
401.44	25.75
401.63	95.96
401.82	0.00
402.01	46.81
402.21	79.58
402.40	2.34
402.59	18.72
402.78	53.83
402.97	0.00
403.17	49.15
403.36	51.49
403.55	9.36
403.74	0.00
403.93	70.22
404.13	0.00
404.32	16.38
404.51	7.02
404.70	32.77
404.89	79.58
405.09	84.26
405.28	44.47
405.47	0.00
405.66	65.54
405.85	9.36
406.05	23.41
406.24	70.22
406.43	0.00
406.62	91.28
406.81	74.90
407.00	81.92
407.20	39.79
407.39	79.58
407.58	51.49
407.77	2.34
407.96	14.04
408.15	25.75
408.34	0.00
408.54	46.81
408.73	2.34
408.92	0.00
409.11	51.49
409.30	65.54
409.49	39.79
409.68	49.15
409.87	0.00
410.07	0.00
410.26	0.00
410.45	107.66
410.64	0.00
410.83	60.85
411.02	49.15
411.21	63.19
411.40	0.00
411.59	44.47
411.78	18.72
411.98	42.13
412.17	9.36
412.36	7.02
412.55	0.00
412.74	49.15
412.93	18.72
413.12	114.69
413.31	60.85
413.50	0.00
413.69	49.15
413.88	98.30
414.07	117.03
414.26	58.51
414.45	0.00
414.64	67.88
414.83	32.77
415.02	35.11
415.22	105.32
415.41	39.79
415.60	18.72
415.79	77.24
415.98	39.79
416.17	35.11
416.36	2.34
416.55	117.03
416.74	65.54
416.93	0.00
417.12	46.81
417.31	0.00
417.50	0.00
417.69	14.04
417.88	9.36
418.07	56.17
418.26	107.66
418.45	44.47
418.64	95.96
418.83	39.79
419.02	98.30
419.21	0.00
419.39	7.02
419.58	11.70
419.77	51.49
419.96	53.83
420.15	42.13
420.34	51.49
420.53	51.49
420.72	30.43
420.91	56.17
421.10	98.30
421.29	0.00
421.48	39.79
421.67	18.72
421.86	53.83
422.05	18.72
422.24	63.19
422.43	18.72
422.61	58.51
422.80	32.77
422.99	0.00
423.18	60.85
423.37	0.00
423.56	0.00
423.75	0.00
423.94	35.11
424.13	58.51
424.32	58.51
424.50	0.00
424.69	18.72
424.88	35.11
425.07	140.43
425.26	53.83
425.45	37.45
425.64	14.04
425.83	60.85
426.01	72.56
426.20	0.00
426.39	35.11
426.58	56.17
426.77	25.75
426.96	72.56
427.15	18.72
427.33	49.15
427.52	81.92
427.71	28.09
427.90	25.75
428.09	28.09
428.28	30.43
428.46	46.81
428.65	0.00
428.84	32.77
429.03	72.56
429.22	37.45
429.40	0.00
429.59	28.09
429.78	39.79
429.97	93.62
430.16	37.45
430.34	21.06
430.53	46.81
430.72	0.00
430.91	16.38
431.10	63.19
431.28	30.43
431.47	0.00
431.66	30.43
431.85	37.45
432.03	95.96
432.22	67.88
432.41	4.68
432.60	53.83
432.79	0.00
432.97	56.17
433.16	51.49
433.35	44.47
433.54	23.41
433.72	35.11
433.91	56.17
434.10	0.00
434.28	30.43
434.47	30.43
434.66	46.81
434.85	21.06
435.03	37.45
435.22	60.85
435.41	72.56
435.59	72.56
435.78	65.54
435.97	65.54
436.16	35.11
436.34	46.81
436.53	65.54
436.72	86.60
436.90	60.85
437.09	74.90
437.28	0.00
437.46	72.56
437.65	28.09
437.84	18.72
438.02	77.24
438.21	18.72
438.40	53.83
438.58	0.00
438.77	121.71
438.96	53.83
439.14	37.45
439.33	77.24
439.52	100.64
439.70	39.79
439.89	23.41
440.08	0.00
440.26	0.00
440.45	11.70
440.63	60.85
440.82	28.09
441.01	37.45
441.19	112.35
441.38	0.00
441.57	16.38
441.75	56.17
441.94	32.77
442.12	124.05
442.31	74.90
442.50	65.54
442.68	60.85
442.87	39.79
443.05	56.17
443.24	0.00
443.43	32.77
443.61	18.72
443.80	0.00
443.98	53.83
444.17	51.49
444.35	74.90
444.54	51.49
444.73	84.26
444.91	67.88
445.10	18.72
445.28	140.43
445.47	74.90
445.65	44.47
445.84	65.54
446.02	65.54
446.21	105.32
446.39	23.41
446.58	58.51
446.77	39.79
446.95	9.36
447.14	72.56
447.32	93.62
447.51	0.00
447.69	7.02
447.88	30.43
448.06	117.03
448.25	2.34
448.43	2.34
448.62	16.38
448.80	91.28
448.99	72.56
449.17	65.54
449.36	56.17
449.54	42.13
449.73	95.96
449.91	58.51
450.10	77.24
450.28	72.56
450.46	14.04
450.65	112.35
450.83	149.79
451.02	65.54
451.20	0.00
451.39	44.47
451.57	0.00
451.76	58.51
451.94	30.43
452.13	53.83
452.31	110.01
452.49	86.60
452.68	74.90
452.86	86.60
453.05	9.36
453.23	42.13
453.42	58.51
453.60	56.17
453.78	74.90
453.97	95.96
454.15	42.13
454.34	79.58
454.52	0.00
454.70	11.70
454.89	18.72
455.07	0.00
455.26	46.81
455.44	51.49
455.62	58.51
455.81	81.92
455.99	42.13
456.17	107.66
456.36	46.81
456.54	9.36
456.73	37.45
456.91	28.09
457.09	86.60
457.28	119.37
457.46	133.41
457.64	72.56
457.83	77.24
458.01	28.09
458.19	44.47
458.38	46.81
458.56	0.00
458.74	95.96
458.93	32.77
459.11	32.77
459.29	65.54
459.48	16.38
459.66	0.00
459.84	46.81
460.03	16.38
460.21	35.11
460.39	102.98
460.57	107.66
460.76	56.17
460.94	44.47
461.12	0.00
461.31	93.62
461.49	49.15
461.67	25.75
461.85	70.22
462.04	2.34
462.22	79.58
462.40	28.09
462.59	53.83
462.77	100.64
462.95	102.98
463.13	58.51
463.32	39.79
463.50	35.11
463.68	35.11
463.86	114.69
464.05	49.15
464.23	63.19
464.41	145.11
464.59	4.68
464.78	35.11
464.96	37.45
465.14	70.22
465.32	81.92
465.50	91.28
465.69	88.94
465.87	14.04
466.05	121.71
466.23	51.49
466.41	0.00
466.60	77.24
466.78	28.09
466.96	23.41
467.14	117.03
467.32	79.58
467.51	37.45
467.69	30.43
467.87	131.07
468.05	67.88
468.23	105.32
468.41	32.77
468.60	95.96
468.78	49.15
468.96	65.54
469.14	42.13
469.32	0.00
469.50	44.47
469.69	44.47
469.87	88.94
470.05	124.05
470.23	35.11
470.41	51.49
470.59	42.13
470.77	14.04
470.95	39.79
471.14	110.01
471.32	105.32
471.50	67.88
471.68	0.00
471.86	72.56
472.04	32.77
472.22	67.88
472.40	72.56
472.58	21.06
472.77	4.68
472.95	60.85
473.13	49.15
473.31	9.36
473.49	74.90
473.67	0.00
473.85	81.92
474.03	81.92
474.21	51.49
474.39	77.24
474.57	53.83
474.75	51.49
474.93	14.04
475.12	42.13
475.30	63.19
475.48	25.75
475.66	95.96
475.84	42.13
476.02	70.22
476.20	112.35
476.38	79.58
476.56	95.96
476.74	86.60
476.92	93.62
477.10	107.66
477.28	35.11
477.46	105.32
477.64	42.13
477.82	65.54
478.00	30.43
478.18	56.17
478.36	81.92
478.54	65.54
478.72	77.24
478.90	0.00
479.08	105.32
479.26	70.22
479.44	65.54
479.62	81.92
479.80	72.56
479.98	91.28
480.16	37.45
480.34	135.75
480.52	9.36
480.70	65.54
480.88	74.90
481.06	98.30
481.24	49.15
481.41	91.28
481.59	91.28
481.77	30.43
481.95	42.13
482.13	28.09
482.31	70.22
482.49	65.54
482.67	42.13
482.85	95.96
483.03	49.15
483.21	79.58
483.39	21.06
483.57	7.02
483.74	93.62
483.92	42.13
484.10	21.06
484.28	7.02
484.46	35.11
484.64	0.00
484.82	91.28
485.00	86.60
485.18	53.83
485.35	44.47
485.53	98.30
485.71	30.43
485.89	35.11
486.07	81.92
486.25	102.98
486.43	84.26
486.61	65.54
486.78	95.96
486.96	35.11
487.14	133.41
487.32	56.17
487.50	32.77
487.68	138.09
487.85	46.81
488.03	67.88
488.21	86.60
488.39	63.19
488.57	98.30
488.75	35.11
488.92	98.30
489.10	93.62
489.28	98.30
489.46	74.90
489.64	142.77
489.81	112.35
489.99	49.15
490.17	128.73
490.35	39.79
490.53	65.54
490.70	53.83
490.88	79.58
491.06	23.41
491.24	37.45
491.41	51.49
491.59	81.92
491.77	133.41
491.95	56.17
492.13	154.48
492.30	65.54
492.48	18.72
492.66	56.17
492.84	93.62
493.01	2.34
493.19	140.43
493.37	84.26
493.54	84.26
493.72	84.26
493.90	46.81
494.08	60.85
494.25	74.90
494.43	37.45
494.61	37.45
494.79	60.85
494.96	91.28
495.14	46.81
495.32	0.00
495.49	119.37
495.67	100.64
495.85	114.69
496.02	93.62
496.20	72.56
496.38	107.66
496.55	70.22
496.73	121.71
496.91	84.26
497.09	91.28
497.26	100.64
497.44	81.92
497.62	23.41
497.79	67.88
497.97	145.11
498.14	65.54
498.32	53.83
498.50	98.30
498.67	67.88
498.85	84.26
499.03	79.58
499.20	79.58
499.38	63.19
499.56	63.19
499.73	35.11
499.91	67.88
500.08	70.22
500.26	30.43
500.44	23.41
500.61	35.11
500.79	56.17
500.97	98.30
501.14	114.69
501.32	88.94
501.49	77.24
501.67	81.92
501.84	77.24
502.02	114.69
502.20	11.70
502.37	91.28
502.55	81.92
502.72	74.90
502.90	74.90
503.07	77.24
503.25	126.39
503.43	84.26
503.60	65.54
503.78	70.22
503.95	42.13
504.13	79.58
504.30	84.26
504.48	53.83
504.65	44.47
504.83	42.13
505.01	112.35
505.18	44.47
505.36	79.58
505.53	88.94
505.71	49.15
505.88	30.43
506.06	32.77
506.23	9.36
506.41	88.94
506.58	100.64
506.76	121.71
506.93	67.88
507.11	147.45
507.28	53.83
507.46	88.94
507.63	86.60
507.81	131.07
507.98	88.94
508.16	88.94
508.33	98.30
508.50	42.13
508.68	128.73
508.85	112.35
509.03	63.19
509.20	77.24
509.38	84.26
509.55	114.69
509.73	102.98
509.90	37.45
510.08	70.22
510.25	63.19
510.42	126.39
510.60	77.24
510.77	182.56
510.95	102.98
511.12	98.30
511.30	65.54
511.47	119.37
511.64	105.32
511.82	93.62
511.99	67.88
512.17	53.83
512.34	126.39
512.51	46.81
512.69	72.56
512.86	131.07
513.04	37.45
513.21	79.58
513.38	86.60
513.56	37.45
513.73	65.54
513.90	117.03
514.08	70.22
514.25	81.92
514.43	114.69
514.60	72.56
514.77	77.24
514.95	138.09
515.12	58.51
515.29	51.49
515.47	58.51
515.64	110.01
515.81	114.69
515.99	56.17
516.16	105.32
516.33	135.75
516.51	102.98
516.68	88.94
516.85	42.13
517.03	60.85
517.20	74.90
517.37	65.54
517.54	98.30
517.72	119.37
517.89	159.16
518.06	79.58
518.24	163.84
518.41	81.92
518.58	14.04
518.75	56.17
518.93	182.56
519.10	95.96
519.27	152.13
519.45	32.77
519.62	60.85
519.79	91.28
519.96	154.48
520.14	110.01
520.31	37.45
520.48	42.13
520.65	95.96
520.83	42.13
521.00	88.94
521.17	102.98
521.34	72.56
521.52	56.17
521.69	88.94
521.86	86.60
522.03	138.09
522.20	84.26
522.38	91.28
522.55	65.54
522.72	110.01
522.89	74.90
523.07	147.45
523.24	30.43
523.41	51.49
523.58	39.79
523.75	65.54
523.92	0.00
524.10	194.26
524.27	81.92
524.44	105.32
524.61	102.98
524.78	112.35
524.96	51.49
525.13	112.35
525.30	107.66
525.47	175.54
525.64	74.90
525.81	56.17
525.98	93.62
526.16	84.26
526.33	84.26
526.50	72.56
526.67	67.88
526.84	60.85
527.01	124.05
527.18	119.37
527.36	32.77
527.53	112.35
527.70	74.90
527.87	60.85
528.04	95.96
528.21	93.62
528.38	65.54
528.55	135.75
528.72	63.19
528.89	149.79
529.07	93.62
529.24	121.71
529.41	63.19
529.58	0.00
529.75	60.85
529.92	84.26
530.09	114.69
530.26	18.72
530.43	117.03
530.60	58.51
530.77	100.64
530.94	147.45
531.11	149.79
531.28	88.94
531.46	135.75
531.63	74.90
531.80	42.13
531.97	138.09
532.14	65.54
532.31	32.77
532.48	63.19
532.65	98.30
532.82	100.64
532.99	81.92
533.16	107.66
533.33	119.37
533.50	100.64
533.67	49.15
533.84	102.98
534.01	58.51
534.18	74.90
534.35	37.45
534.52	107.66
534.69	81.92
534.86	70.22
535.03	135.75
535.20	49.15
535.37	105.32
535.54	67.88
535.71	107.66
535.88	70.22
536.05	72.56
536.22	63.19
536.38	70.22
536.55	154.48
536.72	23.41
536.89	72.56
537.06	102.98
537.23	39.79
537.40	117.03
537.57	58.51
537.74	14.04
537.91	28.09
538.08	67.88
538.25	102.98
538.42	149.79
538.59	128.73
538.75	79.58
538.92	91.28
539.09	21.06
539.26	95.96
539.43	102.98
539.60	154.48
539.77	98.30
539.94	53.83
540.11	126.39
540.28	95.96
540.44	25.75
540.61	154.48
540.78	51.49
540.95	93.62
541.12	49.15
541.29	37.45
541.46	100.64
541.62	49.15
541.79	79.58
541.96	11.70
542.13	58.51
542.30	60.85
542.47	105.32
542.63	149.79
542.80	107.66
542.97	84.26
543.14	79.58
543.31	102.98
543.48	126.39
543.64	168.52
543.81	58.51
543.98	95.96
544.15	147.45
544.32	100.64
544.48	49.15
544.65	88.94
544.82	81.92
544.99	86.60
545.16	107.66
545.32	131.07
545.49	60.85
545.66	126.39
545.83	107.66
546.00	84.26
546.16	91.28
546.33	67.88
546.50	2.34
546.67	81.92
546.83	74.90
547.00	21.06
547.17	124.05
547.34	88.94
547.50	77.24
547.67	133.41
547.84	93.62
548.00	18.72
548.17	91.28
548.34	121.71
548.51	49.15
548.67	58.51
548.84	102.98
549.01	98.30
549.18	67.88
549.34	110.01
549.51	77.24
549.68	126.39
549.84	95.96
550.01	74.90
550.18	100.64
550.34	74.90
550.51	91.28
550.68	95.96
550.84	114.69
551.01	7.02
551.18	25.75
551.34	138.09
551.51	56.17
551.68	84.26
551.84	53.83
552.01	58.51
552.18	114.69
552.34	84.26
552.51	102.98
552.68	105.32
552.84	44.47
553.01	49.15
553.18	65.54
553.34	77.24
553.51	93.62
553.67	81.92
553.84	105.32
554.01	100.64
554.17	126.39
554.34	67.88
554.51	88.94
554.67	124.05
554.84	95.96
555.00	124.05
555.17	77.24
555.33	53.83
555.50	58.51
555.67	110.01
555.83	91.28
556.00	67.88
556.16	56.17
556.33	86.60
556.50	140.43
556.66	124.05
556.83	63.19
556.99	58.51
557.16	23.41
557.32	112.35
557.49	135.75
557.65	110.01
557.82	133.41
557.98	102.98
558.15	49.15
558.32	18.72
558.48	58.51
558.65	74.90
558.81	70.22
558.98	93.62
559.14	145.11
559.31	58.51
559.47	88.94
559.64	91.28
559.80	35.11
559.97	163.84
560.13	44.47
560.30	84.26
560.46	107.66
560.63	49.15
560.79	60.85
560.96	67.88
561.12	56.17
561.29	98.30
561.45	79.58
561.61	100.64
561.78	110.01
561.94	67.88
562.11	81.92
562.27	51.49
562.44	110.01
562.60	56.17
562.77	72.56
562.93	95.96
563.10	107.66
563.26	140.43
563.42	44.47
563.59	79.58
563.75	88.94
563.92	72.56
564.08	79.58
564.24	117.03
564.41	140.43
564.57	35.11
564.74	140.43
564.90	110.01
565.07	98.30
565.23	91.28
565.39	60.85
565.56	77.24
565.72	23.41
565.88	28.09
566.05	112.35
566.21	74.90
566.38	74.90
566.54	84.26
566.70	91.28
566.87	18.72
567.03	88.94
567.19	117.03
567.36	102.98
567.52	79.58
567.68	74.90
567.85	67.88
568.01	46.81
568.17	86.60
568.34	91.28
568.50	65.54
568.66	107.66
568.83	42.13
568.99	32.77
569.15	9.36
569.32	79.58
569.48	51.49
569.64	37.45
569.81	98.30
569.97	60.85
570.13	51.49
570.30	145.11
570.46	86.60
570.62	32.77
570.78	67.88
570.95	60.85
571.11	14.04
571.27	67.88
571.43	77.24
571.60	88.94
571.76	102.98
571.92	154.48
572.09	88.94
572.25	65.54
572.41	121.71
572.57	67.88
572.74	37.45
572.90	112.35
573.06	42.13
573.22	65.54
573.38	30.43
573.55	39.79
573.71	117.03
573.87	77.24
574.03	88.94
574.20	124.05
574.36	37.45
574.52	100.64
574.68	58.51
574.84	21.06
575.01	37.45
575.17	110.01
575.33	49.15
575.49	53.83
575.65	60.85
575.82	32.77
575.98	51.49
576.14	74.90
576.30	114.69
576.46	42.13
576.62	51.49
576.79	161.50
576.95	121.71
577.11	105.32
577.27	95.96
577.43	44.47
577.59	70.22
577.75	72.56
577.92	124.05
578.08	95.96
578.24	67.88
578.40	74.90
578.56	121.71
578.72	67.88
578.88	102.98
579.04	100.64
579.21	42.13
579.37	126.39
579.53	86.60
579.69	49.15
579.85	91.28
580.01	102.98
580.17	133.41
580.33	175.54
580.49	25.75
580.65	124.05
580.82	60.85
580.98	56.17
581.14	67.88
581.30	72.56
581.46	53.83
581.62	102.98
581.78	152.13
581.94	49.15
582.10	119.37
582.26	74.90
582.42	9.36
582.58	65.54
582.74	44.47
582.90	93.62
583.06	42.13
583.22	53.83
583.38	11.70
583.54	117.03
583.70	49.15
583.86	51.49
584.02	32.77
584.18	35.11
584.34	39.79
584.50	107.66
584.66	93.62
584.82	102.98
584.98	51.49
585.14	63.19
585.30	95.96
585.46	98.30
585.62	65.54
585.78	100.64
585.94	28.09
586.10	107.66
586.26	110.01
586.42	86.60
586.58	56.17
586.74	9.36
586.90	42.13
587.06	131.07
587.22	72.56
587.38	46.81
587.54	0.00
587.70	56.17
587.86	37.45
588.02	56.17
588.18	95.96
588.34	135.75
588.49	35.11
588.65	58.51
588.81	119.37
588.97	84.26
589.13	30.43
589.29	131.07
589.45	28.09
589.61	58.51
589.77	79.58
589.93	14.04
590.08	0.00
590.24	88.94
590.40	91.28
590.56	53.83
590.72	63.19
590.88	81.92
591.04	63.19
591.20	65.54
591.35	86.60
591.51	56.17
591.67	159.16
591.83	86.60
591.99	58.51
592.15	4.68
592.31	121.71
592.46	56.17
592.62	107.66
592.78	133.41
592.94	126.39
593.10	51.49
593.26	39.79
593.41	102.98
593.57	60.85
593.73	0.00
593.89	91.28
594.05	21.06
594.20	32.77
594.36	95.96
594.52	18.72
594.68	91.28
594.84	77.24
594.99	32.77
595.15	84.26
595.31	72.56
595.47	88.94
595.62	98.30
595.78	58.51
595.94	44.47
596.10	65.54
596.25	39.79
596.41	102.98
596.57	53.83
596.73	53.83
596.88	51.49
597.04	51.49
597.20	28.09
597.36	84.26
597.51	35.11
597.67	46.81
597.83	84.26
597.99	44.47
598.14	65.54
598.30	35.11
598.46	16.38
598.61	114.69
598.77	49.15
598.93	79.58
599.09	74.90
599.24	79.58
599.40	23.41
599.56	93.62
599.71	102.98
599.87	63.19
600.03	35.11
600.18	35.11
600.34	0.00
600.50	28.09
600.65	16.38
600.81	0.00
600.97	46.81
601.12	44.47
601.28	58.51
601.44	84.26
601.59	105.32
601.75	77.24
601.91	74.90
602.06	42.13
602.22	39.79
602.37	37.45
602.53	182.56
602.69	180.22
602.84	112.35
603.00	30.43
603.16	2.34
603.31	49.15
603.47	110.01
603.62	58.51
603.78	77.24
603.94	88.94
604.09	28.09
604.25	112.35
604.40	77.24
604.56	100.64
604.71	67.88
604.87	37.45
605.03	117.03
605.18	79.58
605.34	44.47
605.49	49.15
605.65	81.92
605.80	77.24
605.96	161.50
606.12	121.71
606.27	88.94
606.43	63.19
606.58	84.26
606.74	84.26
606.89	46.81
607.05	53.83
607.20	72.56
607.36	56.17
607.51	23.41
607.67	133.41
607.82	58.51
607.98	25.75
608.13	126.39
608.29	44.47
608.44	81.92
608.60	58.51
608.75	18.72
608.91	37.45
609.06	51.49
609.22	95.96
609.37	0.00
609.53	84.26
609.68	107.66
609.84	67.88
609.99	51.49
610.15	42.13
610.30	28.09
610.46	147.45
610.61	7.02
610.76	114.69
610.92	25.75
611.07	23.41
611.23	74.90
611.38	67.88
611.54	7.02
611.69	23.41
611.84	72.56
612.00	25.75
612.15	138.09
612.31	67.88
612.46	42.13
612.62	133.41
612.77	67.88
612.92	65.54
613.08	28.09
613.23	114.69
613.39	49.15
613.54	63.19
613.69	112.35
613.85	138.09
614.00	112.35
614.15	70.22
614.31	46.81
614.46	133.41
614.62	72.56
614.77	46.81
614.92	18.72
615.08	72.56
615.23	67.88
615.38	81.92
615.54	105.32
615.69	60.85
615.84	14.04
616.00	11.70
616.15	4.68
616.30	65.54
616.46	14.04
616.61	95.96
616.76	32.77
616.92	4.68
617.07	51.49
617.22	74.90
617.37	49.15
617.53	49.15
617.68	93.62
617.83	2.34
617.99	44.47
618.14	42.13
618.29	128.73
618.45	149.79
618.60	39.79
618.75	56.17
618.90	30.43
619.06	65.54
619.21	56.17
619.36	65.54
619.51	53.83
619.67	67.88
619.82	28.09
619.97	46.81
620.12	2.34
620.28	32.77
620.43	0.00
620.58	124.05
620.73	121.71
620.89	102.98
621.04	67.88
621.19	81.92
621.34	93.62
621.49	42.13
621.65	44.47
621.80	86.60
621.95	18.72
622.10	74.90
622.25	53.83
622.41	44.47
622.56	21.06
622.71	81.92
622.86	42.13
623.01	32.77
623.16	39.79
623.32	81.92
623.47	79.58
623.62	28.09
623.77	79.58
623.92	23.41
624.07	28.09
624.23	93.62
624.38	30.43
624.53	0.00
624.68	81.92
624.83	67.88
624.98	81.92
625.13	84.26
625.29	49.15
625.44	77.24
625.59	74.90
625.74	49.15
625.89	32.77
626.04	35.11
626.19	91.28
626.34	67.88
626.49	81.92
626.65	65.54
626.80	63.19
626.95	67.88
627.10	37.45
627.25	44.47
627.40	51.49
627.55	77.24
627.70	0.00
627.85	11.70
628.00	21.06
628.15	0.00
628.30	46.81
628.45	63.19
628.60	84.26
628.76	67.88
628.91	23.41
629.06	74.90
629.21	9.36
629.36	28.09
629.51	42.13
629.66	58.51
629.81	9.36
629.96	14.04
630.11	91.28
630.26	39.79
630.41	4.68
630.56	44.47
630.71	46.81
630.86	98.30
631.01	63.19
631.16	51.49
631.31	35.11
631.46	35.11
631.61	60.85
631.76	25.75
631.91	65.54
632.06	28.09
632.21	105.32
632.36	131.07
632.51	18.72
632.66	100.64
632.81	18.72
632.96	21.06
633.10	70.22
633.25	0.00
633.40	0.00
633.55	53.83
633.70	46.81
633.85	65.54
634.00	39.79
634.15	88.94
634.30	21.06
634.45	35.11
634.60	56.17
634.75	25.75
634.90	42.13
635.05	74.90
635.19	114.69
635.34	7.02
635.49	56.17
635.64	63.19
635.79	124.05
635.94	16.38
636.09	46.81
636.24	0.00
636.39	42.13
636.53	58.51
636.68	0.00
636.83	58.51
636.98	93.62
637.13	98.30
637.28	65.54
637.43	44.47
637.57	112.35
637.72	159.16
637.87	42.13
638.02	51.49
638.17	67.88
638.32	65.54
638.46	4.68
638.61	51.49
638.76	0.00
638.91	67.88
639.06	0.00
639.20	60.85
639.35	32.77
639.50	145.11
639.65	112.35
639.80	0.00
639.94	67.88
640.09	44.47
640.24	86.60
640.39	56.17
640.54	67.88
640.68	37.45
640.83	100.64
640.98	37.45
641.13	117.03
641.27	25.75
641.42	37.45
641.57	0.00
641.72	173.20
641.86	37.45
642.01	56.17
642.16	37.45
642.31	88.94
642.45	86.60
642.60	65.54
642.75	21.06
642.90	56.17
643.04	30.43
643.19	37.45
643.34	56.17
643.48	0.00
643.63	0.00
643.78	30.43
643.93	18.72
644.07	81.92
644.22	39.79
644.37	53.83
644.51	60.85
644.66	51.49
644.81	93.62
644.95	37.45
645.10	30.43
645.25	46.81
645.39	81.92
645.54	102.98
645.69	21.06
645.83	63.19
645.98	35.11
646.13	42.13
646.27	93.62
646.42	30.43
646.57	16.38
646.71	140.43
646.86	84.26
647.00	53.83
647.15	86.60
647.30	39.79
647.44	114.69
647.59	51.49
647.74	56.17
647.88	30.43
648.03	28.09
648.17	30.43
648.32	25.75
648.47	60.85
648.61	7.02
648.76	28.09
648.90	65.54
649.05	28.09
649.20	65.54
649.34	51.49
649.49	88.94
649.63	42.13
649.78	88.94
649.92	16.38
650.07	81.92
650.21	51.49
650.36	21.06
650.51	39.79
650.65	46.81
650.80	39.79
650.94	44.47
651.09	56.17
651.23	53.83
651.38	124.05
651.52	23.41
651.67	37.45
651.81	37.45
651.96	124.05
652.10	119.37
652.25	9.36
652.39	39.79
652.54	30.43
652.68	23.41
652.83	121.71
652.97	16.38
653.12	49.15
653.26	60.85
653.41	58.51
653.55	95.96
653.70	49.15
653.84	42.13
653.99	65.54
654.13	91.28
654.27	18.72
654.42	4.68
654.56	51.49
654.71	72.56
654.85	11.70
655.00	39.79
655.14	58.51
655.29	49.15
655.43	107.66
655.57	21.06
655.72	79.58
655.86	77.24
656.01	0.00
656.15	0.00
656.30	84.26
656.44	30.43
656.58	121.71
656.73	4.68
656.87	39.79
657.01	44.47
657.16	4.68
657.30	72.56
657.45	46.81
657.59	91.28
657.73	67.88
657.88	107.66
658.02	70.22
658.16	28.09
658.31	51.49
658.45	67.88
658.60	0.00
658.74	51.49
658.88	86.60
659.03	124.05
659.17	18.72
659.31	16.38
659.46	44.47
659.60	23.41
659.74	88.94
659.89	67.88
660.03	93.62
660.17	58.51
660.32	35.11
660.46	84.26
660.60	67.88
660.74	77.24
660.89	32.77
661.03	0.00
661.17	25.75
661.32	53.83
661.46	51.49
661.60	0.00
661.74	14.04
661.89	28.09
662.03	84.26
662.17	0.00
662.31	131.07
662.46	117.03
662.60	67.88
662.74	39.79
662.88	110.01
663.03	63.19
663.17	93.62
663.31	98.30
663.45	35.11
663.60	121.71
663.74	39.79
663.88	88.94
664.02	35.11
664.17	0.00
664.31	23.41
664.45	53.83
664.59	37.45
664.73	65.54
664.88	39.79
665.02	37.45
665.16	91.28
665.30	0.00
665.44	63.19
665.59	28.09
665.73	37.45
665.87	98.30
666.01	28.09
666.15	74.90
666.29	25.75
666.44	2.34
666.58	0.00
666.72	58.51
666.86	88.94
667.00	25.75
667.14	16.38
667.28	53.83
667.43	135.75
667.57	81.92
667.71	72.56
667.85	0.00
667.99	14.04
668.13	9.36
668.27	65.54
668.41	65.54
668.56	32.77
668.70	21.06
668.84	84.26
668.98	100.64
669.12	4.68
669.26	84.26
669.40	131.07
669.54	67.88
669.68	65.54
669.82	91.28
669.96	0.00
670.10	53.83
670.25	7.02
670.39	16.38
670.53	0.00
670.67	46.81
670.81	42.13
670.95	67.88
671.09	65.54
671.23	32.77
671.37	110.01
671.51	126.39
671.65	63.19
671.79	93.62
671.93	2.34
672.07	42.13
672.21	32.77
672.35	51.49
672.49	126.39
672.63	77.24
672.77	72.56
672.91	79.58
673.05	30.43
673.19	65.54
673.33	0.00
673.47	35.11
673.61	28.09
673.75	37.45
673.89	51.49
674.03	9.36
674.17	63.19
674.31	95.96
674.45	23.41
674.59	0.00
674.73	16.38
674.87	16.38
675.01	39.79
675.15	67.88
675.29	93.62
675.43	110.01
675.56	49.15
675.70	53.83
675.84	28.09
675.98	72.56
676.12	18.72
676.26	81.92
676.40	84.26
676.54	81.92
676.68	100.64
676.82	56.17
676.96	32.77
677.10	0.00
677.23	81.92
677.37	42.13
677.51	2.34
677.65	60.85
677.79	60.85
677.93	67.88
678.07	63.19
678.21	0.00
678.34	23.41
678.48	49.15
678.62	60.85
678.76	93.62
678.90	65.54
679.04	9.36
679.18	28.09
679.31	63.19
679.45	9.36
679.59	16.38
679.73	42.13
679.87	88.94
680.00	56.17
680.14	56.17
680.28	30.43
680.42	81.92
680.56	98.30
680.70	74.90
680.83	49.15
680.97	0.00
681.11	0.00
681.25	67.88
681.39	0.00
681.52	30.43
681.66	46.81
681.80	32.77
681.94	63.19
682.07	16.38
682.21	74.90
682.35	42.13
682.49	0.00
682.62	77.24
682.76	0.00
682.90	63.19
683.04	0.00
683.17	58.51
683.31	70.22
683.45	58.51
683.59	46.81
683.72	9.36
683.86	98.30
684.00	37.45
684.13	74.90
684.27	67.88
684.41	0.00
684.55	14.04
684.68	35.11
684.82	9.36
684.96	95.96
685.09	65.54
685.23	72.56
685.37	128.73
685.50	100.64
685.64	18.72
685.78	81.92
685.91	60.85
686.05	14.04
686.19	79.58
686.32	58.51
686.46	63.19
686.60	0.00
686.73	44.47
686.87	37.45
687.01	4.68
687.14	79.58
687.28	81.92
687.42	16.38
687.55	100.64
687.69	110.01
687.82	79.58
687.96	0.00
688.10	18.72
688.23	16.38
688.37	30.43
688.50	0.00
688.64	49.15
688.78	32.77
688.91	86.60
689.05	0.00
689.18	32.77
689.32	25.75
689.46	37.45
689.59	44.47
689.73	56.17
689.86	14.04
690.00	0.00
690.13	81.92
690.27	86.60
690.41	42.13
690.54	88.94
690.68	67.88
690.81	0.00
690.95	95.96
691.08	0.00
691.22	126.39
691.35	63.19
691.49	46.81
691.62	56.17
691.76	2.34
691.89	58.51
692.03	95.96
692.16	25.75
692.30	79.58
692.43	81.92
692.57	0.00
692.70	21.06
692.84	0.00
692.97	30.43
693.11	37.45
693.24	46.81
693.38	81.92
693.51	86.60
693.65	0.00
693.78	65.54
693.92	23.41
694.05	35.11
694.19	84.26
694.32	49.15
694.45	74.90
694.59	25.75
694.72	18.72
694.86	74.90
694.99	110.01
695.13	0.00
695.26	67.88
695.39	58.51
695.53	0.00
695.66	0.00
695.80	35.11
695.93	58.51
696.07	70.22
696.20	91.28
696.33	53.83
696.47	16.38
696.60	9.36
696.73	23.41
696.87	98.30
697.00	81.92
697.14	74.90
697.27	39.79
697.40	9.36
697.54	2.34
697.67	53.83
697.80	18.72
697.94	32.77
698.07	0.00
698.21	39.79
698.34	0.00
698.47	49.15
698.61	11.70
698.74	65.54
698.87	23.41
699.01	65.54
699.14	79.58
699.27	84.26
699.40	39.79
699.54	65.54
699.67	0.00
699.80	56.17
699.94	28.09
700.07	32.77
700.20	44.47
700.34	51.49
700.47	0.00
700.60	56.17
700.73	0.00
700.87	65.54
701.00	60.85
701.13	0.00
701.26	0.00
701.40	30.43
701.53	9.36
701.66	0.00
701.79	9.36
701.93	7.02
702.06	86.60
702.19	9.36
702.32	65.54
702.46	163.84
702.59	67.88
702.72	60.85
702.85	39.79
702.99	21.06
703.12	32.77
703.25	37.45
703.38	58.51
703.51	7.02
703.65	79.58
703.78	77.24
703.91	9.36
704.04	14.04
704.17	72.56
704.31	65.54
704.44	81.92
704.57	77.24
704.70	18.72
704.83	88.94
704.96	67.88
705.10	14.04
705.23	72.56
>>>>>End Processed Spectral Data<<<<<
