SpectraSuite Data File
++++++++++++++++++++++++++++++++++++
Date: Fri Oct 04 12:13:37 GMT-05:00 2013
User: price-jones
Dark Spectrum Present: No
Reference Spectrum Present: No
Number of Sampled Component Spectra: 1
Spectrometers: USB2+H05261
Integration Time (usec): 10000 (USB2+H05261)
Spectra Averaged: 1 (USB2+H05261)
Boxcar Smoothing: 0 (USB2+H05261)
Correct for Electrical Dark: No (USB2+H05261)
Strobe/Lamp Enabled: No (USB2+H05261)
Correct for Detector Non-linearity: No (USB2+H05261)
Correct for Stray Light: No (USB2+H05261)
Number of Pixels in Processed Spectrum: 2048
>>>>>Begin Processed Spectral Data<<<<<
365.73	0.00
365.92	0.00
366.12	0.00
366.32	0.00
366.52	0.00
366.72	0.00
366.91	0.00
367.11	0.00
367.31	0.00
367.51	0.00
367.70	0.00
367.90	0.00
368.10	0.00
368.30	0.00
368.49	0.00
368.69	0.00
368.89	0.00
369.09	0.00
369.28	0.00
369.48	0.00
369.68	0.00
369.87	0.00
370.07	0.00
370.27	0.00
370.47	0.00
370.66	0.00
370.86	0.00
371.06	0.00
371.25	0.00
371.45	0.00
371.65	0.00
371.84	25.75
372.04	0.00
372.24	0.00
372.44	0.00
372.63	0.00
372.83	18.72
373.03	21.06
373.22	18.72
373.42	0.00
373.62	37.45
373.81	16.38
374.01	25.75
374.21	28.09
374.40	32.77
374.60	63.19
374.79	28.09
374.99	7.02
375.19	102.98
375.38	9.36
375.58	0.00
375.78	2.34
375.97	63.19
376.17	0.00
376.37	51.49
376.56	0.00
376.76	0.00
376.95	14.04
377.15	0.00
377.35	53.83
377.54	70.22
377.74	42.13
377.93	37.45
378.13	0.00
378.33	32.77
378.52	0.00
378.72	65.54
378.91	60.85
379.11	51.49
379.31	53.83
379.50	25.75
379.70	35.11
379.89	56.17
380.09	0.00
380.28	72.56
380.48	46.81
380.68	0.00
380.87	46.81
381.07	30.43
381.26	0.00
381.46	0.00
381.65	23.41
381.85	9.36
382.04	53.83
382.24	0.00
382.43	0.00
382.63	0.00
382.83	0.00
383.02	53.83
383.22	14.04
383.41	21.06
383.61	14.04
383.80	46.81
384.00	23.41
384.19	0.00
384.39	37.45
384.58	0.00
384.78	105.32
384.97	32.77
385.17	0.00
385.36	58.51
385.56	0.00
385.75	0.00
385.95	0.00
386.14	32.77
386.34	49.15
386.53	86.60
386.72	51.49
386.92	0.00
387.11	0.00
387.31	16.38
387.50	63.19
387.70	21.06
387.89	49.15
388.09	0.00
388.28	35.11
388.48	0.00
388.67	25.75
388.86	44.47
389.06	16.38
389.25	35.11
389.45	0.00
389.64	4.68
389.84	67.88
390.03	60.85
390.22	11.70
390.42	0.00
390.61	84.26
390.81	93.62
391.00	67.88
391.19	0.00
391.39	51.49
391.58	56.17
391.78	0.00
391.97	72.56
392.16	16.38
392.36	74.90
392.55	46.81
392.75	0.00
392.94	32.77
393.13	9.36
393.33	21.06
393.52	30.43
393.71	81.92
393.91	7.02
394.10	0.00
394.29	98.30
394.49	11.70
394.68	67.88
394.88	0.00
395.07	0.00
395.26	28.09
395.46	84.26
395.65	28.09
395.84	16.38
396.04	0.00
396.23	0.00
396.42	51.49
396.62	18.72
396.81	37.45
397.00	84.26
397.19	65.54
397.39	32.77
397.58	0.00
397.77	51.49
397.97	30.43
398.16	65.54
398.35	46.81
398.55	56.17
398.74	0.00
398.93	37.45
399.12	51.49
399.32	30.43
399.51	0.00
399.70	11.70
399.90	0.00
400.09	0.00
400.28	0.00
400.47	53.83
400.67	2.34
400.86	0.00
401.05	60.85
401.24	44.47
401.44	16.38
401.63	0.00
401.82	91.28
402.01	37.45
402.21	105.32
402.40	16.38
402.59	14.04
402.78	0.00
402.97	63.19
403.17	28.09
403.36	126.39
403.55	58.51
403.74	0.00
403.93	44.47
404.13	53.83
404.32	30.43
404.51	0.00
404.70	53.83
404.89	37.45
405.09	46.81
405.28	53.83
405.47	7.02
405.66	79.58
405.85	37.45
406.05	23.41
406.24	4.68
406.43	70.22
406.62	18.72
406.81	110.01
407.00	16.38
407.20	23.41
407.39	67.88
407.58	67.88
407.77	84.26
407.96	110.01
408.15	21.06
408.34	25.75
408.54	56.17
408.73	60.85
408.92	0.00
409.11	42.13
409.30	14.04
409.49	74.90
409.68	14.04
409.87	16.38
410.07	30.43
410.26	21.06
410.45	32.77
410.64	37.45
410.83	2.34
411.02	114.69
411.21	0.00
411.40	100.64
411.59	60.85
411.78	0.00
411.98	42.13
412.17	37.45
412.36	63.19
412.55	86.60
412.74	39.79
412.93	102.98
413.12	56.17
413.31	56.17
413.50	35.11
413.69	35.11
413.88	44.47
414.07	0.00
414.26	37.45
414.45	0.00
414.64	28.09
414.83	30.43
415.02	74.90
415.22	25.75
415.41	2.34
415.60	18.72
415.79	56.17
415.98	77.24
416.17	0.00
416.36	23.41
416.55	65.54
416.74	39.79
416.93	53.83
417.12	35.11
417.31	25.75
417.50	42.13
417.69	79.58
417.88	44.47
418.07	25.75
418.26	0.00
418.45	88.94
418.64	42.13
418.83	0.00
419.02	67.88
419.21	65.54
419.39	49.15
419.58	91.28
419.77	32.77
419.96	11.70
420.15	86.60
420.34	37.45
420.53	9.36
420.72	53.83
420.91	65.54
421.10	51.49
421.29	149.79
421.48	110.01
421.67	98.30
421.86	28.09
422.05	88.94
422.24	46.81
422.43	2.34
422.61	30.43
422.80	44.47
422.99	46.81
423.18	0.00
423.37	49.15
423.56	35.11
423.75	74.90
423.94	72.56
424.13	93.62
424.32	124.05
424.50	35.11
424.69	72.56
424.88	30.43
425.07	79.58
425.26	67.88
425.45	35.11
425.64	49.15
425.83	0.00
426.01	0.00
426.20	2.34
426.39	35.11
426.58	2.34
426.77	77.24
426.96	81.92
427.15	39.79
427.33	0.00
427.52	63.19
427.71	98.30
427.90	42.13
428.09	23.41
428.28	30.43
428.46	74.90
428.65	30.43
428.84	84.26
429.03	53.83
429.22	2.34
429.40	74.90
429.59	30.43
429.78	25.75
429.97	0.00
430.16	21.06
430.34	23.41
430.53	0.00
430.72	32.77
430.91	30.43
431.10	95.96
431.28	42.13
431.47	56.17
431.66	60.85
431.85	0.00
432.03	53.83
432.22	49.15
432.41	86.60
432.60	0.00
432.79	100.64
432.97	72.56
433.16	37.45
433.35	14.04
433.54	42.13
433.72	0.00
433.91	56.17
434.10	35.11
434.28	74.90
434.47	30.43
434.66	79.58
434.85	0.00
435.03	145.11
435.22	79.58
435.41	0.00
435.59	56.17
435.78	23.41
435.97	74.90
436.16	16.38
436.34	37.45
436.53	86.60
436.72	67.88
436.90	88.94
437.09	60.85
437.28	42.13
437.46	9.36
437.65	30.43
437.84	51.49
438.02	74.90
438.21	56.17
438.40	7.02
438.58	46.81
438.77	53.83
438.96	39.79
439.14	98.30
439.33	86.60
439.52	93.62
439.70	23.41
439.89	74.90
440.08	37.45
440.26	107.66
440.45	110.01
440.63	51.49
440.82	23.41
441.01	77.24
441.19	77.24
441.38	39.79
441.57	32.77
441.75	119.37
441.94	67.88
442.12	23.41
442.31	138.09
442.50	77.24
442.68	18.72
442.87	105.32
443.05	74.90
443.24	0.00
443.43	30.43
443.61	35.11
443.80	0.00
443.98	4.68
444.17	65.54
444.35	56.17
444.54	77.24
444.73	0.00
444.91	100.64
445.10	49.15
445.28	81.92
445.47	30.43
445.65	91.28
445.84	77.24
446.02	25.75
446.21	110.01
446.39	49.15
446.58	25.75
446.77	121.71
446.95	65.54
447.14	84.26
447.32	60.85
447.51	23.41
447.69	63.19
447.88	79.58
448.06	63.19
448.25	44.47
448.43	18.72
448.62	65.54
448.80	51.49
448.99	58.51
449.17	105.32
449.36	28.09
449.54	77.24
449.73	53.83
449.91	86.60
450.10	11.70
450.28	28.09
450.46	39.79
450.65	95.96
450.83	46.81
451.02	74.90
451.20	67.88
451.39	95.96
451.57	58.51
451.76	70.22
451.94	28.09
452.13	7.02
452.31	25.75
452.49	60.85
452.68	84.26
452.86	81.92
453.05	28.09
453.23	46.81
453.42	72.56
453.60	42.13
453.78	0.00
453.97	79.58
454.15	32.77
454.34	53.83
454.52	39.79
454.70	74.90
454.89	86.60
455.07	0.00
455.26	58.51
455.44	81.92
455.62	81.92
455.81	117.03
455.99	81.92
456.17	86.60
456.36	16.38
456.54	60.85
456.73	39.79
456.91	0.00
457.09	18.72
457.28	30.43
457.46	4.68
457.64	60.85
457.83	44.47
458.01	2.34
458.19	95.96
458.38	98.30
458.56	14.04
458.74	128.73
458.93	30.43
459.11	74.90
459.29	28.09
459.48	0.00
459.66	37.45
459.84	23.41
460.03	79.58
460.21	142.77
460.39	65.54
460.57	51.49
460.76	58.51
460.94	42.13
461.12	100.64
461.31	0.00
461.49	46.81
461.67	60.85
461.85	53.83
462.04	14.04
462.22	65.54
462.40	23.41
462.59	77.24
462.77	4.68
462.95	11.70
463.13	39.79
463.32	2.34
463.50	102.98
463.68	81.92
463.86	2.34
464.05	60.85
464.23	65.54
464.41	63.19
464.59	46.81
464.78	65.54
464.96	86.60
465.14	105.32
465.32	112.35
465.50	114.69
465.69	93.62
465.87	56.17
466.05	91.28
466.23	53.83
466.41	18.72
466.60	56.17
466.78	88.94
466.96	138.09
467.14	28.09
467.32	28.09
467.51	46.81
467.69	44.47
467.87	0.00
468.05	58.51
468.23	70.22
468.41	86.60
468.60	51.49
468.78	30.43
468.96	35.11
469.14	42.13
469.32	93.62
469.50	44.47
469.69	72.56
469.87	0.00
470.05	0.00
470.23	70.22
470.41	30.43
470.59	56.17
470.77	79.58
470.95	91.28
471.14	0.00
471.32	32.77
471.50	135.75
471.68	42.13
471.86	60.85
472.04	58.51
472.22	0.00
472.40	77.24
472.58	0.00
472.77	7.02
472.95	32.77
473.13	95.96
473.31	23.41
473.49	65.54
473.67	4.68
473.85	0.00
474.03	72.56
474.21	56.17
474.39	32.77
474.57	42.13
474.75	23.41
474.93	56.17
475.12	72.56
475.30	77.24
475.48	63.19
475.66	86.60
475.84	25.75
476.02	58.51
476.20	37.45
476.38	35.11
476.56	49.15
476.74	98.30
476.92	58.51
477.10	70.22
477.28	93.62
477.46	28.09
477.64	0.00
477.82	117.03
478.00	28.09
478.18	11.70
478.36	79.58
478.54	67.88
478.72	9.36
478.90	72.56
479.08	35.11
479.26	107.66
479.44	14.04
479.62	102.98
479.80	0.00
479.98	11.70
480.16	58.51
480.34	25.75
480.52	0.00
480.70	86.60
480.88	112.35
481.06	28.09
481.24	145.11
481.41	35.11
481.59	93.62
481.77	30.43
481.95	60.85
482.13	30.43
482.31	42.13
482.49	37.45
482.67	58.51
482.85	102.98
483.03	93.62
483.21	58.51
483.39	46.81
483.57	72.56
483.74	56.17
483.92	56.17
484.10	67.88
484.28	79.58
484.46	121.71
484.64	16.38
484.82	28.09
485.00	18.72
485.18	51.49
485.35	65.54
485.53	42.13
485.71	16.38
485.89	65.54
486.07	91.28
486.25	145.11
486.43	60.85
486.61	42.13
486.78	63.19
486.96	44.47
487.14	72.56
487.32	63.19
487.50	95.96
487.68	37.45
487.85	65.54
488.03	79.58
488.21	30.43
488.39	70.22
488.57	77.24
488.75	72.56
488.92	67.88
489.10	117.03
489.28	100.64
489.46	46.81
489.64	100.64
489.81	56.17
489.99	58.51
490.17	25.75
490.35	60.85
490.53	44.47
490.70	74.90
490.88	30.43
491.06	86.60
491.24	74.90
491.41	30.43
491.59	51.49
491.77	81.92
491.95	65.54
492.13	65.54
492.30	28.09
492.48	81.92
492.66	72.56
492.84	42.13
493.01	112.35
493.19	25.75
493.37	84.26
493.54	51.49
493.72	107.66
493.90	70.22
494.08	98.30
494.25	124.05
494.43	49.15
494.61	70.22
494.79	79.58
494.96	42.13
495.14	37.45
495.32	121.71
495.49	49.15
495.67	131.07
495.85	117.03
496.02	81.92
496.20	142.77
496.38	60.85
496.55	135.75
496.73	56.17
496.91	93.62
497.09	72.56
497.26	56.17
497.44	67.88
497.62	128.73
497.79	102.98
497.97	93.62
498.14	46.81
498.32	74.90
498.50	46.81
498.67	107.66
498.85	112.35
499.03	84.26
499.20	102.98
499.38	0.00
499.56	81.92
499.73	51.49
499.91	110.01
500.08	74.90
500.26	49.15
500.44	72.56
500.61	170.86
500.79	79.58
500.97	100.64
501.14	159.16
501.32	100.64
501.49	51.49
501.67	28.09
501.84	110.01
502.02	77.24
502.20	56.17
502.37	60.85
502.55	110.01
502.72	60.85
502.90	60.85
503.07	70.22
503.25	77.24
503.43	74.90
503.60	56.17
503.78	107.66
503.95	124.05
504.13	119.37
504.30	138.09
504.48	72.56
504.65	51.49
504.83	44.47
505.01	77.24
505.18	105.32
505.36	51.49
505.53	100.64
505.71	25.75
505.88	147.45
506.06	93.62
506.23	51.49
506.41	46.81
506.58	35.11
506.76	11.70
506.93	74.90
507.11	23.41
507.28	84.26
507.46	63.19
507.63	30.43
507.81	142.77
507.98	72.56
508.16	14.04
508.33	124.05
508.50	49.15
508.68	100.64
508.85	72.56
509.03	51.49
509.20	138.09
509.38	0.00
509.55	110.01
509.73	112.35
509.90	81.92
510.08	0.00
510.25	84.26
510.42	126.39
510.60	44.47
510.77	65.54
510.95	119.37
511.12	53.83
511.30	128.73
511.47	67.88
511.64	25.75
511.82	84.26
511.99	102.98
512.17	93.62
512.34	79.58
512.51	79.58
512.69	58.51
512.86	112.35
513.04	72.56
513.21	128.73
513.38	51.49
513.56	46.81
513.73	84.26
513.90	154.48
514.08	131.07
514.25	7.02
514.43	32.77
514.60	67.88
514.77	77.24
514.95	102.98
515.12	86.60
515.29	70.22
515.47	56.17
515.64	70.22
515.81	93.62
515.99	46.81
516.16	81.92
516.33	49.15
516.51	124.05
516.68	51.49
516.85	112.35
517.03	46.81
517.20	124.05
517.37	23.41
517.54	46.81
517.72	93.62
517.89	37.45
518.06	25.75
518.24	42.13
518.41	49.15
518.58	102.98
518.75	42.13
518.93	84.26
519.10	51.49
519.27	30.43
519.45	60.85
519.62	21.06
519.79	2.34
519.96	65.54
520.14	124.05
520.31	91.28
520.48	14.04
520.65	23.41
520.83	105.32
521.00	98.30
521.17	65.54
521.34	100.64
521.52	100.64
521.69	60.85
521.86	32.77
522.03	51.49
522.20	74.90
522.38	51.49
522.55	147.45
522.72	117.03
522.89	102.98
523.07	25.75
523.24	77.24
523.41	58.51
523.58	58.51
523.75	98.30
523.92	0.00
524.10	70.22
524.27	65.54
524.44	53.83
524.61	46.81
524.78	102.98
524.96	72.56
525.13	72.56
525.30	84.26
525.47	98.30
525.64	39.79
525.81	102.98
525.98	46.81
526.16	56.17
526.33	56.17
526.50	63.19
526.67	81.92
526.84	72.56
527.01	53.83
527.18	110.01
527.36	93.62
527.53	79.58
527.70	53.83
527.87	23.41
528.04	126.39
528.21	65.54
528.38	70.22
528.55	107.66
528.72	63.19
528.89	121.71
529.07	77.24
529.24	70.22
529.41	84.26
529.58	23.41
529.75	44.47
529.92	86.60
530.09	102.98
530.26	110.01
530.43	88.94
530.60	72.56
530.77	119.37
530.94	88.94
531.11	102.98
531.28	58.51
531.46	126.39
531.63	39.79
531.80	60.85
531.97	0.00
532.14	39.79
532.31	117.03
532.48	23.41
532.65	72.56
532.82	79.58
532.99	119.37
533.16	44.47
533.33	53.83
533.50	117.03
533.67	84.26
533.84	86.60
534.01	93.62
534.18	91.28
534.35	53.83
534.52	107.66
534.69	88.94
534.86	70.22
535.03	93.62
535.20	119.37
535.37	100.64
535.54	79.58
535.71	95.96
535.88	79.58
536.05	105.32
536.22	60.85
536.38	28.09
536.55	65.54
536.72	147.45
536.89	49.15
537.06	67.88
537.23	37.45
537.40	93.62
537.57	121.71
537.74	25.75
537.91	142.77
538.08	121.71
538.25	156.82
538.42	63.19
538.59	86.60
538.75	72.56
538.92	102.98
539.09	21.06
539.26	72.56
539.43	14.04
539.60	140.43
539.77	100.64
539.94	86.60
540.11	100.64
540.28	110.01
540.44	95.96
540.61	105.32
540.78	107.66
540.95	88.94
541.12	156.82
541.29	77.24
541.46	100.64
541.62	138.09
541.79	95.96
541.96	91.28
542.13	65.54
542.30	100.64
542.47	53.83
542.63	32.77
542.80	63.19
542.97	93.62
543.14	142.77
543.31	93.62
543.48	46.81
543.64	49.15
543.81	117.03
543.98	67.88
544.15	53.83
544.32	126.39
544.48	95.96
544.65	147.45
544.82	124.05
544.99	98.30
545.16	42.13
545.32	138.09
545.49	35.11
545.66	79.58
545.83	21.06
546.00	56.17
546.16	70.22
546.33	53.83
546.50	86.60
546.67	124.05
546.83	95.96
547.00	88.94
547.17	126.39
547.34	98.30
547.50	121.71
547.67	100.64
547.84	23.41
548.00	154.48
548.17	35.11
548.34	65.54
548.51	86.60
548.67	128.73
548.84	0.00
549.01	128.73
549.18	107.66
549.34	51.49
549.51	135.75
549.68	98.30
549.84	44.47
550.01	107.66
550.18	107.66
550.34	70.22
550.51	39.79
550.68	79.58
550.84	72.56
551.01	63.19
551.18	70.22
551.34	49.15
551.51	140.43
551.68	28.09
551.84	70.22
552.01	102.98
552.18	149.79
552.34	119.37
552.51	74.90
552.68	107.66
552.84	63.19
553.01	93.62
553.18	0.00
553.34	30.43
553.51	51.49
553.67	119.37
553.84	72.56
554.01	114.69
554.17	72.56
554.34	105.32
554.51	65.54
554.67	91.28
554.84	67.88
555.00	44.47
555.17	74.90
555.33	84.26
555.50	51.49
555.67	56.17
555.83	44.47
556.00	77.24
556.16	58.51
556.33	91.28
556.50	147.45
556.66	56.17
556.83	149.79
556.99	72.56
557.16	124.05
557.32	60.85
557.49	4.68
557.65	91.28
557.82	114.69
557.98	7.02
558.15	86.60
558.32	28.09
558.48	51.49
558.65	98.30
558.81	84.26
558.98	119.37
559.14	81.92
559.31	86.60
559.47	77.24
559.64	91.28
559.80	173.20
559.97	44.47
560.13	7.02
560.30	79.58
560.46	100.64
560.63	154.48
560.79	91.28
560.96	39.79
561.12	60.85
561.29	56.17
561.45	0.00
561.61	95.96
561.78	56.17
561.94	133.41
562.11	49.15
562.27	135.75
562.44	119.37
562.60	100.64
562.77	70.22
562.93	58.51
563.10	60.85
563.26	114.69
563.42	63.19
563.59	121.71
563.75	70.22
563.92	161.50
564.08	91.28
564.24	131.07
564.41	72.56
564.57	114.69
564.74	102.98
564.90	126.39
565.07	81.92
565.23	93.62
565.39	93.62
565.56	102.98
565.72	39.79
565.88	105.32
566.05	119.37
566.21	105.32
566.38	84.26
566.54	105.32
566.70	77.24
566.87	124.05
567.03	91.28
567.19	100.64
567.36	56.17
567.52	86.60
567.68	74.90
567.85	65.54
568.01	49.15
568.17	126.39
568.34	79.58
568.50	18.72
568.66	98.30
568.83	60.85
568.99	121.71
569.15	95.96
569.32	88.94
569.48	49.15
569.64	100.64
569.81	95.96
569.97	77.24
570.13	124.05
570.30	81.92
570.46	49.15
570.62	98.30
570.78	65.54
570.95	23.41
571.11	72.56
571.27	63.19
571.43	4.68
571.60	102.98
571.76	145.11
571.92	88.94
572.09	65.54
572.25	79.58
572.41	91.28
572.57	84.26
572.74	49.15
572.90	84.26
573.06	44.47
573.22	91.28
573.38	100.64
573.55	88.94
573.71	44.47
573.87	42.13
574.03	56.17
574.20	72.56
574.36	65.54
574.52	117.03
574.68	49.15
574.84	110.01
575.01	77.24
575.17	49.15
575.33	131.07
575.49	88.94
575.65	56.17
575.82	159.16
575.98	11.70
576.14	81.92
576.30	72.56
576.46	81.92
576.62	77.24
576.79	60.85
576.95	88.94
577.11	74.90
577.27	84.26
577.43	0.00
577.59	65.54
577.75	44.47
577.92	70.22
578.08	44.47
578.24	88.94
578.40	51.49
578.56	102.98
578.72	65.54
578.88	72.56
579.04	105.32
579.21	110.01
579.37	18.72
579.53	67.88
579.69	149.79
579.85	53.83
580.01	39.79
580.17	74.90
580.33	84.26
580.49	35.11
580.65	14.04
580.82	84.26
580.98	91.28
581.14	121.71
581.30	70.22
581.46	56.17
581.62	84.26
581.78	119.37
581.94	0.00
582.10	86.60
582.26	0.00
582.42	112.35
582.58	138.09
582.74	114.69
582.90	28.09
583.06	67.88
583.22	60.85
583.38	135.75
583.54	81.92
583.70	91.28
583.86	110.01
584.02	65.54
584.18	74.90
584.34	93.62
584.50	65.54
584.66	74.90
584.82	58.51
584.98	114.69
585.14	70.22
585.30	46.81
585.46	0.00
585.62	70.22
585.78	102.98
585.94	39.79
586.10	28.09
586.26	74.90
586.42	39.79
586.58	65.54
586.74	35.11
586.90	135.75
587.06	51.49
587.22	124.05
587.38	81.92
587.54	72.56
587.70	58.51
587.86	0.00
588.02	67.88
588.18	51.49
588.34	16.38
588.49	88.94
588.65	152.13
588.81	131.07
588.97	21.06
589.13	86.60
589.29	121.71
589.45	77.24
589.61	88.94
589.77	30.43
589.93	60.85
590.08	28.09
590.24	53.83
590.40	25.75
590.56	70.22
590.72	0.00
590.88	81.92
591.04	81.92
591.20	56.17
591.35	35.11
591.51	74.90
591.67	39.79
591.83	37.45
591.99	58.51
592.15	56.17
592.31	53.83
592.46	0.00
592.62	81.92
592.78	100.64
592.94	49.15
593.10	72.56
593.26	46.81
593.41	135.75
593.57	107.66
593.73	79.58
593.89	81.92
594.05	49.15
594.20	58.51
594.36	81.92
594.52	39.79
594.68	98.30
594.84	119.37
594.99	161.50
595.15	60.85
595.31	112.35
595.47	49.15
595.62	60.85
595.78	88.94
595.94	67.88
596.10	11.70
596.25	98.30
596.41	28.09
596.57	86.60
596.73	11.70
596.88	81.92
597.04	72.56
597.20	145.11
597.36	28.09
597.51	0.00
597.67	107.66
597.83	112.35
597.99	49.15
598.14	79.58
598.30	79.58
598.46	39.79
598.61	65.54
598.77	37.45
598.93	102.98
599.09	84.26
599.24	124.05
599.40	140.43
599.56	88.94
599.71	53.83
599.87	91.28
600.03	149.79
600.18	93.62
600.34	65.54
600.50	65.54
600.65	105.32
600.81	93.62
600.97	0.00
601.12	135.75
601.28	37.45
601.44	53.83
601.59	0.00
601.75	84.26
601.91	86.60
602.06	128.73
602.22	70.22
602.37	91.28
602.53	126.39
602.69	44.47
602.84	44.47
603.00	105.32
603.16	84.26
603.31	70.22
603.47	46.81
603.62	49.15
603.78	107.66
603.94	7.02
604.09	7.02
604.25	25.75
604.40	98.30
604.56	74.90
604.71	86.60
604.87	60.85
605.03	49.15
605.18	56.17
605.34	131.07
605.49	39.79
605.65	42.13
605.80	23.41
605.96	9.36
606.12	110.01
606.27	98.30
606.43	70.22
606.58	128.73
606.74	79.58
606.89	112.35
607.05	39.79
607.20	100.64
607.36	56.17
607.51	16.38
607.67	30.43
607.82	35.11
607.98	56.17
608.13	98.30
608.29	74.90
608.44	67.88
608.60	93.62
608.75	72.56
608.91	39.79
609.06	42.13
609.22	49.15
609.37	46.81
609.53	93.62
609.68	72.56
609.84	93.62
609.99	112.35
610.15	102.98
610.30	79.58
610.46	63.19
610.61	145.11
610.76	63.19
610.92	91.28
611.07	138.09
611.23	32.77
611.38	74.90
611.54	51.49
611.69	51.49
611.84	42.13
612.00	79.58
612.15	51.49
612.31	70.22
612.46	77.24
612.62	74.90
612.77	74.90
612.92	166.18
613.08	112.35
613.23	49.15
613.39	70.22
613.54	91.28
613.69	93.62
613.85	81.92
614.00	112.35
614.15	46.81
614.31	23.41
614.46	70.22
614.62	42.13
614.77	70.22
614.92	58.51
615.08	102.98
615.23	93.62
615.38	74.90
615.54	121.71
615.69	81.92
615.84	0.00
616.00	35.11
616.15	37.45
616.30	0.00
616.46	18.72
616.61	25.75
616.76	53.83
616.92	72.56
617.07	21.06
617.22	51.49
617.37	51.49
617.53	93.62
617.68	93.62
617.83	72.56
617.99	67.88
618.14	126.39
618.29	95.96
618.45	81.92
618.60	72.56
618.75	135.75
618.90	9.36
619.06	35.11
619.21	114.69
619.36	72.56
619.51	30.43
619.67	112.35
619.82	95.96
619.97	30.43
620.12	100.64
620.28	67.88
620.43	105.32
620.58	79.58
620.73	63.19
620.89	44.47
621.04	0.00
621.19	88.94
621.34	4.68
621.49	0.00
621.65	21.06
621.80	60.85
621.95	28.09
622.10	39.79
622.25	0.00
622.41	67.88
622.56	91.28
622.71	81.92
622.86	105.32
623.01	46.81
623.16	70.22
623.32	42.13
623.47	74.90
623.62	117.03
623.77	79.58
623.92	142.77
624.07	51.49
624.23	58.51
624.38	28.09
624.53	14.04
624.68	16.38
624.83	152.13
624.98	37.45
625.13	14.04
625.29	30.43
625.44	84.26
625.59	60.85
625.74	84.26
625.89	25.75
626.04	4.68
626.19	65.54
626.34	74.90
626.49	44.47
626.65	65.54
626.80	107.66
626.95	44.47
627.10	2.34
627.25	56.17
627.40	7.02
627.55	88.94
627.70	100.64
627.85	70.22
628.00	30.43
628.15	126.39
628.30	86.60
628.45	21.06
628.60	67.88
628.76	0.00
628.91	74.90
629.06	11.70
629.21	121.71
629.36	46.81
629.51	28.09
629.66	49.15
629.81	21.06
629.96	114.69
630.11	51.49
630.26	44.47
630.41	70.22
630.56	86.60
630.71	51.49
630.86	79.58
631.01	4.68
631.16	70.22
631.31	49.15
631.46	21.06
631.61	88.94
631.76	98.30
631.91	135.75
632.06	21.06
632.21	42.13
632.36	93.62
632.51	98.30
632.66	42.13
632.81	119.37
632.96	88.94
633.10	67.88
633.25	51.49
633.40	70.22
633.55	67.88
633.70	23.41
633.85	77.24
634.00	46.81
634.15	63.19
634.30	0.00
634.45	86.60
634.60	105.32
634.75	72.56
634.90	84.26
635.05	0.00
635.19	56.17
635.34	25.75
635.49	100.64
635.64	98.30
635.79	98.30
635.94	39.79
636.09	0.00
636.24	93.62
636.39	23.41
636.53	117.03
636.68	77.24
636.83	63.19
636.98	72.56
637.13	53.83
637.28	25.75
637.43	39.79
637.57	105.32
637.72	7.02
637.87	79.58
638.02	128.73
638.17	0.00
638.32	4.68
638.46	156.82
638.61	79.58
638.76	72.56
638.91	14.04
639.06	77.24
639.20	135.75
639.35	39.79
639.50	72.56
639.65	81.92
639.80	98.30
639.94	91.28
640.09	42.13
640.24	0.00
640.39	39.79
640.54	30.43
640.68	91.28
640.83	0.00
640.98	114.69
641.13	65.54
641.27	28.09
641.42	72.56
641.57	72.56
641.72	102.98
641.86	65.54
642.01	49.15
642.16	51.49
642.31	107.66
642.45	77.24
642.60	107.66
642.75	88.94
642.90	70.22
643.04	28.09
643.19	39.79
643.34	51.49
643.48	4.68
643.63	56.17
643.78	74.90
643.93	16.38
644.07	0.00
644.22	0.00
644.37	107.66
644.51	16.38
644.66	117.03
644.81	18.72
644.95	84.26
645.10	49.15
645.25	58.51
645.39	77.24
645.54	53.83
645.69	39.79
645.83	37.45
645.98	79.58
646.13	72.56
646.27	51.49
646.42	65.54
646.57	84.26
646.71	21.06
646.86	35.11
647.00	91.28
647.15	53.83
647.30	42.13
647.44	49.15
647.59	25.75
647.74	74.90
647.88	60.85
648.03	86.60
648.17	28.09
648.32	4.68
648.47	58.51
648.61	28.09
648.76	7.02
648.90	49.15
649.05	88.94
649.20	46.81
649.34	51.49
649.49	58.51
649.63	42.13
649.78	30.43
649.92	67.88
650.07	74.90
650.21	28.09
650.36	119.37
650.51	46.81
650.65	44.47
650.80	39.79
650.94	102.98
651.09	32.77
651.23	32.77
651.38	58.51
651.52	58.51
651.67	67.88
651.81	117.03
651.96	114.69
652.10	98.30
652.25	70.22
652.39	110.01
652.54	46.81
652.68	37.45
652.83	11.70
652.97	114.69
653.12	91.28
653.26	30.43
653.41	0.00
653.55	100.64
653.70	79.58
653.84	32.77
653.99	18.72
654.13	42.13
654.27	11.70
654.42	58.51
654.56	63.19
654.71	49.15
654.85	63.19
655.00	74.90
655.14	74.90
655.29	60.85
655.43	46.81
655.57	0.00
655.72	53.83
655.86	105.32
656.01	53.83
656.15	58.51
656.30	39.79
656.44	39.79
656.58	21.06
656.73	9.36
656.87	86.60
657.01	51.49
657.16	28.09
657.30	58.51
657.45	81.92
657.59	72.56
657.73	18.72
657.88	0.00
658.02	63.19
658.16	37.45
658.31	93.62
658.45	95.96
658.60	65.54
658.74	121.71
658.88	14.04
659.03	56.17
659.17	81.92
659.31	79.58
659.46	46.81
659.60	0.00
659.74	37.45
659.89	79.58
660.03	58.51
660.17	67.88
660.32	21.06
660.46	49.15
660.60	25.75
660.74	39.79
660.89	63.19
661.03	30.43
661.17	7.02
661.32	0.00
661.46	58.51
661.60	0.00
661.74	49.15
661.89	53.83
662.03	53.83
662.17	39.79
662.31	0.00
662.46	56.17
662.60	58.51
662.74	72.56
662.88	14.04
663.03	114.69
663.17	42.13
663.31	124.05
663.45	23.41
663.60	77.24
663.74	100.64
663.88	46.81
664.02	23.41
664.17	4.68
664.31	0.00
664.45	35.11
664.59	60.85
664.73	9.36
664.88	112.35
665.02	70.22
665.16	128.73
665.30	88.94
665.44	105.32
665.59	32.77
665.73	56.17
665.87	9.36
666.01	91.28
666.15	58.51
666.29	65.54
666.44	30.43
666.58	44.47
666.72	0.00
666.86	23.41
667.00	70.22
667.14	107.66
667.28	84.26
667.43	70.22
667.57	44.47
667.71	16.38
667.85	72.56
667.99	53.83
668.13	67.88
668.27	93.62
668.41	25.75
668.56	18.72
668.70	60.85
668.84	39.79
668.98	98.30
669.12	98.30
669.26	70.22
669.40	84.26
669.54	23.41
669.68	0.00
669.82	58.51
669.96	16.38
670.10	16.38
670.25	56.17
670.39	37.45
670.53	77.24
670.67	16.38
670.81	0.00
670.95	81.92
671.09	56.17
671.23	60.85
671.37	25.75
671.51	49.15
671.65	18.72
671.79	0.00
671.93	84.26
672.07	35.11
672.21	49.15
672.35	21.06
672.49	37.45
672.63	44.47
672.77	49.15
672.91	95.96
673.05	32.77
673.19	30.43
673.33	0.00
673.47	98.30
673.61	16.38
673.75	70.22
673.89	70.22
674.03	53.83
674.17	91.28
674.31	7.02
674.45	51.49
674.59	0.00
674.73	77.24
674.87	0.00
675.01	81.92
675.15	74.90
675.29	35.11
675.43	70.22
675.56	44.47
675.70	112.35
675.84	56.17
675.98	51.49
676.12	70.22
676.26	0.00
676.40	42.13
676.54	49.15
676.68	100.64
676.82	88.94
676.96	32.77
677.10	60.85
677.23	135.75
677.37	100.64
677.51	2.34
677.65	46.81
677.79	49.15
677.93	74.90
678.07	42.13
678.21	44.47
678.34	0.00
678.48	4.68
678.62	119.37
678.76	0.00
678.90	91.28
679.04	0.00
679.18	14.04
679.31	35.11
679.45	11.70
679.59	23.41
679.73	16.38
679.87	119.37
680.00	0.00
680.14	77.24
680.28	58.51
680.42	65.54
680.56	58.51
680.70	37.45
680.83	0.00
680.97	98.30
681.11	93.62
681.25	91.28
681.39	117.03
681.52	102.98
681.66	21.06
681.80	23.41
681.94	21.06
682.07	2.34
682.21	58.51
682.35	46.81
682.49	39.79
682.62	95.96
682.76	91.28
682.90	67.88
683.04	42.13
683.17	30.43
683.31	79.58
683.45	53.83
683.59	42.13
683.72	37.45
683.86	21.06
684.00	77.24
684.13	67.88
684.27	0.00
684.41	46.81
684.55	72.56
684.68	28.09
684.82	53.83
684.96	65.54
685.09	60.85
685.23	30.43
685.37	39.79
685.50	4.68
685.64	95.96
685.78	9.36
685.91	119.37
686.05	88.94
686.19	23.41
686.32	98.30
686.46	32.77
686.60	0.00
686.73	14.04
686.87	72.56
687.01	49.15
687.14	0.00
687.28	0.00
687.42	53.83
687.55	81.92
687.69	88.94
687.82	49.15
687.96	74.90
688.10	51.49
688.23	98.30
688.37	35.11
688.50	0.00
688.64	9.36
688.78	49.15
688.91	7.02
689.05	25.75
689.18	56.17
689.32	46.81
689.46	77.24
689.59	28.09
689.73	11.70
689.86	2.34
690.00	16.38
690.13	44.47
690.27	124.05
690.41	56.17
690.54	11.70
690.68	63.19
690.81	11.70
690.95	21.06
691.08	53.83
691.22	42.13
691.35	79.58
691.49	11.70
691.62	37.45
691.76	32.77
691.89	18.72
692.03	21.06
692.16	63.19
692.30	0.00
692.43	4.68
692.57	18.72
692.70	51.49
692.84	23.41
692.97	0.00
693.11	0.00
693.24	11.70
693.38	18.72
693.51	53.83
693.65	81.92
693.78	37.45
693.92	14.04
694.05	28.09
694.19	0.00
694.32	39.79
694.45	9.36
694.59	84.26
694.72	0.00
694.86	0.00
694.99	18.72
695.13	39.79
695.26	32.77
695.39	4.68
695.53	95.96
695.66	63.19
695.80	0.00
695.93	70.22
696.07	51.49
696.20	2.34
696.33	32.77
696.47	42.13
696.60	28.09
696.73	70.22
696.87	4.68
697.00	72.56
697.14	91.28
697.27	0.00
697.40	16.38
697.54	39.79
697.67	44.47
697.80	23.41
697.94	58.51
698.07	58.51
698.21	30.43
698.34	21.06
698.47	0.00
698.61	4.68
698.74	18.72
698.87	0.00
699.01	110.01
699.14	0.00
699.27	42.13
699.40	88.94
699.54	0.00
699.67	63.19
699.80	2.34
699.94	79.58
700.07	46.81
700.20	18.72
700.34	0.00
700.47	21.06
700.60	32.77
700.73	35.11
700.87	56.17
701.00	18.72
701.13	49.15
701.26	51.49
701.40	37.45
701.53	25.75
701.66	53.83
701.79	74.90
701.93	11.70
702.06	70.22
702.19	0.00
702.32	11.70
702.46	7.02
702.59	18.72
702.72	14.04
702.85	49.15
702.99	72.56
703.12	35.11
703.25	30.43
703.38	28.09
703.51	35.11
703.65	91.28
703.78	81.92
703.91	4.68
704.04	0.00
704.17	86.60
704.31	84.26
704.44	0.00
704.57	0.00
704.70	39.79
704.83	53.83
704.96	58.51
705.10	21.06
705.23	16.38
>>>>>End Processed Spectral Data<<<<<
