SpectraSuite Data File
++++++++++++++++++++++++++++++++++++
Date: Fri Oct 04 12:13:45 GMT-05:00 2013
User: price-jones
Dark Spectrum Present: No
Reference Spectrum Present: No
Number of Sampled Component Spectra: 1
Spectrometers: USB2+H05261
Integration Time (usec): 10000 (USB2+H05261)
Spectra Averaged: 1 (USB2+H05261)
Boxcar Smoothing: 0 (USB2+H05261)
Correct for Electrical Dark: No (USB2+H05261)
Strobe/Lamp Enabled: No (USB2+H05261)
Correct for Detector Non-linearity: No (USB2+H05261)
Correct for Stray Light: No (USB2+H05261)
Number of Pixels in Processed Spectrum: 2048
>>>>>Begin Processed Spectral Data<<<<<
365.73	0.00
365.92	0.00
366.12	0.00
366.32	0.00
366.52	0.00
366.72	0.00
366.91	0.00
367.11	0.00
367.31	0.00
367.51	0.00
367.70	0.00
367.90	0.00
368.10	0.00
368.30	0.00
368.49	0.00
368.69	0.00
368.89	0.00
369.09	0.00
369.28	0.00
369.48	0.00
369.68	0.00
369.87	0.00
370.07	0.00
370.27	0.00
370.47	0.00
370.66	0.00
370.86	0.00
371.06	0.00
371.25	0.00
371.45	0.00
371.65	9.36
371.84	0.00
372.04	44.47
372.24	39.79
372.44	0.00
372.63	28.09
372.83	18.72
373.03	0.00
373.22	30.43
373.42	88.94
373.62	0.00
373.81	30.43
374.01	0.00
374.21	56.17
374.40	25.75
374.60	0.00
374.79	0.00
374.99	16.38
375.19	0.00
375.38	128.73
375.58	56.17
375.78	14.04
375.97	65.54
376.17	46.81
376.37	46.81
376.56	0.00
376.76	16.38
376.95	0.00
377.15	0.00
377.35	56.17
377.54	21.06
377.74	0.00
377.93	0.00
378.13	39.79
378.33	0.00
378.52	0.00
378.72	0.00
378.91	23.41
379.11	102.98
379.31	14.04
379.50	0.00
379.70	0.00
379.89	0.00
380.09	0.00
380.28	63.19
380.48	21.06
380.68	84.26
380.87	9.36
381.07	0.00
381.26	28.09
381.46	23.41
381.65	21.06
381.85	39.79
382.04	0.00
382.24	49.15
382.43	0.00
382.63	112.35
382.83	0.00
383.02	67.88
383.22	2.34
383.41	0.00
383.61	0.00
383.80	0.00
384.00	7.02
384.19	72.56
384.39	0.00
384.58	21.06
384.78	65.54
384.97	7.02
385.17	32.77
385.36	0.00
385.56	25.75
385.75	98.30
385.95	0.00
386.14	0.00
386.34	49.15
386.53	51.49
386.72	0.00
386.92	56.17
387.11	35.11
387.31	44.47
387.50	35.11
387.70	42.13
387.89	2.34
388.09	0.00
388.28	18.72
388.48	42.13
388.67	0.00
388.86	60.85
389.06	0.00
389.25	21.06
389.45	42.13
389.64	63.19
389.84	16.38
390.03	0.00
390.22	49.15
390.42	65.54
390.61	23.41
390.81	25.75
391.00	0.00
391.19	58.51
391.39	18.72
391.58	14.04
391.78	56.17
391.97	42.13
392.16	58.51
392.36	53.83
392.55	39.79
392.75	32.77
392.94	35.11
393.13	0.00
393.33	0.00
393.52	0.00
393.71	18.72
393.91	14.04
394.10	14.04
394.29	0.00
394.49	39.79
394.68	44.47
394.88	56.17
395.07	0.00
395.26	16.38
395.46	2.34
395.65	0.00
395.84	25.75
396.04	14.04
396.23	0.00
396.42	0.00
396.62	23.41
396.81	0.00
397.00	25.75
397.19	63.19
397.39	0.00
397.58	21.06
397.77	9.36
397.97	30.43
398.16	77.24
398.35	0.00
398.55	0.00
398.74	0.00
398.93	0.00
399.12	53.83
399.32	72.56
399.51	0.00
399.70	42.13
399.90	88.94
400.09	0.00
400.28	0.00
400.47	84.26
400.67	37.45
400.86	58.51
401.05	86.60
401.24	18.72
401.44	23.41
401.63	58.51
401.82	28.09
402.01	9.36
402.21	0.00
402.40	49.15
402.59	30.43
402.78	95.96
402.97	70.22
403.17	0.00
403.36	46.81
403.55	58.51
403.74	0.00
403.93	74.90
404.13	25.75
404.32	25.75
404.51	16.38
404.70	28.09
404.89	0.00
405.09	0.00
405.28	42.13
405.47	63.19
405.66	0.00
405.85	0.00
406.05	7.02
406.24	98.30
406.43	0.00
406.62	11.70
406.81	0.00
407.00	65.54
407.20	18.72
407.39	35.11
407.58	79.58
407.77	72.56
407.96	0.00
408.15	42.13
408.34	100.64
408.54	9.36
408.73	0.00
408.92	91.28
409.11	79.58
409.30	42.13
409.49	65.54
409.68	56.17
409.87	32.77
410.07	0.00
410.26	58.51
410.45	18.72
410.64	18.72
410.83	0.00
411.02	30.43
411.21	0.00
411.40	21.06
411.59	58.51
411.78	32.77
411.98	2.34
412.17	0.00
412.36	28.09
412.55	77.24
412.74	53.83
412.93	0.00
413.12	23.41
413.31	18.72
413.50	84.26
413.69	39.79
413.88	16.38
414.07	58.51
414.26	9.36
414.45	0.00
414.64	0.00
414.83	133.41
415.02	23.41
415.22	49.15
415.41	46.81
415.60	0.00
415.79	23.41
415.98	42.13
416.17	105.32
416.36	44.47
416.55	28.09
416.74	35.11
416.93	74.90
417.12	35.11
417.31	56.17
417.50	0.00
417.69	7.02
417.88	30.43
418.07	30.43
418.26	37.45
418.45	30.43
418.64	28.09
418.83	0.00
419.02	0.00
419.21	16.38
419.39	0.00
419.58	28.09
419.77	30.43
419.96	77.24
420.15	9.36
420.34	42.13
420.53	2.34
420.72	9.36
420.91	88.94
421.10	46.81
421.29	65.54
421.48	14.04
421.67	37.45
421.86	9.36
422.05	65.54
422.24	11.70
422.43	72.56
422.61	23.41
422.80	46.81
422.99	9.36
423.18	4.68
423.37	88.94
423.56	0.00
423.75	37.45
423.94	0.00
424.13	28.09
424.32	56.17
424.50	21.06
424.69	37.45
424.88	63.19
425.07	58.51
425.26	25.75
425.45	88.94
425.64	37.45
425.83	23.41
426.01	42.13
426.20	102.98
426.39	58.51
426.58	0.00
426.77	65.54
426.96	51.49
427.15	0.00
427.33	0.00
427.52	56.17
427.71	0.00
427.90	65.54
428.09	35.11
428.28	23.41
428.46	18.72
428.65	67.88
428.84	91.28
429.03	63.19
429.22	100.64
429.40	0.00
429.59	30.43
429.78	0.00
429.97	46.81
430.16	16.38
430.34	53.83
430.53	21.06
430.72	0.00
430.91	39.79
431.10	37.45
431.28	49.15
431.47	81.92
431.66	23.41
431.85	79.58
432.03	135.75
432.22	25.75
432.41	0.00
432.60	18.72
432.79	28.09
432.97	42.13
433.16	53.83
433.35	60.85
433.54	42.13
433.72	46.81
433.91	51.49
434.10	18.72
434.28	21.06
434.47	32.77
434.66	44.47
434.85	0.00
435.03	23.41
435.22	46.81
435.41	35.11
435.59	46.81
435.78	30.43
435.97	0.00
436.16	63.19
436.34	4.68
436.53	2.34
436.72	0.00
436.90	79.58
437.09	77.24
437.28	0.00
437.46	53.83
437.65	32.77
437.84	28.09
438.02	21.06
438.21	32.77
438.40	0.00
438.58	23.41
438.77	28.09
438.96	14.04
439.14	23.41
439.33	32.77
439.52	63.19
439.70	21.06
439.89	56.17
440.08	107.66
440.26	49.15
440.45	44.47
440.63	23.41
440.82	0.00
441.01	44.47
441.19	37.45
441.38	95.96
441.57	86.60
441.75	46.81
441.94	0.00
442.12	70.22
442.31	53.83
442.50	37.45
442.68	2.34
442.87	0.00
443.05	46.81
443.24	67.88
443.43	53.83
443.61	0.00
443.80	0.00
443.98	51.49
444.17	37.45
444.35	63.19
444.54	9.36
444.73	11.70
444.91	0.00
445.10	79.58
445.28	102.98
445.47	16.38
445.65	0.00
445.84	102.98
446.02	0.00
446.21	14.04
446.39	0.00
446.58	21.06
446.77	0.00
446.95	91.28
447.14	67.88
447.32	63.19
447.51	65.54
447.69	88.94
447.88	18.72
448.06	32.77
448.25	30.43
448.43	0.00
448.62	0.00
448.80	23.41
448.99	0.00
449.17	51.49
449.36	56.17
449.54	60.85
449.73	42.13
449.91	105.32
450.10	2.34
450.28	70.22
450.46	121.71
450.65	18.72
450.83	154.48
451.02	46.81
451.20	9.36
451.39	51.49
451.57	44.47
451.76	63.19
451.94	0.00
452.13	4.68
452.31	37.45
452.49	53.83
452.68	58.51
452.86	56.17
453.05	14.04
453.23	9.36
453.42	23.41
453.60	14.04
453.78	35.11
453.97	35.11
454.15	72.56
454.34	18.72
454.52	91.28
454.70	4.68
454.89	37.45
455.07	72.56
455.26	60.85
455.44	4.68
455.62	18.72
455.81	79.58
455.99	60.85
456.17	95.96
456.36	86.60
456.54	105.32
456.73	70.22
456.91	32.77
457.09	0.00
457.28	49.15
457.46	49.15
457.64	0.00
457.83	56.17
458.01	44.47
458.19	0.00
458.38	60.85
458.56	131.07
458.74	23.41
458.93	0.00
459.11	49.15
459.29	42.13
459.48	46.81
459.66	53.83
459.84	9.36
460.03	0.00
460.21	37.45
460.39	44.47
460.57	70.22
460.76	28.09
460.94	2.34
461.12	0.00
461.31	25.75
461.49	30.43
461.67	35.11
461.85	35.11
462.04	51.49
462.22	119.37
462.40	93.62
462.59	4.68
462.77	53.83
462.95	42.13
463.13	46.81
463.32	67.88
463.50	0.00
463.68	0.00
463.86	58.51
464.05	58.51
464.23	88.94
464.41	65.54
464.59	28.09
464.78	93.62
464.96	63.19
465.14	46.81
465.32	28.09
465.50	0.00
465.69	7.02
465.87	46.81
466.05	63.19
466.23	88.94
466.41	63.19
466.60	21.06
466.78	63.19
466.96	56.17
467.14	91.28
467.32	74.90
467.51	11.70
467.69	46.81
467.87	0.00
468.05	4.68
468.23	0.00
468.41	49.15
468.60	86.60
468.78	60.85
468.96	37.45
469.14	0.00
469.32	4.68
469.50	39.79
469.69	0.00
469.87	23.41
470.05	77.24
470.23	28.09
470.41	67.88
470.59	0.00
470.77	37.45
470.95	107.66
471.14	18.72
471.32	32.77
471.50	49.15
471.68	23.41
471.86	11.70
472.04	0.00
472.22	39.79
472.40	7.02
472.58	32.77
472.77	110.01
472.95	16.38
473.13	14.04
473.31	133.41
473.49	37.45
473.67	159.16
473.85	2.34
474.03	4.68
474.21	25.75
474.39	4.68
474.57	77.24
474.75	23.41
474.93	23.41
475.12	23.41
475.30	18.72
475.48	23.41
475.66	16.38
475.84	23.41
476.02	84.26
476.20	46.81
476.38	70.22
476.56	77.24
476.74	0.00
476.92	56.17
477.10	86.60
477.28	67.88
477.46	37.45
477.64	84.26
477.82	23.41
478.00	37.45
478.18	18.72
478.36	39.79
478.54	11.70
478.72	0.00
478.90	42.13
479.08	37.45
479.26	9.36
479.44	46.81
479.62	23.41
479.80	0.00
479.98	86.60
480.16	77.24
480.34	7.02
480.52	35.11
480.70	60.85
480.88	63.19
481.06	70.22
481.24	14.04
481.41	114.69
481.59	0.00
481.77	0.00
481.95	30.43
482.13	79.58
482.31	9.36
482.49	67.88
482.67	86.60
482.85	74.90
483.03	16.38
483.21	67.88
483.39	67.88
483.57	72.56
483.74	70.22
483.92	100.64
484.10	63.19
484.28	23.41
484.46	58.51
484.64	112.35
484.82	32.77
485.00	88.94
485.18	70.22
485.35	107.66
485.53	30.43
485.71	37.45
485.89	21.06
486.07	49.15
486.25	0.00
486.43	0.00
486.61	42.13
486.78	0.00
486.96	49.15
487.14	21.06
487.32	14.04
487.50	0.00
487.68	0.00
487.85	16.38
488.03	46.81
488.21	9.36
488.39	7.02
488.57	53.83
488.75	70.22
488.92	168.52
489.10	28.09
489.28	37.45
489.46	56.17
489.64	9.36
489.81	42.13
489.99	28.09
490.17	60.85
490.35	28.09
490.53	14.04
490.70	7.02
490.88	18.72
491.06	37.45
491.24	70.22
491.41	28.09
491.59	77.24
491.77	44.47
491.95	98.30
492.13	51.49
492.30	0.00
492.48	65.54
492.66	18.72
492.84	0.00
493.01	79.58
493.19	46.81
493.37	67.88
493.54	63.19
493.72	21.06
493.90	35.11
494.08	65.54
494.25	77.24
494.43	28.09
494.61	35.11
494.79	84.26
494.96	39.79
495.14	67.88
495.32	0.00
495.49	98.30
495.67	77.24
495.85	25.75
496.02	72.56
496.20	98.30
496.38	25.75
496.55	63.19
496.73	79.58
496.91	0.00
497.09	0.00
497.26	37.45
497.44	70.22
497.62	79.58
497.79	0.00
497.97	77.24
498.14	81.92
498.32	58.51
498.50	70.22
498.67	110.01
498.85	25.75
499.03	67.88
499.20	53.83
499.38	60.85
499.56	23.41
499.73	65.54
499.91	0.00
500.08	42.13
500.26	11.70
500.44	44.47
500.61	30.43
500.79	30.43
500.97	86.60
501.14	51.49
501.32	77.24
501.49	56.17
501.67	72.56
501.84	77.24
502.02	25.75
502.20	2.34
502.37	0.00
502.55	46.81
502.72	91.28
502.90	25.75
503.07	124.05
503.25	60.85
503.43	102.98
503.60	0.00
503.78	65.54
503.95	18.72
504.13	63.19
504.30	0.00
504.48	93.62
504.65	23.41
504.83	77.24
505.01	25.75
505.18	0.00
505.36	23.41
505.53	140.43
505.71	58.51
505.88	14.04
506.06	23.41
506.23	67.88
506.41	30.43
506.58	107.66
506.76	7.02
506.93	35.11
507.11	84.26
507.28	46.81
507.46	77.24
507.63	49.15
507.81	60.85
507.98	32.77
508.16	74.90
508.33	65.54
508.50	91.28
508.68	74.90
508.85	25.75
509.03	30.43
509.20	70.22
509.38	102.98
509.55	11.70
509.73	39.79
509.90	63.19
510.08	14.04
510.25	63.19
510.42	16.38
510.60	0.00
510.77	4.68
510.95	58.51
511.12	77.24
511.30	14.04
511.47	51.49
511.64	98.30
511.82	63.19
511.99	65.54
512.17	35.11
512.34	7.02
512.51	14.04
512.69	0.00
512.86	4.68
513.04	21.06
513.21	18.72
513.38	107.66
513.56	23.41
513.73	51.49
513.90	14.04
514.08	42.13
514.25	72.56
514.43	49.15
514.60	79.58
514.77	0.00
514.95	58.51
515.12	56.17
515.29	0.00
515.47	91.28
515.64	131.07
515.81	65.54
515.99	67.88
516.16	79.58
516.33	0.00
516.51	0.00
516.68	11.70
516.85	53.83
517.03	63.19
517.20	37.45
517.37	93.62
517.54	14.04
517.72	46.81
517.89	77.24
518.06	39.79
518.24	49.15
518.41	77.24
518.58	72.56
518.75	56.17
518.93	0.00
519.10	60.85
519.27	81.92
519.45	18.72
519.62	42.13
519.79	42.13
519.96	2.34
520.14	86.60
520.31	32.77
520.48	0.00
520.65	0.00
520.83	11.70
521.00	56.17
521.17	23.41
521.34	0.00
521.52	11.70
521.69	65.54
521.86	32.77
522.03	4.68
522.20	79.58
522.38	0.00
522.55	23.41
522.72	39.79
522.89	98.30
523.07	0.00
523.24	81.92
523.41	114.69
523.58	37.45
523.75	70.22
523.92	128.73
524.10	58.51
524.27	0.00
524.44	16.38
524.61	42.13
524.78	37.45
524.96	0.00
525.13	65.54
525.30	131.07
525.47	39.79
525.64	86.60
525.81	53.83
525.98	21.06
526.16	117.03
526.33	51.49
526.50	88.94
526.67	124.05
526.84	133.41
527.01	93.62
527.18	81.92
527.36	63.19
527.53	51.49
527.70	53.83
527.87	58.51
528.04	49.15
528.21	77.24
528.38	23.41
528.55	18.72
528.72	70.22
528.89	16.38
529.07	53.83
529.24	53.83
529.41	60.85
529.58	37.45
529.75	112.35
529.92	44.47
530.09	11.70
530.26	102.98
530.43	42.13
530.60	42.13
530.77	4.68
530.94	35.11
531.11	65.54
531.28	44.47
531.46	21.06
531.63	53.83
531.80	30.43
531.97	67.88
532.14	65.54
532.31	51.49
532.48	0.00
532.65	7.02
532.82	46.81
532.99	46.81
533.16	114.69
533.33	25.75
533.50	4.68
533.67	42.13
533.84	32.77
534.01	77.24
534.18	23.41
534.35	18.72
534.52	32.77
534.69	93.62
534.86	65.54
535.03	67.88
535.20	65.54
535.37	81.92
535.54	124.05
535.71	65.54
535.88	70.22
536.05	44.47
536.22	11.70
536.38	79.58
536.55	42.13
536.72	21.06
536.89	110.01
537.06	21.06
537.23	77.24
537.40	112.35
537.57	37.45
537.74	25.75
537.91	63.19
538.08	53.83
538.25	72.56
538.42	37.45
538.59	60.85
538.75	9.36
538.92	95.96
539.09	60.85
539.26	0.00
539.43	0.00
539.60	70.22
539.77	63.19
539.94	112.35
540.11	51.49
540.28	37.45
540.44	11.70
540.61	11.70
540.78	63.19
540.95	63.19
541.12	37.45
541.29	117.03
541.46	51.49
541.62	53.83
541.79	42.13
541.96	51.49
542.13	81.92
542.30	28.09
542.47	46.81
542.63	98.30
542.80	67.88
542.97	74.90
543.14	0.00
543.31	88.94
543.48	0.00
543.64	67.88
543.81	53.83
543.98	49.15
544.15	60.85
544.32	18.72
544.48	98.30
544.65	32.77
544.82	18.72
544.99	7.02
545.16	70.22
545.32	53.83
545.49	65.54
545.66	11.70
545.83	86.60
546.00	74.90
546.16	0.00
546.33	37.45
546.50	0.00
546.67	86.60
546.83	51.49
547.00	81.92
547.17	28.09
547.34	126.39
547.50	18.72
547.67	100.64
547.84	18.72
548.00	0.00
548.17	46.81
548.34	42.13
548.51	11.70
548.67	121.71
548.84	0.00
549.01	25.75
549.18	44.47
549.34	21.06
549.51	18.72
549.68	88.94
549.84	44.47
550.01	30.43
550.18	14.04
550.34	0.00
550.51	63.19
550.68	117.03
550.84	70.22
551.01	72.56
551.18	105.32
551.34	0.00
551.51	16.38
551.68	0.00
551.84	0.00
552.01	0.00
552.18	53.83
552.34	81.92
552.51	0.00
552.68	65.54
552.84	58.51
553.01	65.54
553.18	42.13
553.34	98.30
553.51	142.77
553.67	35.11
553.84	58.51
554.01	30.43
554.17	74.90
554.34	49.15
554.51	119.37
554.67	14.04
554.84	46.81
555.00	65.54
555.17	63.19
555.33	0.00
555.50	11.70
555.67	70.22
555.83	100.64
556.00	124.05
556.16	28.09
556.33	93.62
556.50	65.54
556.66	117.03
556.83	46.81
556.99	124.05
557.16	7.02
557.32	16.38
557.49	93.62
557.65	35.11
557.82	65.54
557.98	37.45
558.15	135.75
558.32	25.75
558.48	4.68
558.65	84.26
558.81	9.36
558.98	60.85
559.14	93.62
559.31	84.26
559.47	63.19
559.64	77.24
559.80	102.98
559.97	0.00
560.13	7.02
560.30	18.72
560.46	0.00
560.63	65.54
560.79	25.75
560.96	88.94
561.12	25.75
561.29	51.49
561.45	0.00
561.61	49.15
561.78	79.58
561.94	0.00
562.11	18.72
562.27	0.00
562.44	18.72
562.60	0.00
562.77	53.83
562.93	46.81
563.10	44.47
563.26	42.13
563.42	93.62
563.59	0.00
563.75	39.79
563.92	0.00
564.08	16.38
564.24	49.15
564.41	58.51
564.57	9.36
564.74	18.72
564.90	102.98
565.07	67.88
565.23	98.30
565.39	23.41
565.56	149.79
565.72	42.13
565.88	77.24
566.05	0.00
566.21	159.16
566.38	105.32
566.54	67.88
566.70	30.43
566.87	16.38
567.03	25.75
567.19	2.34
567.36	18.72
567.52	44.47
567.68	105.32
567.85	56.17
568.01	35.11
568.17	124.05
568.34	18.72
568.50	79.58
568.66	23.41
568.83	42.13
568.99	53.83
569.15	93.62
569.32	91.28
569.48	23.41
569.64	46.81
569.81	63.19
569.97	88.94
570.13	51.49
570.30	58.51
570.46	0.00
570.62	0.00
570.78	128.73
570.95	65.54
571.11	100.64
571.27	93.62
571.43	18.72
571.60	16.38
571.76	0.00
571.92	63.19
572.09	25.75
572.25	0.00
572.41	53.83
572.57	70.22
572.74	117.03
572.90	14.04
573.06	49.15
573.22	23.41
573.38	67.88
573.55	49.15
573.71	60.85
573.87	128.73
574.03	70.22
574.20	65.54
574.36	4.68
574.52	102.98
574.68	70.22
574.84	51.49
575.01	65.54
575.17	4.68
575.33	35.11
575.49	74.90
575.65	63.19
575.82	0.00
575.98	56.17
576.14	98.30
576.30	16.38
576.46	53.83
576.62	42.13
576.79	42.13
576.95	102.98
577.11	170.86
577.27	63.19
577.43	53.83
577.59	51.49
577.75	65.54
577.92	79.58
578.08	53.83
578.24	14.04
578.40	51.49
578.56	46.81
578.72	0.00
578.88	30.43
579.04	74.90
579.21	121.71
579.37	107.66
579.53	56.17
579.69	77.24
579.85	77.24
580.01	56.17
580.17	91.28
580.33	37.45
580.49	4.68
580.65	56.17
580.82	79.58
580.98	7.02
581.14	0.00
581.30	58.51
581.46	39.79
581.62	9.36
581.78	16.38
581.94	88.94
582.10	93.62
582.26	49.15
582.42	14.04
582.58	56.17
582.74	7.02
582.90	0.00
583.06	0.00
583.22	14.04
583.38	91.28
583.54	72.56
583.70	49.15
583.86	4.68
584.02	105.32
584.18	23.41
584.34	30.43
584.50	46.81
584.66	30.43
584.82	7.02
584.98	51.49
585.14	84.26
585.30	0.00
585.46	46.81
585.62	35.11
585.78	0.00
585.94	42.13
586.10	35.11
586.26	37.45
586.42	72.56
586.58	18.72
586.74	42.13
586.90	53.83
587.06	67.88
587.22	67.88
587.38	72.56
587.54	0.00
587.70	42.13
587.86	21.06
588.02	14.04
588.18	107.66
588.34	23.41
588.49	35.11
588.65	35.11
588.81	0.00
588.97	65.54
589.13	30.43
589.29	60.85
589.45	0.00
589.61	88.94
589.77	135.75
589.93	77.24
590.08	0.00
590.24	56.17
590.40	42.13
590.56	51.49
590.72	65.54
590.88	77.24
591.04	70.22
591.20	28.09
591.35	0.00
591.51	128.73
591.67	93.62
591.83	112.35
591.99	100.64
592.15	44.47
592.31	77.24
592.46	28.09
592.62	60.85
592.78	112.35
592.94	67.88
593.10	65.54
593.26	152.13
593.41	28.09
593.57	14.04
593.73	18.72
593.89	81.92
594.05	51.49
594.20	28.09
594.36	25.75
594.52	39.79
594.68	39.79
594.84	95.96
594.99	14.04
595.15	91.28
595.31	35.11
595.47	121.71
595.62	39.79
595.78	28.09
595.94	9.36
596.10	0.00
596.25	25.75
596.41	7.02
596.57	74.90
596.73	95.96
596.88	79.58
597.04	9.36
597.20	18.72
597.36	77.24
597.51	30.43
597.67	46.81
597.83	124.05
597.99	84.26
598.14	112.35
598.30	112.35
598.46	30.43
598.61	44.47
598.77	25.75
598.93	16.38
599.09	18.72
599.24	37.45
599.40	7.02
599.56	0.00
599.71	37.45
599.87	65.54
600.03	25.75
600.18	65.54
600.34	77.24
600.50	28.09
600.65	58.51
600.81	42.13
600.97	105.32
601.12	60.85
601.28	112.35
601.44	60.85
601.59	70.22
601.75	51.49
601.91	58.51
602.06	70.22
602.22	35.11
602.37	0.00
602.53	46.81
602.69	46.81
602.84	60.85
603.00	60.85
603.16	56.17
603.31	23.41
603.47	51.49
603.62	14.04
603.78	51.49
603.94	70.22
604.09	65.54
604.25	67.88
604.40	21.06
604.56	46.81
604.71	56.17
604.87	58.51
605.03	49.15
605.18	77.24
605.34	35.11
605.49	77.24
605.65	72.56
605.80	60.85
605.96	32.77
606.12	39.79
606.27	84.26
606.43	84.26
606.58	2.34
606.74	102.98
606.89	63.19
607.05	42.13
607.20	30.43
607.36	0.00
607.51	35.11
607.67	60.85
607.82	42.13
607.98	91.28
608.13	0.00
608.29	0.00
608.44	28.09
608.60	32.77
608.75	91.28
608.91	39.79
609.06	25.75
609.22	30.43
609.37	42.13
609.53	56.17
609.68	14.04
609.84	35.11
609.99	51.49
610.15	77.24
610.30	0.00
610.46	72.56
610.61	58.51
610.76	131.07
610.92	2.34
611.07	63.19
611.23	39.79
611.38	28.09
611.54	72.56
611.69	16.38
611.84	39.79
612.00	95.96
612.15	0.00
612.31	16.38
612.46	65.54
612.62	44.47
612.77	81.92
612.92	7.02
613.08	0.00
613.23	42.13
613.39	74.90
613.54	23.41
613.69	37.45
613.85	0.00
614.00	0.00
614.15	74.90
614.31	74.90
614.46	42.13
614.62	81.92
614.77	0.00
614.92	39.79
615.08	21.06
615.23	32.77
615.38	23.41
615.54	79.58
615.69	0.00
615.84	28.09
616.00	21.06
616.15	49.15
616.30	25.75
616.46	65.54
616.61	63.19
616.76	93.62
616.92	23.41
617.07	46.81
617.22	0.00
617.37	42.13
617.53	18.72
617.68	21.06
617.83	86.60
617.99	65.54
618.14	53.83
618.29	4.68
618.45	79.58
618.60	49.15
618.75	35.11
618.90	56.17
619.06	72.56
619.21	49.15
619.36	70.22
619.51	49.15
619.67	72.56
619.82	28.09
619.97	63.19
620.12	72.56
620.28	44.47
620.43	70.22
620.58	131.07
620.73	16.38
620.89	0.00
621.04	49.15
621.19	65.54
621.34	58.51
621.49	0.00
621.65	32.77
621.80	42.13
621.95	51.49
622.10	0.00
622.25	35.11
622.41	30.43
622.56	42.13
622.71	49.15
622.86	11.70
623.01	42.13
623.16	9.36
623.32	46.81
623.47	70.22
623.62	16.38
623.77	0.00
623.92	21.06
624.07	42.13
624.23	7.02
624.38	4.68
624.53	21.06
624.68	11.70
624.83	42.13
624.98	39.79
625.13	70.22
625.29	70.22
625.44	23.41
625.59	11.70
625.74	0.00
625.89	42.13
626.04	23.41
626.19	77.24
626.34	53.83
626.49	42.13
626.65	51.49
626.80	39.79
626.95	46.81
627.10	65.54
627.25	25.75
627.40	72.56
627.55	70.22
627.70	35.11
627.85	58.51
628.00	88.94
628.15	81.92
628.30	42.13
628.45	53.83
628.60	16.38
628.76	44.47
628.91	23.41
629.06	30.43
629.21	67.88
629.36	25.75
629.51	11.70
629.66	53.83
629.81	37.45
629.96	56.17
630.11	0.00
630.26	56.17
630.41	63.19
630.56	102.98
630.71	53.83
630.86	60.85
631.01	9.36
631.16	53.83
631.31	32.77
631.46	0.00
631.61	21.06
631.76	86.60
631.91	18.72
632.06	56.17
632.21	72.56
632.36	0.00
632.51	39.79
632.66	72.56
632.81	42.13
632.96	46.81
633.10	56.17
633.25	9.36
633.40	11.70
633.55	74.90
633.70	9.36
633.85	42.13
634.00	16.38
634.15	35.11
634.30	18.72
634.45	74.90
634.60	0.00
634.75	32.77
634.90	0.00
635.05	112.35
635.19	77.24
635.34	4.68
635.49	0.00
635.64	72.56
635.79	39.79
635.94	63.19
636.09	0.00
636.24	46.81
636.39	30.43
636.53	46.81
636.68	21.06
636.83	21.06
636.98	53.83
637.13	32.77
637.28	39.79
637.43	21.06
637.57	25.75
637.72	30.43
637.87	9.36
638.02	11.70
638.17	18.72
638.32	84.26
638.46	77.24
638.61	44.47
638.76	70.22
638.91	9.36
639.06	67.88
639.20	0.00
639.35	105.32
639.50	18.72
639.65	37.45
639.80	110.01
639.94	21.06
640.09	0.00
640.24	67.88
640.39	0.00
640.54	32.77
640.68	79.58
640.83	39.79
640.98	28.09
641.13	32.77
641.27	65.54
641.42	16.38
641.57	74.90
641.72	35.11
641.86	0.00
642.01	112.35
642.16	46.81
642.31	53.83
642.45	58.51
642.60	131.07
642.75	21.06
642.90	79.58
643.04	16.38
643.19	4.68
643.34	25.75
643.48	0.00
643.63	124.05
643.78	117.03
643.93	88.94
644.07	53.83
644.22	46.81
644.37	0.00
644.51	39.79
644.66	114.69
644.81	112.35
644.95	25.75
645.10	32.77
645.25	11.70
645.39	28.09
645.54	58.51
645.69	77.24
645.83	11.70
645.98	28.09
646.13	46.81
646.27	46.81
646.42	67.88
646.57	16.38
646.71	16.38
646.86	100.64
647.00	35.11
647.15	105.32
647.30	49.15
647.44	21.06
647.59	56.17
647.74	0.00
647.88	35.11
648.03	58.51
648.17	70.22
648.32	58.51
648.47	11.70
648.61	0.00
648.76	21.06
648.90	0.00
649.05	67.88
649.20	77.24
649.34	72.56
649.49	0.00
649.63	51.49
649.78	49.15
649.92	39.79
650.07	58.51
650.21	0.00
650.36	16.38
650.51	23.41
650.65	18.72
650.80	4.68
650.94	7.02
651.09	44.47
651.23	28.09
651.38	72.56
651.52	25.75
651.67	25.75
651.81	35.11
651.96	49.15
652.10	4.68
652.25	58.51
652.39	14.04
652.54	91.28
652.68	72.56
652.83	100.64
652.97	23.41
653.12	56.17
653.26	65.54
653.41	0.00
653.55	0.00
653.70	63.19
653.84	16.38
653.99	0.00
654.13	72.56
654.27	102.98
654.42	60.85
654.56	65.54
654.71	56.17
654.85	60.85
655.00	18.72
655.14	23.41
655.29	44.47
655.43	21.06
655.57	21.06
655.72	30.43
655.86	0.00
656.01	30.43
656.15	4.68
656.30	44.47
656.44	44.47
656.58	0.00
656.73	0.00
656.87	0.00
657.01	30.43
657.16	70.22
657.30	51.49
657.45	51.49
657.59	7.02
657.73	51.49
657.88	11.70
658.02	56.17
658.16	11.70
658.31	102.98
658.45	37.45
658.60	0.00
658.74	11.70
658.88	16.38
659.03	79.58
659.17	39.79
659.31	51.49
659.46	51.49
659.60	18.72
659.74	7.02
659.89	72.56
660.03	21.06
660.17	49.15
660.32	44.47
660.46	79.58
660.60	53.83
660.74	67.88
660.89	65.54
661.03	65.54
661.17	65.54
661.32	0.00
661.46	42.13
661.60	37.45
661.74	23.41
661.89	32.77
662.03	35.11
662.17	60.85
662.31	65.54
662.46	0.00
662.60	0.00
662.74	23.41
662.88	74.90
663.03	14.04
663.17	65.54
663.31	49.15
663.45	95.96
663.60	25.75
663.74	23.41
663.88	21.06
664.02	60.85
664.17	63.19
664.31	0.00
664.45	0.00
664.59	60.85
664.73	30.43
664.88	95.96
665.02	46.81
665.16	117.03
665.30	37.45
665.44	21.06
665.59	56.17
665.73	70.22
665.87	56.17
666.01	0.00
666.15	0.00
666.29	35.11
666.44	4.68
666.58	65.54
666.72	32.77
666.86	65.54
667.00	21.06
667.14	42.13
667.28	2.34
667.43	128.73
667.57	9.36
667.71	77.24
667.85	63.19
667.99	93.62
668.13	56.17
668.27	16.38
668.41	37.45
668.56	18.72
668.70	2.34
668.84	28.09
668.98	53.83
669.12	21.06
669.26	124.05
669.40	95.96
669.54	65.54
669.68	49.15
669.82	60.85
669.96	60.85
670.10	51.49
670.25	25.75
670.39	65.54
670.53	74.90
670.67	18.72
670.81	107.66
670.95	53.83
671.09	37.45
671.23	16.38
671.37	88.94
671.51	98.30
671.65	53.83
671.79	46.81
671.93	65.54
672.07	53.83
672.21	2.34
672.35	46.81
672.49	0.00
672.63	53.83
672.77	18.72
672.91	39.79
673.05	2.34
673.19	70.22
673.33	51.49
673.47	37.45
673.61	0.00
673.75	63.19
673.89	0.00
674.03	79.58
674.17	56.17
674.31	0.00
674.45	86.60
674.59	0.00
674.73	35.11
674.87	0.00
675.01	23.41
675.15	0.00
675.29	35.11
675.43	86.60
675.56	126.39
675.70	14.04
675.84	18.72
675.98	88.94
676.12	65.54
676.26	58.51
676.40	0.00
676.54	79.58
676.68	65.54
676.82	0.00
676.96	21.06
677.10	0.00
677.23	79.58
677.37	0.00
677.51	7.02
677.65	16.38
677.79	67.88
677.93	56.17
678.07	9.36
678.21	35.11
678.34	25.75
678.48	128.73
678.62	11.70
678.76	58.51
678.90	7.02
679.04	37.45
679.18	42.13
679.31	37.45
679.45	18.72
679.59	0.00
679.73	44.47
679.87	32.77
680.00	30.43
680.14	7.02
680.28	67.88
680.42	32.77
680.56	42.13
680.70	81.92
680.83	25.75
680.97	51.49
681.11	32.77
681.25	0.00
681.39	0.00
681.52	58.51
681.66	58.51
681.80	30.43
681.94	9.36
682.07	58.51
682.21	60.85
682.35	46.81
682.49	60.85
682.62	77.24
682.76	39.79
682.90	84.26
683.04	44.47
683.17	9.36
683.31	100.64
683.45	91.28
683.59	9.36
683.72	81.92
683.86	56.17
684.00	0.00
684.13	53.83
684.27	23.41
684.41	63.19
684.55	37.45
684.68	4.68
684.82	30.43
684.96	0.00
685.09	44.47
685.23	84.26
685.37	0.00
685.50	63.19
685.64	4.68
685.78	0.00
685.91	0.00
686.05	25.75
686.19	30.43
686.32	35.11
686.46	37.45
686.60	25.75
686.73	49.15
686.87	11.70
687.01	11.70
687.14	51.49
687.28	49.15
687.42	16.38
687.55	0.00
687.69	30.43
687.82	51.49
687.96	49.15
688.10	72.56
688.23	67.88
688.37	2.34
688.50	32.77
688.64	23.41
688.78	0.00
688.91	18.72
689.05	18.72
689.18	53.83
689.32	25.75
689.46	60.85
689.59	56.17
689.73	65.54
689.86	35.11
690.00	32.77
690.13	28.09
690.27	39.79
690.41	4.68
690.54	4.68
690.68	0.00
690.81	0.00
690.95	30.43
691.08	131.07
691.22	0.00
691.35	21.06
691.49	21.06
691.62	42.13
691.76	46.81
691.89	14.04
692.03	21.06
692.16	79.58
692.30	65.54
692.43	49.15
692.57	30.43
692.70	72.56
692.84	0.00
692.97	25.75
693.11	86.60
693.24	37.45
693.38	0.00
693.51	39.79
693.65	93.62
693.78	4.68
693.92	67.88
694.05	114.69
694.19	51.49
694.32	9.36
694.45	93.62
694.59	9.36
694.72	0.00
694.86	0.00
694.99	0.00
695.13	25.75
695.26	0.00
695.39	53.83
695.53	58.51
695.66	58.51
695.80	23.41
695.93	16.38
696.07	21.06
696.20	16.38
696.33	23.41
696.47	51.49
696.60	46.81
696.73	65.54
696.87	30.43
697.00	7.02
697.14	0.00
697.27	70.22
697.40	74.90
697.54	74.90
697.67	0.00
697.80	53.83
697.94	30.43
698.07	0.00
698.21	72.56
698.34	0.00
698.47	14.04
698.61	32.77
698.74	0.00
698.87	56.17
699.01	44.47
699.14	28.09
699.27	21.06
699.40	81.92
699.54	81.92
699.67	86.60
699.80	18.72
699.94	25.75
700.07	63.19
700.20	30.43
700.34	0.00
700.47	2.34
700.60	100.64
700.73	84.26
700.87	56.17
701.00	4.68
701.13	63.19
701.26	25.75
701.40	9.36
701.53	39.79
701.66	142.77
701.79	21.06
701.93	84.26
702.06	0.00
702.19	0.00
702.32	0.00
702.46	100.64
702.59	21.06
702.72	37.45
702.85	0.00
702.99	28.09
703.12	65.54
703.25	18.72
703.38	18.72
703.51	30.43
703.65	63.19
703.78	81.92
703.91	72.56
704.04	74.90
704.17	0.00
704.31	37.45
704.44	16.38
704.57	39.79
704.70	0.00
704.83	0.00
704.96	67.88
705.10	7.02
705.23	0.00
>>>>>End Processed Spectral Data<<<<<
