SpectraSuite Data File
++++++++++++++++++++++++++++++++++++
Date: Fri Oct 04 12:13:33 GMT-05:00 2013
User: price-jones
Dark Spectrum Present: No
Reference Spectrum Present: No
Number of Sampled Component Spectra: 1
Spectrometers: USB2+H05261
Integration Time (usec): 10000 (USB2+H05261)
Spectra Averaged: 1 (USB2+H05261)
Boxcar Smoothing: 0 (USB2+H05261)
Correct for Electrical Dark: No (USB2+H05261)
Strobe/Lamp Enabled: No (USB2+H05261)
Correct for Detector Non-linearity: No (USB2+H05261)
Correct for Stray Light: No (USB2+H05261)
Number of Pixels in Processed Spectrum: 2048
>>>>>Begin Processed Spectral Data<<<<<
365.73	0.00
365.92	0.00
366.12	0.00
366.32	0.00
366.52	0.00
366.72	0.00
366.91	0.00
367.11	0.00
367.31	0.00
367.51	0.00
367.70	0.00
367.90	0.00
368.10	0.00
368.30	0.00
368.49	0.00
368.69	0.00
368.89	0.00
369.09	0.00
369.28	0.00
369.48	0.00
369.68	0.00
369.87	0.00
370.07	0.00
370.27	0.00
370.47	0.00
370.66	18.72
370.86	0.00
371.06	0.00
371.25	30.43
371.45	0.00
371.65	0.00
371.84	25.75
372.04	0.00
372.24	0.00
372.44	98.30
372.63	51.49
372.83	14.04
373.03	0.00
373.22	2.34
373.42	67.88
373.62	49.15
373.81	35.11
374.01	0.00
374.21	53.83
374.40	42.13
374.60	56.17
374.79	16.38
374.99	74.90
375.19	23.41
375.38	84.26
375.58	37.45
375.78	39.79
375.97	7.02
376.17	0.00
376.37	30.43
376.56	0.00
376.76	9.36
376.95	77.24
377.15	0.00
377.35	25.75
377.54	49.15
377.74	39.79
377.93	0.00
378.13	0.00
378.33	91.28
378.52	9.36
378.72	49.15
378.91	32.77
379.11	14.04
379.31	39.79
379.50	51.49
379.70	9.36
379.89	39.79
380.09	30.43
380.28	0.00
380.48	11.70
380.68	56.17
380.87	9.36
381.07	0.00
381.26	39.79
381.46	49.15
381.65	11.70
381.85	37.45
382.04	0.00
382.24	11.70
382.43	0.00
382.63	0.00
382.83	16.38
383.02	11.70
383.22	21.06
383.41	4.68
383.61	4.68
383.80	11.70
384.00	74.90
384.19	95.96
384.39	7.02
384.58	67.88
384.78	51.49
384.97	0.00
385.17	0.00
385.36	30.43
385.56	72.56
385.75	0.00
385.95	11.70
386.14	0.00
386.34	67.88
386.53	49.15
386.72	14.04
386.92	35.11
387.11	0.00
387.31	9.36
387.50	23.41
387.70	0.00
387.89	39.79
388.09	16.38
388.28	2.34
388.48	70.22
388.67	37.45
388.86	30.43
389.06	0.00
389.25	0.00
389.45	21.06
389.64	11.70
389.84	30.43
390.03	84.26
390.22	25.75
390.42	91.28
390.61	0.00
390.81	88.94
391.00	0.00
391.19	39.79
391.39	84.26
391.58	63.19
391.78	9.36
391.97	2.34
392.16	9.36
392.36	42.13
392.55	0.00
392.75	72.56
392.94	0.00
393.13	39.79
393.33	0.00
393.52	14.04
393.71	30.43
393.91	0.00
394.10	44.47
394.29	0.00
394.49	65.54
394.68	0.00
394.88	56.17
395.07	0.00
395.26	4.68
395.46	0.00
395.65	0.00
395.84	0.00
396.04	14.04
396.23	110.01
396.42	0.00
396.62	0.00
396.81	42.13
397.00	42.13
397.19	0.00
397.39	79.58
397.58	95.96
397.77	60.85
397.97	11.70
398.16	0.00
398.35	0.00
398.55	16.38
398.74	25.75
398.93	9.36
399.12	58.51
399.32	21.06
399.51	0.00
399.70	28.09
399.90	25.75
400.09	9.36
400.28	63.19
400.47	18.72
400.67	70.22
400.86	7.02
401.05	0.00
401.24	14.04
401.44	0.00
401.63	11.70
401.82	4.68
402.01	0.00
402.21	0.00
402.40	0.00
402.59	0.00
402.78	51.49
402.97	32.77
403.17	7.02
403.36	53.83
403.55	0.00
403.74	84.26
403.93	93.62
404.13	70.22
404.32	4.68
404.51	0.00
404.70	14.04
404.89	0.00
405.09	42.13
405.28	100.64
405.47	7.02
405.66	0.00
405.85	46.81
406.05	81.92
406.24	14.04
406.43	72.56
406.62	39.79
406.81	9.36
407.00	23.41
407.20	63.19
407.39	0.00
407.58	32.77
407.77	30.43
407.96	18.72
408.15	9.36
408.34	74.90
408.54	21.06
408.73	58.51
408.92	4.68
409.11	56.17
409.30	0.00
409.49	23.41
409.68	74.90
409.87	2.34
410.07	39.79
410.26	16.38
410.45	0.00
410.64	77.24
410.83	65.54
411.02	0.00
411.21	2.34
411.40	65.54
411.59	77.24
411.78	0.00
411.98	35.11
412.17	0.00
412.36	30.43
412.55	0.00
412.74	4.68
412.93	0.00
413.12	16.38
413.31	53.83
413.50	72.56
413.69	30.43
413.88	67.88
414.07	18.72
414.26	37.45
414.45	0.00
414.64	4.68
414.83	51.49
415.02	0.00
415.22	145.11
415.41	84.26
415.60	7.02
415.79	0.00
415.98	25.75
416.17	0.00
416.36	0.00
416.55	84.26
416.74	53.83
416.93	0.00
417.12	124.05
417.31	0.00
417.50	95.96
417.69	51.49
417.88	16.38
418.07	9.36
418.26	4.68
418.45	0.00
418.64	30.43
418.83	9.36
419.02	11.70
419.21	53.83
419.39	32.77
419.58	44.47
419.77	56.17
419.96	0.00
420.15	21.06
420.34	60.85
420.53	65.54
420.72	77.24
420.91	32.77
421.10	4.68
421.29	16.38
421.48	0.00
421.67	2.34
421.86	11.70
422.05	42.13
422.24	21.06
422.43	102.98
422.61	30.43
422.80	30.43
422.99	56.17
423.18	21.06
423.37	18.72
423.56	0.00
423.75	0.00
423.94	0.00
424.13	53.83
424.32	0.00
424.50	56.17
424.69	58.51
424.88	51.49
425.07	11.70
425.26	42.13
425.45	86.60
425.64	49.15
425.83	72.56
426.01	11.70
426.20	81.92
426.39	114.69
426.58	30.43
426.77	4.68
426.96	0.00
427.15	25.75
427.33	21.06
427.52	91.28
427.71	32.77
427.90	72.56
428.09	14.04
428.28	4.68
428.46	2.34
428.65	49.15
428.84	102.98
429.03	32.77
429.22	0.00
429.40	0.00
429.59	28.09
429.78	0.00
429.97	30.43
430.16	56.17
430.34	16.38
430.53	91.28
430.72	14.04
430.91	23.41
431.10	72.56
431.28	98.30
431.47	21.06
431.66	39.79
431.85	44.47
432.03	0.00
432.22	28.09
432.41	63.19
432.60	46.81
432.79	44.47
432.97	0.00
433.16	49.15
433.35	0.00
433.54	23.41
433.72	32.77
433.91	0.00
434.10	16.38
434.28	30.43
434.47	4.68
434.66	51.49
434.85	0.00
435.03	16.38
435.22	18.72
435.41	56.17
435.59	9.36
435.78	42.13
435.97	0.00
436.16	2.34
436.34	0.00
436.53	30.43
436.72	21.06
436.90	42.13
437.09	0.00
437.28	32.77
437.46	0.00
437.65	95.96
437.84	44.47
438.02	46.81
438.21	7.02
438.40	53.83
438.58	9.36
438.77	79.58
438.96	49.15
439.14	42.13
439.33	28.09
439.52	28.09
439.70	0.00
439.89	60.85
440.08	39.79
440.26	23.41
440.45	131.07
440.63	0.00
440.82	14.04
441.01	25.75
441.19	74.90
441.38	11.70
441.57	16.38
441.75	0.00
441.94	30.43
442.12	56.17
442.31	0.00
442.50	51.49
442.68	65.54
442.87	44.47
443.05	0.00
443.24	0.00
443.43	0.00
443.61	16.38
443.80	14.04
443.98	23.41
444.17	65.54
444.35	37.45
444.54	21.06
444.73	35.11
444.91	4.68
445.10	11.70
445.28	51.49
445.47	0.00
445.65	14.04
445.84	86.60
446.02	65.54
446.21	65.54
446.39	70.22
446.58	0.00
446.77	95.96
446.95	84.26
447.14	0.00
447.32	65.54
447.51	56.17
447.69	65.54
447.88	107.66
448.06	37.45
448.25	79.58
448.43	105.32
448.62	63.19
448.80	0.00
448.99	0.00
449.17	53.83
449.36	42.13
449.54	23.41
449.73	37.45
449.91	0.00
450.10	18.72
450.28	23.41
450.46	28.09
450.65	30.43
450.83	44.47
451.02	25.75
451.20	35.11
451.39	0.00
451.57	0.00
451.76	18.72
451.94	58.51
452.13	51.49
452.31	25.75
452.49	93.62
452.68	14.04
452.86	0.00
453.05	9.36
453.23	60.85
453.42	0.00
453.60	9.36
453.78	65.54
453.97	53.83
454.15	14.04
454.34	7.02
454.52	23.41
454.70	63.19
454.89	16.38
455.07	63.19
455.26	72.56
455.44	79.58
455.62	28.09
455.81	77.24
455.99	49.15
456.17	0.00
456.36	0.00
456.54	44.47
456.73	65.54
456.91	42.13
457.09	9.36
457.28	4.68
457.46	37.45
457.64	42.13
457.83	37.45
458.01	14.04
458.19	60.85
458.38	60.85
458.56	2.34
458.74	0.00
458.93	14.04
459.11	37.45
459.29	65.54
459.48	58.51
459.66	16.38
459.84	65.54
460.03	0.00
460.21	91.28
460.39	0.00
460.57	16.38
460.76	88.94
460.94	72.56
461.12	39.79
461.31	49.15
461.49	65.54
461.67	105.32
461.85	72.56
462.04	72.56
462.22	114.69
462.40	23.41
462.59	58.51
462.77	21.06
462.95	93.62
463.13	21.06
463.32	58.51
463.50	100.64
463.68	65.54
463.86	81.92
464.05	42.13
464.23	51.49
464.41	49.15
464.59	84.26
464.78	46.81
464.96	81.92
465.14	86.60
465.32	60.85
465.50	42.13
465.69	42.13
465.87	2.34
466.05	42.13
466.23	37.45
466.41	0.00
466.60	63.19
466.78	16.38
466.96	60.85
467.14	25.75
467.32	126.39
467.51	25.75
467.69	42.13
467.87	11.70
468.05	0.00
468.23	72.56
468.41	67.88
468.60	58.51
468.78	11.70
468.96	0.00
469.14	16.38
469.32	0.00
469.50	0.00
469.69	98.30
469.87	39.79
470.05	58.51
470.23	16.38
470.41	46.81
470.59	9.36
470.77	138.09
470.95	0.00
471.14	28.09
471.32	35.11
471.50	70.22
471.68	4.68
471.86	30.43
472.04	0.00
472.22	0.00
472.40	11.70
472.58	91.28
472.77	32.77
472.95	0.00
473.13	42.13
473.31	0.00
473.49	0.00
473.67	0.00
473.85	91.28
474.03	44.47
474.21	46.81
474.39	67.88
474.57	98.30
474.75	49.15
474.93	42.13
475.12	44.47
475.30	18.72
475.48	0.00
475.66	21.06
475.84	0.00
476.02	88.94
476.20	70.22
476.38	32.77
476.56	21.06
476.74	9.36
476.92	81.92
477.10	77.24
477.28	16.38
477.46	42.13
477.64	49.15
477.82	21.06
478.00	7.02
478.18	65.54
478.36	0.00
478.54	39.79
478.72	0.00
478.90	0.00
479.08	95.96
479.26	63.19
479.44	23.41
479.62	7.02
479.80	11.70
479.98	39.79
480.16	37.45
480.34	86.60
480.52	30.43
480.70	67.88
480.88	60.85
481.06	0.00
481.24	51.49
481.41	23.41
481.59	42.13
481.77	65.54
481.95	0.00
482.13	44.47
482.31	14.04
482.49	53.83
482.67	56.17
482.85	39.79
483.03	65.54
483.21	63.19
483.39	25.75
483.57	16.38
483.74	7.02
483.92	74.90
484.10	67.88
484.28	7.02
484.46	2.34
484.64	18.72
484.82	2.34
485.00	65.54
485.18	63.19
485.35	0.00
485.53	23.41
485.71	56.17
485.89	32.77
486.07	49.15
486.25	0.00
486.43	0.00
486.61	4.68
486.78	25.75
486.96	49.15
487.14	0.00
487.32	44.47
487.50	58.51
487.68	56.17
487.85	42.13
488.03	18.72
488.21	88.94
488.39	72.56
488.57	117.03
488.75	49.15
488.92	140.43
489.10	11.70
489.28	86.60
489.46	56.17
489.64	0.00
489.81	46.81
489.99	39.79
490.17	51.49
490.35	30.43
490.53	42.13
490.70	14.04
490.88	53.83
491.06	16.38
491.24	37.45
491.41	7.02
491.59	65.54
491.77	30.43
491.95	74.90
492.13	0.00
492.30	28.09
492.48	2.34
492.66	70.22
492.84	49.15
493.01	65.54
493.19	67.88
493.37	46.81
493.54	25.75
493.72	0.00
493.90	56.17
494.08	30.43
494.25	11.70
494.43	63.19
494.61	0.00
494.79	0.00
494.96	65.54
495.14	35.11
495.32	4.68
495.49	30.43
495.67	7.02
495.85	18.72
496.02	42.13
496.20	79.58
496.38	142.77
496.55	102.98
496.73	23.41
496.91	25.75
497.09	28.09
497.26	35.11
497.44	7.02
497.62	86.60
497.79	79.58
497.97	9.36
498.14	117.03
498.32	25.75
498.50	88.94
498.67	140.43
498.85	35.11
499.03	46.81
499.20	100.64
499.38	0.00
499.56	35.11
499.73	0.00
499.91	49.15
500.08	0.00
500.26	23.41
500.44	60.85
500.61	58.51
500.79	42.13
500.97	86.60
501.14	67.88
501.32	0.00
501.49	0.00
501.67	86.60
501.84	86.60
502.02	14.04
502.20	86.60
502.37	63.19
502.55	67.88
502.72	9.36
502.90	49.15
503.07	74.90
503.25	145.11
503.43	114.69
503.60	121.71
503.78	67.88
503.95	65.54
504.13	44.47
504.30	30.43
504.48	32.77
504.65	0.00
504.83	25.75
505.01	72.56
505.18	18.72
505.36	16.38
505.53	58.51
505.71	102.98
505.88	32.77
506.06	4.68
506.23	0.00
506.41	67.88
506.58	56.17
506.76	39.79
506.93	0.00
507.11	23.41
507.28	49.15
507.46	88.94
507.63	77.24
507.81	51.49
507.98	112.35
508.16	51.49
508.33	0.00
508.50	39.79
508.68	56.17
508.85	74.90
509.03	0.00
509.20	51.49
509.38	11.70
509.55	124.05
509.73	35.11
509.90	79.58
510.08	0.00
510.25	9.36
510.42	44.47
510.60	100.64
510.77	124.05
510.95	56.17
511.12	2.34
511.30	46.81
511.47	95.96
511.64	30.43
511.82	21.06
511.99	63.19
512.17	44.47
512.34	114.69
512.51	72.56
512.69	42.13
512.86	23.41
513.04	100.64
513.21	81.92
513.38	32.77
513.56	0.00
513.73	72.56
513.90	117.03
514.08	0.00
514.25	77.24
514.43	65.54
514.60	0.00
514.77	81.92
514.95	110.01
515.12	44.47
515.29	25.75
515.47	18.72
515.64	35.11
515.81	51.49
515.99	44.47
516.16	0.00
516.33	46.81
516.51	51.49
516.68	0.00
516.85	0.00
517.03	124.05
517.20	56.17
517.37	0.00
517.54	4.68
517.72	32.77
517.89	9.36
518.06	56.17
518.24	14.04
518.41	7.02
518.58	56.17
518.75	0.00
518.93	0.00
519.10	28.09
519.27	18.72
519.45	37.45
519.62	23.41
519.79	25.75
519.96	37.45
520.14	0.00
520.31	67.88
520.48	81.92
520.65	9.36
520.83	63.19
521.00	58.51
521.17	51.49
521.34	56.17
521.52	16.38
521.69	44.47
521.86	23.41
522.03	32.77
522.20	107.66
522.38	0.00
522.55	81.92
522.72	72.56
522.89	0.00
523.07	102.98
523.24	39.79
523.41	11.70
523.58	58.51
523.75	56.17
523.92	18.72
524.10	49.15
524.27	88.94
524.44	23.41
524.61	42.13
524.78	53.83
524.96	79.58
525.13	0.00
525.30	81.92
525.47	0.00
525.64	18.72
525.81	21.06
525.98	23.41
526.16	42.13
526.33	46.81
526.50	28.09
526.67	58.51
526.84	67.88
527.01	110.01
527.18	65.54
527.36	35.11
527.53	91.28
527.70	0.00
527.87	28.09
528.04	100.64
528.21	28.09
528.38	58.51
528.55	72.56
528.72	42.13
528.89	32.77
529.07	35.11
529.24	0.00
529.41	14.04
529.58	58.51
529.75	0.00
529.92	44.47
530.09	93.62
530.26	74.90
530.43	117.03
530.60	49.15
530.77	30.43
530.94	56.17
531.11	0.00
531.28	0.00
531.46	65.54
531.63	112.35
531.80	11.70
531.97	51.49
532.14	93.62
532.31	77.24
532.48	88.94
532.65	4.68
532.82	0.00
532.99	93.62
533.16	0.00
533.33	81.92
533.50	0.00
533.67	30.43
533.84	60.85
534.01	21.06
534.18	0.00
534.35	39.79
534.52	67.88
534.69	16.38
534.86	70.22
535.03	32.77
535.20	0.00
535.37	77.24
535.54	42.13
535.71	18.72
535.88	60.85
536.05	0.00
536.22	23.41
536.38	14.04
536.55	65.54
536.72	32.77
536.89	37.45
537.06	149.79
537.23	60.85
537.40	32.77
537.57	44.47
537.74	14.04
537.91	32.77
538.08	35.11
538.25	58.51
538.42	77.24
538.59	72.56
538.75	2.34
538.92	53.83
539.09	107.66
539.26	65.54
539.43	21.06
539.60	16.38
539.77	102.98
539.94	28.09
540.11	79.58
540.28	77.24
540.44	77.24
540.61	0.00
540.78	72.56
540.95	65.54
541.12	28.09
541.29	72.56
541.46	4.68
541.62	16.38
541.79	32.77
541.96	46.81
542.13	91.28
542.30	86.60
542.47	77.24
542.63	91.28
542.80	58.51
542.97	44.47
543.14	51.49
543.31	0.00
543.48	0.00
543.64	0.00
543.81	44.47
543.98	42.13
544.15	49.15
544.32	32.77
544.48	58.51
544.65	44.47
544.82	0.00
544.99	86.60
545.16	51.49
545.32	49.15
545.49	0.00
545.66	0.00
545.83	91.28
546.00	81.92
546.16	0.00
546.33	44.47
546.50	119.37
546.67	70.22
546.83	86.60
547.00	70.22
547.17	16.38
547.34	39.79
547.50	93.62
547.67	142.77
547.84	51.49
548.00	11.70
548.17	95.96
548.34	18.72
548.51	4.68
548.67	70.22
548.84	42.13
549.01	16.38
549.18	0.00
549.34	23.41
549.51	105.32
549.68	79.58
549.84	51.49
550.01	53.83
550.18	88.94
550.34	88.94
550.51	74.90
550.68	124.05
550.84	35.11
551.01	0.00
551.18	67.88
551.34	112.35
551.51	21.06
551.68	98.30
551.84	70.22
552.01	4.68
552.18	119.37
552.34	25.75
552.51	133.41
552.68	0.00
552.84	32.77
553.01	0.00
553.18	121.71
553.34	35.11
553.51	39.79
553.67	46.81
553.84	0.00
554.01	110.01
554.17	32.77
554.34	16.38
554.51	67.88
554.67	11.70
554.84	102.98
555.00	135.75
555.17	63.19
555.33	93.62
555.50	79.58
555.67	58.51
555.83	105.32
556.00	58.51
556.16	70.22
556.33	0.00
556.50	37.45
556.66	124.05
556.83	30.43
556.99	25.75
557.16	18.72
557.32	126.39
557.49	86.60
557.65	46.81
557.82	16.38
557.98	0.00
558.15	7.02
558.32	23.41
558.48	91.28
558.65	51.49
558.81	51.49
558.98	35.11
559.14	91.28
559.31	77.24
559.47	86.60
559.64	56.17
559.80	100.64
559.97	44.47
560.13	60.85
560.30	91.28
560.46	42.13
560.63	0.00
560.79	35.11
560.96	46.81
561.12	21.06
561.29	65.54
561.45	86.60
561.61	84.26
561.78	93.62
561.94	37.45
562.11	53.83
562.27	105.32
562.44	53.83
562.60	77.24
562.77	79.58
562.93	98.30
563.10	0.00
563.26	0.00
563.42	0.00
563.59	91.28
563.75	0.00
563.92	44.47
564.08	91.28
564.24	30.43
564.41	100.64
564.57	77.24
564.74	88.94
564.90	65.54
565.07	79.58
565.23	25.75
565.39	28.09
565.56	0.00
565.72	0.00
565.88	30.43
566.05	4.68
566.21	58.51
566.38	14.04
566.54	58.51
566.70	91.28
566.87	21.06
567.03	39.79
567.19	25.75
567.36	46.81
567.52	77.24
567.68	0.00
567.85	0.00
568.01	67.88
568.17	51.49
568.34	25.75
568.50	51.49
568.66	65.54
568.83	23.41
568.99	0.00
569.15	51.49
569.32	16.38
569.48	60.85
569.64	77.24
569.81	60.85
569.97	2.34
570.13	32.77
570.30	102.98
570.46	16.38
570.62	21.06
570.78	2.34
570.95	100.64
571.11	39.79
571.27	37.45
571.43	58.51
571.60	37.45
571.76	46.81
571.92	0.00
572.09	32.77
572.25	67.88
572.41	0.00
572.57	25.75
572.74	124.05
572.90	21.06
573.06	70.22
573.22	53.83
573.38	119.37
573.55	0.00
573.71	42.13
573.87	32.77
574.03	39.79
574.20	98.30
574.36	63.19
574.52	91.28
574.68	77.24
574.84	39.79
575.01	110.01
575.17	42.13
575.33	65.54
575.49	0.00
575.65	145.11
575.82	30.43
575.98	32.77
576.14	14.04
576.30	128.73
576.46	72.56
576.62	88.94
576.79	0.00
576.95	4.68
577.11	25.75
577.27	49.15
577.43	51.49
577.59	56.17
577.75	23.41
577.92	18.72
578.08	149.79
578.24	74.90
578.40	14.04
578.56	70.22
578.72	102.98
578.88	30.43
579.04	0.00
579.21	107.66
579.37	74.90
579.53	79.58
579.69	65.54
579.85	51.49
580.01	53.83
580.17	4.68
580.33	65.54
580.49	77.24
580.65	35.11
580.82	23.41
580.98	0.00
581.14	56.17
581.30	0.00
581.46	70.22
581.62	70.22
581.78	100.64
581.94	53.83
582.10	56.17
582.26	93.62
582.42	32.77
582.58	25.75
582.74	60.85
582.90	28.09
583.06	77.24
583.22	84.26
583.38	23.41
583.54	0.00
583.70	21.06
583.86	65.54
584.02	37.45
584.18	72.56
584.34	74.90
584.50	84.26
584.66	105.32
584.82	84.26
584.98	53.83
585.14	84.26
585.30	53.83
585.46	63.19
585.62	67.88
585.78	70.22
585.94	30.43
586.10	56.17
586.26	37.45
586.42	23.41
586.58	117.03
586.74	0.00
586.90	100.64
587.06	0.00
587.22	37.45
587.38	44.47
587.54	91.28
587.70	88.94
587.86	81.92
588.02	30.43
588.18	28.09
588.34	37.45
588.49	0.00
588.65	67.88
588.81	49.15
588.97	56.17
589.13	67.88
589.29	23.41
589.45	138.09
589.61	42.13
589.77	46.81
589.93	11.70
590.08	35.11
590.24	74.90
590.40	121.71
590.56	0.00
590.72	37.45
590.88	0.00
591.04	32.77
591.20	21.06
591.35	77.24
591.51	0.00
591.67	49.15
591.83	0.00
591.99	0.00
592.15	79.58
592.31	98.30
592.46	0.00
592.62	9.36
592.78	37.45
592.94	53.83
593.10	84.26
593.26	25.75
593.41	53.83
593.57	11.70
593.73	2.34
593.89	21.06
594.05	0.00
594.20	18.72
594.36	21.06
594.52	100.64
594.68	37.45
594.84	0.00
594.99	49.15
595.15	105.32
595.31	0.00
595.47	21.06
595.62	14.04
595.78	35.11
595.94	93.62
596.10	0.00
596.25	93.62
596.41	81.92
596.57	0.00
596.73	88.94
596.88	63.19
597.04	35.11
597.20	53.83
597.36	0.00
597.51	7.02
597.67	16.38
597.83	70.22
597.99	105.32
598.14	46.81
598.30	77.24
598.46	70.22
598.61	79.58
598.77	35.11
598.93	25.75
599.09	100.64
599.24	81.92
599.40	56.17
599.56	21.06
599.71	32.77
599.87	91.28
600.03	93.62
600.18	74.90
600.34	11.70
600.50	88.94
600.65	37.45
600.81	112.35
600.97	46.81
601.12	81.92
601.28	105.32
601.44	65.54
601.59	30.43
601.75	88.94
601.91	39.79
602.06	0.00
602.22	67.88
602.37	28.09
602.53	4.68
602.69	14.04
602.84	84.26
603.00	93.62
603.16	30.43
603.31	46.81
603.47	84.26
603.62	11.70
603.78	23.41
603.94	21.06
604.09	2.34
604.25	4.68
604.40	53.83
604.56	67.88
604.71	14.04
604.87	0.00
605.03	0.00
605.18	105.32
605.34	60.85
605.49	0.00
605.65	30.43
605.80	0.00
605.96	56.17
606.12	86.60
606.27	74.90
606.43	67.88
606.58	0.00
606.74	53.83
606.89	0.00
607.05	23.41
607.20	0.00
607.36	18.72
607.51	0.00
607.67	32.77
607.82	86.60
607.98	32.77
608.13	60.85
608.29	25.75
608.44	0.00
608.60	46.81
608.75	21.06
608.91	42.13
609.06	0.00
609.22	60.85
609.37	11.70
609.53	28.09
609.68	63.19
609.84	0.00
609.99	58.51
610.15	39.79
610.30	0.00
610.46	46.81
610.61	49.15
610.76	35.11
610.92	81.92
611.07	91.28
611.23	42.13
611.38	51.49
611.54	77.24
611.69	53.83
611.84	0.00
612.00	63.19
612.15	88.94
612.31	53.83
612.46	9.36
612.62	23.41
612.77	0.00
612.92	0.00
613.08	65.54
613.23	58.51
613.39	72.56
613.54	91.28
613.69	58.51
613.85	0.00
614.00	25.75
614.15	30.43
614.31	56.17
614.46	4.68
614.62	44.47
614.77	51.49
614.92	67.88
615.08	70.22
615.23	112.35
615.38	7.02
615.54	0.00
615.69	0.00
615.84	74.90
616.00	60.85
616.15	0.00
616.30	58.51
616.46	51.49
616.61	60.85
616.76	58.51
616.92	0.00
617.07	46.81
617.22	49.15
617.37	28.09
617.53	119.37
617.68	4.68
617.83	60.85
617.99	16.38
618.14	72.56
618.29	39.79
618.45	39.79
618.60	0.00
618.75	67.88
618.90	0.00
619.06	77.24
619.21	72.56
619.36	0.00
619.51	30.43
619.67	25.75
619.82	32.77
619.97	0.00
620.12	107.66
620.28	77.24
620.43	35.11
620.58	42.13
620.73	46.81
620.89	0.00
621.04	39.79
621.19	84.26
621.34	4.68
621.49	67.88
621.65	44.47
621.80	60.85
621.95	72.56
622.10	88.94
622.25	4.68
622.41	14.04
622.56	0.00
622.71	49.15
622.86	81.92
623.01	0.00
623.16	28.09
623.32	4.68
623.47	2.34
623.62	25.75
623.77	44.47
623.92	37.45
624.07	79.58
624.23	35.11
624.38	79.58
624.53	63.19
624.68	25.75
624.83	37.45
624.98	9.36
625.13	107.66
625.29	46.81
625.44	51.49
625.59	23.41
625.74	0.00
625.89	46.81
626.04	49.15
626.19	74.90
626.34	98.30
626.49	79.58
626.65	32.77
626.80	70.22
626.95	46.81
627.10	42.13
627.25	74.90
627.40	30.43
627.55	67.88
627.70	60.85
627.85	0.00
628.00	11.70
628.15	119.37
628.30	39.79
628.45	37.45
628.60	0.00
628.76	23.41
628.91	14.04
629.06	58.51
629.21	11.70
629.36	51.49
629.51	46.81
629.66	74.90
629.81	0.00
629.96	53.83
630.11	0.00
630.26	44.47
630.41	88.94
630.56	0.00
630.71	30.43
630.86	32.77
631.01	39.79
631.16	0.00
631.31	21.06
631.46	2.34
631.61	11.70
631.76	28.09
631.91	58.51
632.06	32.77
632.21	70.22
632.36	77.24
632.51	0.00
632.66	11.70
632.81	16.38
632.96	95.96
633.10	0.00
633.25	70.22
633.40	102.98
633.55	11.70
633.70	91.28
633.85	98.30
634.00	56.17
634.15	9.36
634.30	21.06
634.45	32.77
634.60	67.88
634.75	49.15
634.90	0.00
635.05	70.22
635.19	58.51
635.34	0.00
635.49	21.06
635.64	2.34
635.79	21.06
635.94	23.41
636.09	0.00
636.24	11.70
636.39	0.00
636.53	16.38
636.68	14.04
636.83	16.38
636.98	58.51
637.13	23.41
637.28	39.79
637.43	46.81
637.57	9.36
637.72	74.90
637.87	18.72
638.02	91.28
638.17	77.24
638.32	81.92
638.46	98.30
638.61	0.00
638.76	51.49
638.91	21.06
639.06	42.13
639.20	77.24
639.35	117.03
639.50	60.85
639.65	84.26
639.80	46.81
639.94	63.19
640.09	65.54
640.24	49.15
640.39	0.00
640.54	2.34
640.68	105.32
640.83	14.04
640.98	0.00
641.13	0.00
641.27	56.17
641.42	81.92
641.57	119.37
641.72	56.17
641.86	30.43
642.01	18.72
642.16	79.58
642.31	0.00
642.45	110.01
642.60	46.81
642.75	11.70
642.90	0.00
643.04	72.56
643.19	14.04
643.34	63.19
643.48	60.85
643.63	65.54
643.78	0.00
643.93	95.96
644.07	121.71
644.22	72.56
644.37	21.06
644.51	4.68
644.66	18.72
644.81	9.36
644.95	88.94
645.10	67.88
645.25	32.77
645.39	46.81
645.54	0.00
645.69	46.81
645.83	56.17
645.98	23.41
646.13	53.83
646.27	102.98
646.42	25.75
646.57	0.00
646.71	0.00
646.86	49.15
647.00	98.30
647.15	81.92
647.30	63.19
647.44	44.47
647.59	25.75
647.74	0.00
647.88	0.00
648.03	23.41
648.17	32.77
648.32	63.19
648.47	72.56
648.61	81.92
648.76	51.49
648.90	0.00
649.05	60.85
649.20	0.00
649.34	32.77
649.49	84.26
649.63	30.43
649.78	112.35
649.92	60.85
650.07	39.79
650.21	74.90
650.36	102.98
650.51	72.56
650.65	133.41
650.80	0.00
650.94	0.00
651.09	0.00
651.23	70.22
651.38	60.85
651.52	79.58
651.67	0.00
651.81	63.19
651.96	14.04
652.10	18.72
652.25	0.00
652.39	23.41
652.54	30.43
652.68	0.00
652.83	2.34
652.97	79.58
653.12	44.47
653.26	35.11
653.41	51.49
653.55	28.09
653.70	67.88
653.84	32.77
653.99	21.06
654.13	46.81
654.27	9.36
654.42	23.41
654.56	14.04
654.71	46.81
654.85	18.72
655.00	16.38
655.14	44.47
655.29	0.00
655.43	2.34
655.57	70.22
655.72	56.17
655.86	37.45
656.01	84.26
656.15	39.79
656.30	16.38
656.44	42.13
656.58	9.36
656.73	86.60
656.87	51.49
657.01	58.51
657.16	77.24
657.30	60.85
657.45	0.00
657.59	16.38
657.73	0.00
657.88	11.70
658.02	28.09
658.16	49.15
658.31	37.45
658.45	23.41
658.60	0.00
658.74	46.81
658.88	51.49
659.03	0.00
659.17	21.06
659.31	63.19
659.46	0.00
659.60	23.41
659.74	0.00
659.89	0.00
660.03	0.00
660.17	100.64
660.32	28.09
660.46	53.83
660.60	16.38
660.74	0.00
660.89	53.83
661.03	2.34
661.17	37.45
661.32	0.00
661.46	60.85
661.60	42.13
661.74	0.00
661.89	16.38
662.03	9.36
662.17	72.56
662.31	70.22
662.46	117.03
662.60	77.24
662.74	173.20
662.88	39.79
663.03	11.70
663.17	58.51
663.31	4.68
663.45	72.56
663.60	37.45
663.74	46.81
663.88	39.79
664.02	4.68
664.17	16.38
664.31	77.24
664.45	32.77
664.59	81.92
664.73	58.51
664.88	0.00
665.02	37.45
665.16	46.81
665.30	37.45
665.44	51.49
665.59	14.04
665.73	72.56
665.87	39.79
666.01	7.02
666.15	46.81
666.29	53.83
666.44	81.92
666.58	35.11
666.72	23.41
666.86	11.70
667.00	95.96
667.14	56.17
667.28	63.19
667.43	0.00
667.57	9.36
667.71	58.51
667.85	72.56
667.99	58.51
668.13	53.83
668.27	51.49
668.41	37.45
668.56	56.17
668.70	70.22
668.84	0.00
668.98	81.92
669.12	77.24
669.26	4.68
669.40	39.79
669.54	28.09
669.68	65.54
669.82	44.47
669.96	88.94
670.10	2.34
670.25	42.13
670.39	37.45
670.53	37.45
670.67	25.75
670.81	28.09
670.95	0.00
671.09	0.00
671.23	32.77
671.37	42.13
671.51	56.17
671.65	67.88
671.79	9.36
671.93	4.68
672.07	79.58
672.21	74.90
672.35	28.09
672.49	23.41
672.63	72.56
672.77	51.49
672.91	37.45
673.05	0.00
673.19	30.43
673.33	65.54
673.47	93.62
673.61	58.51
673.75	0.00
673.89	51.49
674.03	65.54
674.17	16.38
674.31	14.04
674.45	0.00
674.59	30.43
674.73	88.94
674.87	81.92
675.01	60.85
675.15	42.13
675.29	51.49
675.43	44.47
675.56	18.72
675.70	81.92
675.84	0.00
675.98	51.49
676.12	32.77
676.26	53.83
676.40	0.00
676.54	49.15
676.68	30.43
676.82	72.56
676.96	88.94
677.10	42.13
677.23	0.00
677.37	39.79
677.51	51.49
677.65	46.81
677.79	74.90
677.93	37.45
678.07	91.28
678.21	28.09
678.34	42.13
678.48	77.24
678.62	32.77
678.76	18.72
678.90	25.75
679.04	79.58
679.18	30.43
679.31	0.00
679.45	21.06
679.59	63.19
679.73	30.43
679.87	53.83
680.00	21.06
680.14	0.00
680.28	25.75
680.42	0.00
680.56	70.22
680.70	28.09
680.83	7.02
680.97	39.79
681.11	21.06
681.25	91.28
681.39	0.00
681.52	56.17
681.66	65.54
681.80	77.24
681.94	28.09
682.07	4.68
682.21	11.70
682.35	51.49
682.49	84.26
682.62	9.36
682.76	102.98
682.90	100.64
683.04	37.45
683.17	0.00
683.31	2.34
683.45	58.51
683.59	44.47
683.72	14.04
683.86	16.38
684.00	0.00
684.13	25.75
684.27	0.00
684.41	74.90
684.55	53.83
684.68	98.30
684.82	70.22
684.96	60.85
685.09	0.00
685.23	14.04
685.37	74.90
685.50	105.32
685.64	79.58
685.78	16.38
685.91	0.00
686.05	0.00
686.19	7.02
686.32	18.72
686.46	0.00
686.60	0.00
686.73	16.38
686.87	74.90
687.01	18.72
687.14	39.79
687.28	91.28
687.42	74.90
687.55	37.45
687.69	14.04
687.82	67.88
687.96	23.41
688.10	21.06
688.23	14.04
688.37	18.72
688.50	25.75
688.64	16.38
688.78	21.06
688.91	63.19
689.05	0.00
689.18	30.43
689.32	0.00
689.46	81.92
689.59	0.00
689.73	14.04
689.86	18.72
690.00	0.00
690.13	67.88
690.27	9.36
690.41	81.92
690.54	0.00
690.68	4.68
690.81	49.15
690.95	25.75
691.08	0.00
691.22	60.85
691.35	0.00
691.49	28.09
691.62	65.54
691.76	0.00
691.89	4.68
692.03	0.00
692.16	16.38
692.30	98.30
692.43	56.17
692.57	51.49
692.70	25.75
692.84	0.00
692.97	21.06
693.11	21.06
693.24	67.88
693.38	16.38
693.51	0.00
693.65	0.00
693.78	44.47
693.92	0.00
694.05	65.54
694.19	4.68
694.32	16.38
694.45	0.00
694.59	32.77
694.72	9.36
694.86	100.64
694.99	72.56
695.13	98.30
695.26	65.54
695.39	7.02
695.53	0.00
695.66	86.60
695.80	46.81
695.93	65.54
696.07	0.00
696.20	49.15
696.33	30.43
696.47	81.92
696.60	18.72
696.73	58.51
696.87	53.83
697.00	35.11
697.14	53.83
697.27	23.41
697.40	23.41
697.54	56.17
697.67	42.13
697.80	0.00
697.94	0.00
698.07	2.34
698.21	9.36
698.34	72.56
698.47	28.09
698.61	23.41
698.74	51.49
698.87	37.45
699.01	23.41
699.14	37.45
699.27	56.17
699.40	0.00
699.54	65.54
699.67	60.85
699.80	51.49
699.94	16.38
700.07	21.06
700.20	21.06
700.34	0.00
700.47	44.47
700.60	23.41
700.73	79.58
700.87	14.04
701.00	9.36
701.13	21.06
701.26	14.04
701.40	49.15
701.53	0.00
701.66	32.77
701.79	0.00
701.93	0.00
702.06	74.90
702.19	0.00
702.32	0.00
702.46	58.51
702.59	25.75
702.72	30.43
702.85	0.00
702.99	49.15
703.12	0.00
703.25	16.38
703.38	14.04
703.51	0.00
703.65	91.28
703.78	0.00
703.91	0.00
704.04	9.36
704.17	117.03
704.31	0.00
704.44	11.70
704.57	32.77
704.70	46.81
704.83	9.36
704.96	63.19
705.10	23.41
705.23	23.41
>>>>>End Processed Spectral Data<<<<<
