SpectraSuite Data File
++++++++++++++++++++++++++++++++++++
Date: Fri Oct 04 12:13:36 GMT-05:00 2013
User: price-jones
Dark Spectrum Present: No
Reference Spectrum Present: No
Number of Sampled Component Spectra: 1
Spectrometers: USB2+H05261
Integration Time (usec): 10000 (USB2+H05261)
Spectra Averaged: 1 (USB2+H05261)
Boxcar Smoothing: 0 (USB2+H05261)
Correct for Electrical Dark: No (USB2+H05261)
Strobe/Lamp Enabled: No (USB2+H05261)
Correct for Detector Non-linearity: No (USB2+H05261)
Correct for Stray Light: No (USB2+H05261)
Number of Pixels in Processed Spectrum: 2048
>>>>>Begin Processed Spectral Data<<<<<
365.73	0.00
365.92	0.00
366.12	0.00
366.32	0.00
366.52	0.00
366.72	0.00
366.91	0.00
367.11	0.00
367.31	0.00
367.51	0.00
367.70	0.00
367.90	0.00
368.10	0.00
368.30	0.00
368.49	0.00
368.69	0.00
368.89	0.00
369.09	0.00
369.28	0.00
369.48	0.00
369.68	0.00
369.87	0.00
370.07	0.00
370.27	0.00
370.47	0.00
370.66	0.00
370.86	0.00
371.06	0.00
371.25	0.00
371.45	0.00
371.65	42.13
371.84	0.00
372.04	44.47
372.24	0.00
372.44	0.00
372.63	0.00
372.83	65.54
373.03	7.02
373.22	30.43
373.42	56.17
373.62	25.75
373.81	58.51
374.01	21.06
374.21	60.85
374.40	25.75
374.60	0.00
374.79	37.45
374.99	18.72
375.19	88.94
375.38	35.11
375.58	9.36
375.78	0.00
375.97	37.45
376.17	0.00
376.37	84.26
376.56	0.00
376.76	72.56
376.95	95.96
377.15	0.00
377.35	35.11
377.54	56.17
377.74	53.83
377.93	46.81
378.13	58.51
378.33	86.60
378.52	0.00
378.72	25.75
378.91	51.49
379.11	0.00
379.31	42.13
379.50	0.00
379.70	11.70
379.89	0.00
380.09	35.11
380.28	0.00
380.48	0.00
380.68	58.51
380.87	28.09
381.07	49.15
381.26	16.38
381.46	7.02
381.65	11.70
381.85	2.34
382.04	0.00
382.24	0.00
382.43	18.72
382.63	67.88
382.83	88.94
383.02	0.00
383.22	44.47
383.41	7.02
383.61	25.75
383.80	0.00
384.00	7.02
384.19	56.17
384.39	51.49
384.58	56.17
384.78	14.04
384.97	23.41
385.17	51.49
385.36	42.13
385.56	0.00
385.75	0.00
385.95	4.68
386.14	58.51
386.34	42.13
386.53	72.56
386.72	21.06
386.92	0.00
387.11	9.36
387.31	0.00
387.50	11.70
387.70	14.04
387.89	35.11
388.09	58.51
388.28	53.83
388.48	14.04
388.67	51.49
388.86	58.51
389.06	39.79
389.25	0.00
389.45	2.34
389.64	4.68
389.84	25.75
390.03	65.54
390.22	9.36
390.42	23.41
390.61	65.54
390.81	60.85
391.00	49.15
391.19	35.11
391.39	93.62
391.58	2.34
391.78	35.11
391.97	23.41
392.16	28.09
392.36	11.70
392.55	0.00
392.75	65.54
392.94	86.60
393.13	0.00
393.33	0.00
393.52	56.17
393.71	98.30
393.91	14.04
394.10	21.06
394.29	0.00
394.49	0.00
394.68	30.43
394.88	39.79
395.07	67.88
395.26	0.00
395.46	23.41
395.65	21.06
395.84	0.00
396.04	4.68
396.23	67.88
396.42	2.34
396.62	0.00
396.81	42.13
397.00	28.09
397.19	0.00
397.39	39.79
397.58	0.00
397.77	56.17
397.97	18.72
398.16	0.00
398.35	67.88
398.55	81.92
398.74	0.00
398.93	35.11
399.12	53.83
399.32	42.13
399.51	53.83
399.70	4.68
399.90	84.26
400.09	49.15
400.28	0.00
400.47	0.00
400.67	44.47
400.86	140.43
401.05	49.15
401.24	0.00
401.44	37.45
401.63	70.22
401.82	72.56
402.01	67.88
402.21	35.11
402.40	0.00
402.59	86.60
402.78	18.72
402.97	114.69
403.17	74.90
403.36	84.26
403.55	79.58
403.74	49.15
403.93	67.88
404.13	37.45
404.32	28.09
404.51	7.02
404.70	28.09
404.89	0.00
405.09	0.00
405.28	7.02
405.47	65.54
405.66	14.04
405.85	21.06
406.05	88.94
406.24	21.06
406.43	23.41
406.62	63.19
406.81	46.81
407.00	14.04
407.20	18.72
407.39	16.38
407.58	0.00
407.77	53.83
407.96	58.51
408.15	18.72
408.34	37.45
408.54	0.00
408.73	2.34
408.92	0.00
409.11	0.00
409.30	9.36
409.49	0.00
409.68	60.85
409.87	14.04
410.07	0.00
410.26	23.41
410.45	74.90
410.64	77.24
410.83	0.00
411.02	32.77
411.21	11.70
411.40	91.28
411.59	0.00
411.78	32.77
411.98	18.72
412.17	0.00
412.36	14.04
412.55	37.45
412.74	32.77
412.93	98.30
413.12	35.11
413.31	63.19
413.50	0.00
413.69	145.11
413.88	35.11
414.07	30.43
414.26	58.51
414.45	65.54
414.64	0.00
414.83	53.83
415.02	70.22
415.22	7.02
415.41	11.70
415.60	51.49
415.79	0.00
415.98	53.83
416.17	88.94
416.36	51.49
416.55	58.51
416.74	32.77
416.93	35.11
417.12	42.13
417.31	23.41
417.50	42.13
417.69	70.22
417.88	42.13
418.07	49.15
418.26	51.49
418.45	58.51
418.64	0.00
418.83	35.11
419.02	0.00
419.21	39.79
419.39	0.00
419.58	37.45
419.77	42.13
419.96	30.43
420.15	11.70
420.34	7.02
420.53	49.15
420.72	107.66
420.91	65.54
421.10	39.79
421.29	49.15
421.48	37.45
421.67	0.00
421.86	25.75
422.05	4.68
422.24	0.00
422.43	18.72
422.61	42.13
422.80	46.81
422.99	100.64
423.18	18.72
423.37	88.94
423.56	4.68
423.75	65.54
423.94	18.72
424.13	70.22
424.32	81.92
424.50	42.13
424.69	65.54
424.88	46.81
425.07	86.60
425.26	63.19
425.45	18.72
425.64	9.36
425.83	105.32
426.01	30.43
426.20	56.17
426.39	56.17
426.58	70.22
426.77	53.83
426.96	46.81
427.15	77.24
427.33	0.00
427.52	46.81
427.71	30.43
427.90	44.47
428.09	60.85
428.28	32.77
428.46	65.54
428.65	16.38
428.84	58.51
429.03	58.51
429.22	30.43
429.40	79.58
429.59	56.17
429.78	0.00
429.97	84.26
430.16	60.85
430.34	0.00
430.53	0.00
430.72	30.43
430.91	39.79
431.10	0.00
431.28	49.15
431.47	44.47
431.66	63.19
431.85	65.54
432.03	88.94
432.22	70.22
432.41	51.49
432.60	112.35
432.79	77.24
432.97	60.85
433.16	32.77
433.35	93.62
433.54	0.00
433.72	16.38
433.91	30.43
434.10	37.45
434.28	18.72
434.47	0.00
434.66	0.00
434.85	0.00
435.03	16.38
435.22	18.72
435.41	0.00
435.59	114.69
435.78	30.43
435.97	21.06
436.16	100.64
436.34	65.54
436.53	67.88
436.72	77.24
436.90	42.13
437.09	42.13
437.28	4.68
437.46	30.43
437.65	30.43
437.84	0.00
438.02	37.45
438.21	44.47
438.40	88.94
438.58	4.68
438.77	18.72
438.96	18.72
439.14	0.00
439.33	79.58
439.52	0.00
439.70	9.36
439.89	23.41
440.08	0.00
440.26	39.79
440.45	51.49
440.63	42.13
440.82	81.92
441.01	79.58
441.19	98.30
441.38	42.13
441.57	42.13
441.75	42.13
441.94	21.06
442.12	4.68
442.31	53.83
442.50	135.75
442.68	39.79
442.87	25.75
443.05	44.47
443.24	37.45
443.43	74.90
443.61	74.90
443.80	7.02
443.98	63.19
444.17	114.69
444.35	49.15
444.54	79.58
444.73	25.75
444.91	102.98
445.10	30.43
445.28	14.04
445.47	88.94
445.65	49.15
445.84	0.00
446.02	30.43
446.21	21.06
446.39	0.00
446.58	49.15
446.77	63.19
446.95	100.64
447.14	28.09
447.32	70.22
447.51	18.72
447.69	35.11
447.88	30.43
448.06	51.49
448.25	25.75
448.43	63.19
448.62	28.09
448.80	74.90
448.99	105.32
449.17	35.11
449.36	23.41
449.54	112.35
449.73	86.60
449.91	4.68
450.10	98.30
450.28	88.94
450.46	72.56
450.65	74.90
450.83	124.05
451.02	28.09
451.20	23.41
451.39	23.41
451.57	53.83
451.76	81.92
451.94	25.75
452.13	35.11
452.31	25.75
452.49	65.54
452.68	49.15
452.86	84.26
453.05	77.24
453.23	105.32
453.42	28.09
453.60	114.69
453.78	112.35
453.97	0.00
454.15	51.49
454.34	65.54
454.52	74.90
454.70	0.00
454.89	65.54
455.07	81.92
455.26	30.43
455.44	119.37
455.62	110.01
455.81	124.05
455.99	49.15
456.17	32.77
456.36	51.49
456.54	30.43
456.73	49.15
456.91	14.04
457.09	30.43
457.28	77.24
457.46	30.43
457.64	0.00
457.83	53.83
458.01	0.00
458.19	67.88
458.38	0.00
458.56	42.13
458.74	91.28
458.93	124.05
459.11	60.85
459.29	46.81
459.48	42.13
459.66	98.30
459.84	11.70
460.03	65.54
460.21	65.54
460.39	46.81
460.57	95.96
460.76	98.30
460.94	46.81
461.12	79.58
461.31	0.00
461.49	100.64
461.67	140.43
461.85	77.24
462.04	67.88
462.22	152.13
462.40	67.88
462.59	70.22
462.77	124.05
462.95	58.51
463.13	46.81
463.32	84.26
463.50	0.00
463.68	0.00
463.86	84.26
464.05	32.77
464.23	32.77
464.41	60.85
464.59	32.77
464.78	44.47
464.96	9.36
465.14	86.60
465.32	124.05
465.50	42.13
465.69	32.77
465.87	84.26
466.05	100.64
466.23	53.83
466.41	77.24
466.60	30.43
466.78	37.45
466.96	100.64
467.14	44.47
467.32	49.15
467.51	32.77
467.69	44.47
467.87	0.00
468.05	49.15
468.23	70.22
468.41	14.04
468.60	37.45
468.78	74.90
468.96	67.88
469.14	35.11
469.32	37.45
469.50	58.51
469.69	46.81
469.87	135.75
470.05	46.81
470.23	70.22
470.41	142.77
470.59	44.47
470.77	9.36
470.95	74.90
471.14	35.11
471.32	105.32
471.50	53.83
471.68	79.58
471.86	7.02
472.04	84.26
472.22	51.49
472.40	72.56
472.58	28.09
472.77	49.15
472.95	46.81
473.13	39.79
473.31	35.11
473.49	42.13
473.67	44.47
473.85	110.01
474.03	74.90
474.21	77.24
474.39	58.51
474.57	79.58
474.75	46.81
474.93	67.88
475.12	37.45
475.30	14.04
475.48	39.79
475.66	60.85
475.84	30.43
476.02	63.19
476.20	91.28
476.38	74.90
476.56	81.92
476.74	60.85
476.92	51.49
477.10	0.00
477.28	72.56
477.46	65.54
477.64	44.47
477.82	65.54
478.00	32.77
478.18	93.62
478.36	44.47
478.54	58.51
478.72	42.13
478.90	79.58
479.08	63.19
479.26	58.51
479.44	184.90
479.62	86.60
479.80	154.48
479.98	70.22
480.16	74.90
480.34	110.01
480.52	0.00
480.70	74.90
480.88	72.56
481.06	9.36
481.24	95.96
481.41	53.83
481.59	70.22
481.77	51.49
481.95	67.88
482.13	93.62
482.31	9.36
482.49	37.45
482.67	0.00
482.85	23.41
483.03	102.98
483.21	49.15
483.39	77.24
483.57	65.54
483.74	95.96
483.92	35.11
484.10	14.04
484.28	0.00
484.46	88.94
484.64	2.34
484.82	46.81
485.00	86.60
485.18	88.94
485.35	112.35
485.53	70.22
485.71	42.13
485.89	65.54
486.07	21.06
486.25	23.41
486.43	42.13
486.61	112.35
486.78	32.77
486.96	84.26
487.14	49.15
487.32	56.17
487.50	37.45
487.68	11.70
487.85	11.70
488.03	35.11
488.21	65.54
488.39	81.92
488.57	51.49
488.75	74.90
488.92	32.77
489.10	2.34
489.28	0.00
489.46	102.98
489.64	161.50
489.81	51.49
489.99	2.34
490.17	46.81
490.35	95.96
490.53	145.11
490.70	114.69
490.88	65.54
491.06	105.32
491.24	98.30
491.41	67.88
491.59	135.75
491.77	51.49
491.95	0.00
492.13	58.51
492.30	42.13
492.48	51.49
492.66	72.56
492.84	35.11
493.01	84.26
493.19	72.56
493.37	63.19
493.54	65.54
493.72	81.92
493.90	60.85
494.08	72.56
494.25	112.35
494.43	30.43
494.61	49.15
494.79	42.13
494.96	49.15
495.14	84.26
495.32	81.92
495.49	63.19
495.67	107.66
495.85	100.64
496.02	74.90
496.20	93.62
496.38	11.70
496.55	93.62
496.73	86.60
496.91	110.01
497.09	60.85
497.26	107.66
497.44	72.56
497.62	105.32
497.79	60.85
497.97	49.15
498.14	25.75
498.32	72.56
498.50	74.90
498.67	77.24
498.85	65.54
499.03	140.43
499.20	51.49
499.38	98.30
499.56	37.45
499.73	65.54
499.91	39.79
500.08	25.75
500.26	23.41
500.44	105.32
500.61	56.17
500.79	63.19
500.97	0.00
501.14	35.11
501.32	51.49
501.49	72.56
501.67	110.01
501.84	102.98
502.02	74.90
502.20	63.19
502.37	102.98
502.55	128.73
502.72	81.92
502.90	102.98
503.07	32.77
503.25	140.43
503.43	72.56
503.60	46.81
503.78	35.11
503.95	110.01
504.13	117.03
504.30	67.88
504.48	4.68
504.65	112.35
504.83	56.17
505.01	18.72
505.18	49.15
505.36	72.56
505.53	67.88
505.71	35.11
505.88	67.88
506.06	23.41
506.23	63.19
506.41	72.56
506.58	70.22
506.76	84.26
506.93	203.63
507.11	35.11
507.28	100.64
507.46	114.69
507.63	49.15
507.81	112.35
507.98	81.92
508.16	63.19
508.33	91.28
508.50	124.05
508.68	91.28
508.85	0.00
509.03	63.19
509.20	9.36
509.38	93.62
509.55	124.05
509.73	112.35
509.90	107.66
510.08	86.60
510.25	37.45
510.42	107.66
510.60	128.73
510.77	28.09
510.95	84.26
511.12	28.09
511.30	110.01
511.47	84.26
511.64	77.24
511.82	30.43
511.99	102.98
512.17	49.15
512.34	81.92
512.51	51.49
512.69	117.03
512.86	60.85
513.04	86.60
513.21	84.26
513.38	56.17
513.56	70.22
513.73	72.56
513.90	124.05
514.08	112.35
514.25	79.58
514.43	49.15
514.60	93.62
514.77	133.41
514.95	39.79
515.12	79.58
515.29	84.26
515.47	72.56
515.64	7.02
515.81	4.68
515.99	117.03
516.16	35.11
516.33	121.71
516.51	135.75
516.68	74.90
516.85	72.56
517.03	88.94
517.20	110.01
517.37	86.60
517.54	72.56
517.72	42.13
517.89	21.06
518.06	93.62
518.24	74.90
518.41	100.64
518.58	25.75
518.75	105.32
518.93	25.75
519.10	51.49
519.27	107.66
519.45	112.35
519.62	74.90
519.79	84.26
519.96	156.82
520.14	173.20
520.31	100.64
520.48	107.66
520.65	114.69
520.83	117.03
521.00	196.60
521.17	70.22
521.34	114.69
521.52	58.51
521.69	100.64
521.86	86.60
522.03	128.73
522.20	147.45
522.38	72.56
522.55	100.64
522.72	121.71
522.89	53.83
523.07	100.64
523.24	58.51
523.41	0.00
523.58	84.26
523.75	86.60
523.92	95.96
524.10	63.19
524.27	117.03
524.44	86.60
524.61	128.73
524.78	166.18
524.96	152.13
525.13	70.22
525.30	105.32
525.47	81.92
525.64	28.09
525.81	110.01
525.98	74.90
526.16	58.51
526.33	21.06
526.50	102.98
526.67	58.51
526.84	18.72
527.01	100.64
527.18	91.28
527.36	67.88
527.53	30.43
527.70	74.90
527.87	107.66
528.04	84.26
528.21	124.05
528.38	112.35
528.55	159.16
528.72	21.06
528.89	53.83
529.07	46.81
529.24	112.35
529.41	135.75
529.58	156.82
529.75	72.56
529.92	42.13
530.09	110.01
530.26	79.58
530.43	49.15
530.60	91.28
530.77	53.83
530.94	44.47
531.11	88.94
531.28	58.51
531.46	107.66
531.63	81.92
531.80	56.17
531.97	110.01
532.14	117.03
532.31	84.26
532.48	117.03
532.65	100.64
532.82	100.64
532.99	46.81
533.16	67.88
533.33	98.30
533.50	32.77
533.67	102.98
533.84	70.22
534.01	60.85
534.18	140.43
534.35	56.17
534.52	81.92
534.69	110.01
534.86	107.66
535.03	28.09
535.20	84.26
535.37	112.35
535.54	98.30
535.71	100.64
535.88	95.96
536.05	98.30
536.22	53.83
536.38	88.94
536.55	60.85
536.72	107.66
536.89	98.30
537.06	72.56
537.23	39.79
537.40	23.41
537.57	107.66
537.74	56.17
537.91	102.98
538.08	121.71
538.25	77.24
538.42	0.00
538.59	112.35
538.75	56.17
538.92	95.96
539.09	79.58
539.26	88.94
539.43	79.58
539.60	131.07
539.77	79.58
539.94	84.26
540.11	51.49
540.28	131.07
540.44	88.94
540.61	65.54
540.78	7.02
540.95	42.13
541.12	63.19
541.29	32.77
541.46	51.49
541.62	88.94
541.79	119.37
541.96	53.83
542.13	110.01
542.30	49.15
542.47	147.45
542.63	86.60
542.80	51.49
542.97	147.45
543.14	88.94
543.31	88.94
543.48	112.35
543.64	35.11
543.81	23.41
543.98	100.64
544.15	91.28
544.32	100.64
544.48	67.88
544.65	91.28
544.82	140.43
544.99	138.09
545.16	98.30
545.32	161.50
545.49	119.37
545.66	79.58
545.83	18.72
546.00	74.90
546.16	81.92
546.33	77.24
546.50	4.68
546.67	70.22
546.83	70.22
547.00	91.28
547.17	88.94
547.34	119.37
547.50	79.58
547.67	119.37
547.84	91.28
548.00	42.13
548.17	9.36
548.34	110.01
548.51	100.64
548.67	154.48
548.84	100.64
549.01	60.85
549.18	88.94
549.34	98.30
549.51	145.11
549.68	74.90
549.84	86.60
550.01	119.37
550.18	121.71
550.34	95.96
550.51	93.62
550.68	95.96
550.84	133.41
551.01	72.56
551.18	70.22
551.34	91.28
551.51	114.69
551.68	56.17
551.84	84.26
552.01	91.28
552.18	79.58
552.34	110.01
552.51	110.01
552.68	154.48
552.84	65.54
553.01	131.07
553.18	117.03
553.34	98.30
553.51	86.60
553.67	147.45
553.84	100.64
554.01	117.03
554.17	72.56
554.34	86.60
554.51	74.90
554.67	107.66
554.84	102.98
555.00	67.88
555.17	65.54
555.33	86.60
555.50	93.62
555.67	147.45
555.83	105.32
556.00	65.54
556.16	98.30
556.33	0.00
556.50	72.56
556.66	56.17
556.83	114.69
556.99	51.49
557.16	102.98
557.32	49.15
557.49	98.30
557.65	65.54
557.82	46.81
557.98	105.32
558.15	23.41
558.32	81.92
558.48	163.84
558.65	65.54
558.81	56.17
558.98	18.72
559.14	81.92
559.31	81.92
559.47	37.45
559.64	105.32
559.80	65.54
559.97	88.94
560.13	65.54
560.30	58.51
560.46	70.22
560.63	30.43
560.79	102.98
560.96	65.54
561.12	0.00
561.29	110.01
561.45	53.83
561.61	79.58
561.78	138.09
561.94	23.41
562.11	114.69
562.27	72.56
562.44	107.66
562.60	42.13
562.77	121.71
562.93	77.24
563.10	79.58
563.26	0.00
563.42	91.28
563.59	74.90
563.75	60.85
563.92	128.73
564.08	88.94
564.24	102.98
564.41	138.09
564.57	112.35
564.74	60.85
564.90	86.60
565.07	70.22
565.23	152.13
565.39	81.92
565.56	53.83
565.72	91.28
565.88	135.75
566.05	77.24
566.21	74.90
566.38	14.04
566.54	67.88
566.70	91.28
566.87	107.66
567.03	95.96
567.19	138.09
567.36	121.71
567.52	23.41
567.68	58.51
567.85	93.62
568.01	91.28
568.17	63.19
568.34	105.32
568.50	91.28
568.66	140.43
568.83	86.60
568.99	23.41
569.15	37.45
569.32	107.66
569.48	98.30
569.64	124.05
569.81	126.39
569.97	44.47
570.13	98.30
570.30	93.62
570.46	88.94
570.62	91.28
570.78	60.85
570.95	79.58
571.11	65.54
571.27	65.54
571.43	49.15
571.60	100.64
571.76	18.72
571.92	98.30
572.09	63.19
572.25	72.56
572.41	74.90
572.57	112.35
572.74	25.75
572.90	51.49
573.06	65.54
573.22	142.77
573.38	74.90
573.55	79.58
573.71	95.96
573.87	72.56
574.03	107.66
574.20	46.81
574.36	84.26
574.52	9.36
574.68	100.64
574.84	131.07
575.01	70.22
575.17	53.83
575.33	23.41
575.49	56.17
575.65	67.88
575.82	65.54
575.98	102.98
576.14	51.49
576.30	49.15
576.46	79.58
576.62	9.36
576.79	67.88
576.95	119.37
577.11	95.96
577.27	63.19
577.43	102.98
577.59	79.58
577.75	30.43
577.92	21.06
578.08	11.70
578.24	70.22
578.40	14.04
578.56	98.30
578.72	74.90
578.88	131.07
579.04	30.43
579.21	67.88
579.37	107.66
579.53	133.41
579.69	44.47
579.85	107.66
580.01	21.06
580.17	23.41
580.33	46.81
580.49	39.79
580.65	77.24
580.82	152.13
580.98	142.77
581.14	84.26
581.30	149.79
581.46	98.30
581.62	25.75
581.78	98.30
581.94	9.36
582.10	163.84
582.26	0.00
582.42	74.90
582.58	46.81
582.74	65.54
582.90	14.04
583.06	91.28
583.22	102.98
583.38	37.45
583.54	49.15
583.70	46.81
583.86	53.83
584.02	30.43
584.18	81.92
584.34	77.24
584.50	138.09
584.66	74.90
584.82	58.51
584.98	81.92
585.14	81.92
585.30	86.60
585.46	100.64
585.62	70.22
585.78	72.56
585.94	77.24
586.10	86.60
586.26	95.96
586.42	46.81
586.58	49.15
586.74	42.13
586.90	110.01
587.06	140.43
587.22	0.00
587.38	16.38
587.54	51.49
587.70	84.26
587.86	67.88
588.02	142.77
588.18	51.49
588.34	65.54
588.49	175.54
588.65	46.81
588.81	16.38
588.97	60.85
589.13	110.01
589.29	53.83
589.45	9.36
589.61	81.92
589.77	119.37
589.93	88.94
590.08	0.00
590.24	74.90
590.40	91.28
590.56	84.26
590.72	84.26
590.88	84.26
591.04	81.92
591.20	110.01
591.35	107.66
591.51	154.48
591.67	84.26
591.83	72.56
591.99	49.15
592.15	49.15
592.31	70.22
592.46	72.56
592.62	44.47
592.78	154.48
592.94	60.85
593.10	67.88
593.26	128.73
593.41	163.84
593.57	98.30
593.73	105.32
593.89	112.35
594.05	72.56
594.20	110.01
594.36	119.37
594.52	46.81
594.68	72.56
594.84	49.15
594.99	177.88
595.15	72.56
595.31	149.79
595.47	88.94
595.62	74.90
595.78	58.51
595.94	58.51
596.10	86.60
596.25	77.24
596.41	98.30
596.57	67.88
596.73	21.06
596.88	51.49
597.04	56.17
597.20	65.54
597.36	56.17
597.51	88.94
597.67	86.60
597.83	110.01
597.99	81.92
598.14	168.52
598.30	37.45
598.46	35.11
598.61	88.94
598.77	16.38
598.93	93.62
599.09	65.54
599.24	65.54
599.40	128.73
599.56	177.88
599.71	88.94
599.87	91.28
600.03	51.49
600.18	117.03
600.34	72.56
600.50	147.45
600.65	72.56
600.81	121.71
600.97	65.54
601.12	121.71
601.28	79.58
601.44	65.54
601.59	37.45
601.75	63.19
601.91	100.64
602.06	35.11
602.22	86.60
602.37	44.47
602.53	0.00
602.69	49.15
602.84	49.15
603.00	100.64
603.16	124.05
603.31	77.24
603.47	49.15
603.62	46.81
603.78	30.43
603.94	44.47
604.09	72.56
604.25	110.01
604.40	79.58
604.56	133.41
604.71	95.96
604.87	88.94
605.03	79.58
605.18	49.15
605.34	100.64
605.49	112.35
605.65	79.58
605.80	0.00
605.96	14.04
606.12	95.96
606.27	128.73
606.43	110.01
606.58	30.43
606.74	79.58
606.89	86.60
607.05	18.72
607.20	51.49
607.36	42.13
607.51	72.56
607.67	72.56
607.82	84.26
607.98	105.32
608.13	67.88
608.29	112.35
608.44	124.05
608.60	51.49
608.75	37.45
608.91	84.26
609.06	37.45
609.22	25.75
609.37	35.11
609.53	126.39
609.68	53.83
609.84	93.62
609.99	119.37
610.15	53.83
610.30	53.83
610.46	74.90
610.61	60.85
610.76	124.05
610.92	88.94
611.07	98.30
611.23	86.60
611.38	60.85
611.54	140.43
611.69	81.92
611.84	131.07
612.00	105.32
612.15	65.54
612.31	138.09
612.46	65.54
612.62	35.11
612.77	114.69
612.92	67.88
613.08	128.73
613.23	63.19
613.39	110.01
613.54	70.22
613.69	53.83
613.85	60.85
614.00	84.26
614.15	21.06
614.31	44.47
614.46	30.43
614.62	88.94
614.77	112.35
614.92	173.20
615.08	16.38
615.23	23.41
615.38	51.49
615.54	42.13
615.69	37.45
615.84	102.98
616.00	58.51
616.15	56.17
616.30	60.85
616.46	88.94
616.61	110.01
616.76	107.66
616.92	23.41
617.07	102.98
617.22	49.15
617.37	105.32
617.53	121.71
617.68	67.88
617.83	37.45
617.99	86.60
618.14	88.94
618.29	51.49
618.45	79.58
618.60	53.83
618.75	21.06
618.90	110.01
619.06	11.70
619.21	105.32
619.36	0.00
619.51	105.32
619.67	58.51
619.82	100.64
619.97	0.00
620.12	44.47
620.28	102.98
620.43	70.22
620.58	2.34
620.73	140.43
620.89	67.88
621.04	14.04
621.19	100.64
621.34	30.43
621.49	53.83
621.65	100.64
621.80	84.26
621.95	65.54
622.10	53.83
622.25	149.79
622.41	14.04
622.56	51.49
622.71	53.83
622.86	63.19
623.01	42.13
623.16	60.85
623.32	21.06
623.47	65.54
623.62	119.37
623.77	37.45
623.92	30.43
624.07	35.11
624.23	105.32
624.38	4.68
624.53	91.28
624.68	37.45
624.83	18.72
624.98	138.09
625.13	37.45
625.29	84.26
625.44	39.79
625.59	32.77
625.74	63.19
625.89	121.71
626.04	112.35
626.19	63.19
626.34	44.47
626.49	28.09
626.65	88.94
626.80	42.13
626.95	0.00
627.10	67.88
627.25	60.85
627.40	79.58
627.55	124.05
627.70	51.49
627.85	32.77
628.00	65.54
628.15	0.00
628.30	21.06
628.45	0.00
628.60	86.60
628.76	49.15
628.91	46.81
629.06	35.11
629.21	63.19
629.36	0.00
629.51	81.92
629.66	93.62
629.81	60.85
629.96	16.38
630.11	79.58
630.26	112.35
630.41	93.62
630.56	37.45
630.71	112.35
630.86	88.94
631.01	74.90
631.16	110.01
631.31	18.72
631.46	4.68
631.61	30.43
631.76	98.30
631.91	84.26
632.06	7.02
632.21	67.88
632.36	135.75
632.51	0.00
632.66	93.62
632.81	79.58
632.96	74.90
633.10	7.02
633.25	88.94
633.40	100.64
633.55	46.81
633.70	42.13
633.85	128.73
634.00	100.64
634.15	140.43
634.30	18.72
634.45	131.07
634.60	37.45
634.75	70.22
634.90	112.35
635.05	37.45
635.19	93.62
635.34	58.51
635.49	72.56
635.64	51.49
635.79	37.45
635.94	42.13
636.09	0.00
636.24	18.72
636.39	95.96
636.53	77.24
636.68	131.07
636.83	56.17
636.98	110.01
637.13	23.41
637.28	46.81
637.43	7.02
637.57	86.60
637.72	60.85
637.87	117.03
638.02	53.83
638.17	32.77
638.32	77.24
638.46	60.85
638.61	42.13
638.76	53.83
638.91	46.81
639.06	110.01
639.20	102.98
639.35	0.00
639.50	37.45
639.65	58.51
639.80	110.01
639.94	39.79
640.09	28.09
640.24	28.09
640.39	28.09
640.54	81.92
640.68	0.00
640.83	81.92
640.98	39.79
641.13	35.11
641.27	110.01
641.42	39.79
641.57	70.22
641.72	42.13
641.86	74.90
642.01	77.24
642.16	140.43
642.31	77.24
642.45	74.90
642.60	58.51
642.75	81.92
642.90	46.81
643.04	100.64
643.19	0.00
643.34	42.13
643.48	7.02
643.63	0.00
643.78	65.54
643.93	70.22
644.07	4.68
644.22	56.17
644.37	28.09
644.51	14.04
644.66	32.77
644.81	37.45
644.95	133.41
645.10	84.26
645.25	79.58
645.39	16.38
645.54	163.84
645.69	187.24
645.83	46.81
645.98	37.45
646.13	58.51
646.27	21.06
646.42	0.00
646.57	67.88
646.71	44.47
646.86	18.72
647.00	77.24
647.15	70.22
647.30	14.04
647.44	2.34
647.59	86.60
647.74	114.69
647.88	28.09
648.03	58.51
648.17	30.43
648.32	46.81
648.47	112.35
648.61	0.00
648.76	51.49
648.90	46.81
649.05	107.66
649.20	25.75
649.34	110.01
649.49	114.69
649.63	49.15
649.78	98.30
649.92	140.43
650.07	0.00
650.21	67.88
650.36	95.96
650.51	100.64
650.65	16.38
650.80	0.00
650.94	56.17
651.09	23.41
651.23	81.92
651.38	44.47
651.52	28.09
651.67	0.00
651.81	25.75
651.96	58.51
652.10	53.83
652.25	112.35
652.39	53.83
652.54	53.83
652.68	0.00
652.83	39.79
652.97	2.34
653.12	100.64
653.26	119.37
653.41	16.38
653.55	65.54
653.70	46.81
653.84	86.60
653.99	49.15
654.13	23.41
654.27	65.54
654.42	16.38
654.56	156.82
654.71	88.94
654.85	46.81
655.00	67.88
655.14	11.70
655.29	23.41
655.43	46.81
655.57	39.79
655.72	51.49
655.86	37.45
656.01	18.72
656.15	67.88
656.30	110.01
656.44	4.68
656.58	0.00
656.73	67.88
656.87	126.39
657.01	39.79
657.16	2.34
657.30	105.32
657.45	49.15
657.59	46.81
657.73	39.79
657.88	84.26
658.02	147.45
658.16	86.60
658.31	72.56
658.45	42.13
658.60	56.17
658.74	84.26
658.88	0.00
659.03	95.96
659.17	23.41
659.31	28.09
659.46	14.04
659.60	30.43
659.74	9.36
659.89	4.68
660.03	56.17
660.17	28.09
660.32	7.02
660.46	117.03
660.60	0.00
660.74	88.94
660.89	0.00
661.03	37.45
661.17	9.36
661.32	4.68
661.46	88.94
661.60	16.38
661.74	67.88
661.89	70.22
662.03	49.15
662.17	0.00
662.31	63.19
662.46	63.19
662.60	53.83
662.74	79.58
662.88	32.77
663.03	51.49
663.17	105.32
663.31	16.38
663.45	11.70
663.60	37.45
663.74	25.75
663.88	60.85
664.02	53.83
664.17	0.00
664.31	25.75
664.45	0.00
664.59	49.15
664.73	25.75
664.88	23.41
665.02	0.00
665.16	102.98
665.30	67.88
665.44	42.13
665.59	39.79
665.73	77.24
665.87	42.13
666.01	77.24
666.15	65.54
666.29	46.81
666.44	88.94
666.58	72.56
666.72	32.77
666.86	119.37
667.00	72.56
667.14	14.04
667.28	14.04
667.43	23.41
667.57	152.13
667.71	56.17
667.85	39.79
667.99	30.43
668.13	42.13
668.27	65.54
668.41	74.90
668.56	63.19
668.70	65.54
668.84	16.38
668.98	42.13
669.12	0.00
669.26	0.00
669.40	81.92
669.54	42.13
669.68	65.54
669.82	79.58
669.96	39.79
670.10	4.68
670.25	53.83
670.39	51.49
670.53	18.72
670.67	35.11
670.81	72.56
670.95	37.45
671.09	42.13
671.23	32.77
671.37	84.26
671.51	77.24
671.65	105.32
671.79	56.17
671.93	37.45
672.07	53.83
672.21	100.64
672.35	0.00
672.49	74.90
672.63	37.45
672.77	28.09
672.91	32.77
673.05	102.98
673.19	84.26
673.33	74.90
673.47	81.92
673.61	53.83
673.75	0.00
673.89	56.17
674.03	72.56
674.17	65.54
674.31	39.79
674.45	42.13
674.59	67.88
674.73	86.60
674.87	63.19
675.01	46.81
675.15	0.00
675.29	63.19
675.43	95.96
675.56	86.60
675.70	9.36
675.84	23.41
675.98	0.00
676.12	74.90
676.26	105.32
676.40	42.13
676.54	60.85
676.68	72.56
676.82	65.54
676.96	124.05
677.10	58.51
677.23	102.98
677.37	60.85
677.51	42.13
677.65	70.22
677.79	63.19
677.93	67.88
678.07	98.30
678.21	70.22
678.34	23.41
678.48	4.68
678.62	42.13
678.76	30.43
678.90	21.06
679.04	37.45
679.18	18.72
679.31	37.45
679.45	11.70
679.59	56.17
679.73	56.17
679.87	39.79
680.00	28.09
680.14	63.19
680.28	107.66
680.42	37.45
680.56	4.68
680.70	23.41
680.83	161.50
680.97	39.79
681.11	23.41
681.25	51.49
681.39	42.13
681.52	0.00
681.66	72.56
681.80	44.47
681.94	81.92
682.07	37.45
682.21	14.04
682.35	7.02
682.49	65.54
682.62	114.69
682.76	63.19
682.90	81.92
683.04	53.83
683.17	37.45
683.31	51.49
683.45	98.30
683.59	21.06
683.72	63.19
683.86	112.35
684.00	16.38
684.13	0.00
684.27	42.13
684.41	21.06
684.55	60.85
684.68	18.72
684.82	70.22
684.96	14.04
685.09	9.36
685.23	100.64
685.37	35.11
685.50	39.79
685.64	39.79
685.78	32.77
685.91	25.75
686.05	0.00
686.19	86.60
686.32	88.94
686.46	7.02
686.60	72.56
686.73	30.43
686.87	30.43
687.01	18.72
687.14	14.04
687.28	0.00
687.42	100.64
687.55	0.00
687.69	0.00
687.82	18.72
687.96	9.36
688.10	65.54
688.23	121.71
688.37	7.02
688.50	81.92
688.64	42.13
688.78	42.13
688.91	39.79
689.05	0.00
689.18	28.09
689.32	25.75
689.46	39.79
689.59	88.94
689.73	0.00
689.86	37.45
690.00	58.51
690.13	23.41
690.27	37.45
690.41	72.56
690.54	21.06
690.68	0.00
690.81	23.41
690.95	32.77
691.08	9.36
691.22	37.45
691.35	2.34
691.49	35.11
691.62	49.15
691.76	70.22
691.89	28.09
692.03	42.13
692.16	77.24
692.30	14.04
692.43	107.66
692.57	95.96
692.70	56.17
692.84	16.38
692.97	0.00
693.11	25.75
693.24	128.73
693.38	9.36
693.51	0.00
693.65	74.90
693.78	37.45
693.92	51.49
694.05	67.88
694.19	0.00
694.32	112.35
694.45	39.79
694.59	46.81
694.72	16.38
694.86	32.77
694.99	56.17
695.13	2.34
695.26	77.24
695.39	0.00
695.53	0.00
695.66	0.00
695.80	18.72
695.93	9.36
696.07	0.00
696.20	95.96
696.33	93.62
696.47	23.41
696.60	86.60
696.73	63.19
696.87	35.11
697.00	0.00
697.14	60.85
697.27	9.36
697.40	0.00
697.54	56.17
697.67	91.28
697.80	23.41
697.94	63.19
698.07	51.49
698.21	9.36
698.34	18.72
698.47	93.62
698.61	7.02
698.74	60.85
698.87	56.17
699.01	77.24
699.14	91.28
699.27	63.19
699.40	86.60
699.54	14.04
699.67	23.41
699.80	44.47
699.94	44.47
700.07	58.51
700.20	32.77
700.34	65.54
700.47	79.58
700.60	0.00
700.73	42.13
700.87	56.17
701.00	0.00
701.13	0.00
701.26	0.00
701.40	58.51
701.53	0.00
701.66	0.00
701.79	53.83
701.93	16.38
702.06	60.85
702.19	35.11
702.32	88.94
702.46	7.02
702.59	81.92
702.72	53.83
702.85	0.00
702.99	60.85
703.12	0.00
703.25	11.70
703.38	4.68
703.51	84.26
703.65	56.17
703.78	91.28
703.91	65.54
704.04	14.04
704.17	35.11
704.31	4.68
704.44	65.54
704.57	7.02
704.70	49.15
704.83	53.83
704.96	23.41
705.10	7.02
705.23	70.22
>>>>>End Processed Spectral Data<<<<<
