SpectraSuite Data File
++++++++++++++++++++++++++++++++++++
Date: Fri Oct 04 12:13:33 GMT-05:00 2013
User: price-jones
Dark Spectrum Present: No
Reference Spectrum Present: No
Number of Sampled Component Spectra: 1
Spectrometers: USB2+H05261
Integration Time (usec): 10000 (USB2+H05261)
Spectra Averaged: 1 (USB2+H05261)
Boxcar Smoothing: 0 (USB2+H05261)
Correct for Electrical Dark: No (USB2+H05261)
Strobe/Lamp Enabled: No (USB2+H05261)
Correct for Detector Non-linearity: No (USB2+H05261)
Correct for Stray Light: No (USB2+H05261)
Number of Pixels in Processed Spectrum: 2048
>>>>>Begin Processed Spectral Data<<<<<
365.73	0.00
365.92	0.00
366.12	0.00
366.32	0.00
366.52	0.00
366.72	0.00
366.91	0.00
367.11	0.00
367.31	0.00
367.51	0.00
367.70	0.00
367.90	0.00
368.10	0.00
368.30	0.00
368.49	0.00
368.69	0.00
368.89	0.00
369.09	0.00
369.28	0.00
369.48	0.00
369.68	0.00
369.87	0.00
370.07	0.00
370.27	0.00
370.47	0.00
370.66	0.00
370.86	0.00
371.06	0.00
371.25	0.00
371.45	0.00
371.65	0.00
371.84	0.00
372.04	0.00
372.24	0.00
372.44	0.00
372.63	4.68
372.83	46.81
373.03	42.13
373.22	18.72
373.42	42.13
373.62	37.45
373.81	18.72
374.01	35.11
374.21	39.79
374.40	0.00
374.60	28.09
374.79	4.68
374.99	42.13
375.19	51.49
375.38	0.00
375.58	7.02
375.78	0.00
375.97	67.88
376.17	30.43
376.37	65.54
376.56	30.43
376.76	58.51
376.95	119.37
377.15	51.49
377.35	37.45
377.54	0.00
377.74	7.02
377.93	7.02
378.13	0.00
378.33	67.88
378.52	42.13
378.72	9.36
378.91	0.00
379.11	91.28
379.31	70.22
379.50	42.13
379.70	65.54
379.89	28.09
380.09	0.00
380.28	9.36
380.48	37.45
380.68	2.34
380.87	135.75
381.07	0.00
381.26	37.45
381.46	0.00
381.65	7.02
381.85	9.36
382.04	0.00
382.24	0.00
382.43	0.00
382.63	70.22
382.83	25.75
383.02	74.90
383.22	7.02
383.41	7.02
383.61	53.83
383.80	81.92
384.00	63.19
384.19	21.06
384.39	44.47
384.58	0.00
384.78	7.02
384.97	4.68
385.17	84.26
385.36	0.00
385.56	18.72
385.75	35.11
385.95	0.00
386.14	0.00
386.34	7.02
386.53	11.70
386.72	0.00
386.92	0.00
387.11	30.43
387.31	0.00
387.50	35.11
387.70	49.15
387.89	18.72
388.09	0.00
388.28	77.24
388.48	25.75
388.67	35.11
388.86	9.36
389.06	23.41
389.25	60.85
389.45	0.00
389.64	0.00
389.84	0.00
390.03	0.00
390.22	28.09
390.42	0.00
390.61	37.45
390.81	56.17
391.00	44.47
391.19	0.00
391.39	88.94
391.58	30.43
391.78	14.04
391.97	23.41
392.16	16.38
392.36	7.02
392.55	7.02
392.75	42.13
392.94	0.00
393.13	35.11
393.33	0.00
393.52	42.13
393.71	70.22
393.91	65.54
394.10	4.68
394.29	0.00
394.49	0.00
394.68	16.38
394.88	53.83
395.07	51.49
395.26	37.45
395.46	0.00
395.65	32.77
395.84	84.26
396.04	58.51
396.23	18.72
396.42	53.83
396.62	30.43
396.81	0.00
397.00	98.30
397.19	42.13
397.39	21.06
397.58	67.88
397.77	0.00
397.97	0.00
398.16	0.00
398.35	0.00
398.55	63.19
398.74	0.00
398.93	58.51
399.12	0.00
399.32	49.15
399.51	0.00
399.70	32.77
399.90	0.00
400.09	11.70
400.28	0.00
400.47	14.04
400.67	16.38
400.86	7.02
401.05	7.02
401.24	74.90
401.44	0.00
401.63	72.56
401.82	0.00
402.01	112.35
402.21	2.34
402.40	65.54
402.59	14.04
402.78	72.56
402.97	32.77
403.17	7.02
403.36	42.13
403.55	14.04
403.74	32.77
403.93	42.13
404.13	9.36
404.32	23.41
404.51	0.00
404.70	0.00
404.89	63.19
405.09	4.68
405.28	9.36
405.47	0.00
405.66	0.00
405.85	30.43
406.05	0.00
406.24	84.26
406.43	2.34
406.62	28.09
406.81	0.00
407.00	7.02
407.20	42.13
407.39	18.72
407.58	0.00
407.77	0.00
407.96	0.00
408.15	0.00
408.34	30.43
408.54	11.70
408.73	0.00
408.92	51.49
409.11	14.04
409.30	0.00
409.49	81.92
409.68	0.00
409.87	18.72
410.07	53.83
410.26	16.38
410.45	23.41
410.64	58.51
410.83	35.11
411.02	51.49
411.21	0.00
411.40	0.00
411.59	23.41
411.78	46.81
411.98	72.56
412.17	9.36
412.36	32.77
412.55	32.77
412.74	60.85
412.93	49.15
413.12	4.68
413.31	88.94
413.50	88.94
413.69	60.85
413.88	0.00
414.07	0.00
414.26	56.17
414.45	28.09
414.64	14.04
414.83	60.85
415.02	0.00
415.22	32.77
415.41	0.00
415.60	53.83
415.79	0.00
415.98	23.41
416.17	11.70
416.36	2.34
416.55	0.00
416.74	0.00
416.93	9.36
417.12	0.00
417.31	60.85
417.50	0.00
417.69	0.00
417.88	30.43
418.07	79.58
418.26	30.43
418.45	84.26
418.64	0.00
418.83	25.75
419.02	67.88
419.21	95.96
419.39	0.00
419.58	0.00
419.77	88.94
419.96	53.83
420.15	107.66
420.34	84.26
420.53	39.79
420.72	0.00
420.91	72.56
421.10	11.70
421.29	16.38
421.48	30.43
421.67	14.04
421.86	67.88
422.05	0.00
422.24	0.00
422.43	0.00
422.61	63.19
422.80	0.00
422.99	0.00
423.18	0.00
423.37	49.15
423.56	30.43
423.75	58.51
423.94	65.54
424.13	81.92
424.32	65.54
424.50	25.75
424.69	60.85
424.88	35.11
425.07	28.09
425.26	114.69
425.45	110.01
425.64	46.81
425.83	110.01
426.01	2.34
426.20	65.54
426.39	2.34
426.58	65.54
426.77	44.47
426.96	4.68
427.15	28.09
427.33	0.00
427.52	65.54
427.71	0.00
427.90	14.04
428.09	0.00
428.28	79.58
428.46	63.19
428.65	49.15
428.84	9.36
429.03	74.90
429.22	0.00
429.40	58.51
429.59	28.09
429.78	0.00
429.97	0.00
430.16	0.00
430.34	11.70
430.53	0.00
430.72	0.00
430.91	79.58
431.10	65.54
431.28	84.26
431.47	112.35
431.66	88.94
431.85	63.19
432.03	37.45
432.22	58.51
432.41	44.47
432.60	7.02
432.79	0.00
432.97	102.98
433.16	56.17
433.35	58.51
433.54	0.00
433.72	21.06
433.91	93.62
434.10	67.88
434.28	0.00
434.47	0.00
434.66	91.28
434.85	65.54
435.03	65.54
435.22	84.26
435.41	0.00
435.59	7.02
435.78	14.04
435.97	81.92
436.16	14.04
436.34	0.00
436.53	0.00
436.72	11.70
436.90	0.00
437.09	56.17
437.28	4.68
437.46	0.00
437.65	25.75
437.84	56.17
438.02	0.00
438.21	49.15
438.40	49.15
438.58	18.72
438.77	35.11
438.96	107.66
439.14	74.90
439.33	124.05
439.52	0.00
439.70	0.00
439.89	70.22
440.08	51.49
440.26	16.38
440.45	16.38
440.63	70.22
440.82	25.75
441.01	0.00
441.19	84.26
441.38	72.56
441.57	37.45
441.75	79.58
441.94	30.43
442.12	37.45
442.31	37.45
442.50	32.77
442.68	23.41
442.87	39.79
443.05	86.60
443.24	7.02
443.43	67.88
443.61	79.58
443.80	35.11
443.98	0.00
444.17	0.00
444.35	25.75
444.54	14.04
444.73	0.00
444.91	0.00
445.10	63.19
445.28	0.00
445.47	21.06
445.65	74.90
445.84	46.81
446.02	23.41
446.21	23.41
446.39	2.34
446.58	0.00
446.77	11.70
446.95	30.43
447.14	16.38
447.32	65.54
447.51	70.22
447.69	79.58
447.88	0.00
448.06	84.26
448.25	84.26
448.43	11.70
448.62	28.09
448.80	72.56
448.99	107.66
449.17	0.00
449.36	46.81
449.54	2.34
449.73	49.15
449.91	23.41
450.10	60.85
450.28	0.00
450.46	14.04
450.65	0.00
450.83	39.79
451.02	18.72
451.20	51.49
451.39	0.00
451.57	65.54
451.76	46.81
451.94	51.49
452.13	0.00
452.31	0.00
452.49	42.13
452.68	0.00
452.86	18.72
453.05	98.30
453.23	0.00
453.42	23.41
453.60	39.79
453.78	44.47
453.97	0.00
454.15	2.34
454.34	23.41
454.52	39.79
454.70	95.96
454.89	21.06
455.07	79.58
455.26	4.68
455.44	91.28
455.62	51.49
455.81	0.00
455.99	0.00
456.17	16.38
456.36	0.00
456.54	23.41
456.73	51.49
456.91	58.51
457.09	56.17
457.28	37.45
457.46	74.90
457.64	95.96
457.83	30.43
458.01	51.49
458.19	23.41
458.38	46.81
458.56	79.58
458.74	11.70
458.93	58.51
459.11	0.00
459.29	0.00
459.48	35.11
459.66	67.88
459.84	0.00
460.03	46.81
460.21	25.75
460.39	28.09
460.57	0.00
460.76	46.81
460.94	46.81
461.12	135.75
461.31	70.22
461.49	51.49
461.67	2.34
461.85	53.83
462.04	49.15
462.22	135.75
462.40	18.72
462.59	74.90
462.77	56.17
462.95	0.00
463.13	23.41
463.32	23.41
463.50	0.00
463.68	16.38
463.86	63.19
464.05	37.45
464.23	70.22
464.41	28.09
464.59	42.13
464.78	37.45
464.96	58.51
465.14	53.83
465.32	86.60
465.50	4.68
465.69	23.41
465.87	0.00
466.05	74.90
466.23	9.36
466.41	7.02
466.60	60.85
466.78	79.58
466.96	28.09
467.14	79.58
467.32	46.81
467.51	37.45
467.69	56.17
467.87	18.72
468.05	70.22
468.23	11.70
468.41	23.41
468.60	37.45
468.78	77.24
468.96	46.81
469.14	145.11
469.32	105.32
469.50	16.38
469.69	65.54
469.87	77.24
470.05	0.00
470.23	63.19
470.41	79.58
470.59	14.04
470.77	74.90
470.95	84.26
471.14	124.05
471.32	14.04
471.50	56.17
471.68	100.64
471.86	77.24
472.04	14.04
472.22	0.00
472.40	70.22
472.58	7.02
472.77	65.54
472.95	0.00
473.13	0.00
473.31	35.11
473.49	42.13
473.67	63.19
473.85	37.45
474.03	7.02
474.21	35.11
474.39	11.70
474.57	46.81
474.75	51.49
474.93	46.81
475.12	37.45
475.30	53.83
475.48	46.81
475.66	28.09
475.84	35.11
476.02	14.04
476.20	46.81
476.38	67.88
476.56	84.26
476.74	56.17
476.92	23.41
477.10	32.77
477.28	72.56
477.46	0.00
477.64	0.00
477.82	28.09
478.00	0.00
478.18	42.13
478.36	0.00
478.54	37.45
478.72	53.83
478.90	0.00
479.08	44.47
479.26	23.41
479.44	102.98
479.62	0.00
479.80	135.75
479.98	0.00
480.16	0.00
480.34	53.83
480.52	30.43
480.70	42.13
480.88	91.28
481.06	79.58
481.24	30.43
481.41	39.79
481.59	25.75
481.77	93.62
481.95	46.81
482.13	77.24
482.31	56.17
482.49	35.11
482.67	25.75
482.85	51.49
483.03	56.17
483.21	49.15
483.39	72.56
483.57	49.15
483.74	49.15
483.92	35.11
484.10	44.47
484.28	56.17
484.46	46.81
484.64	84.26
484.82	72.56
485.00	30.43
485.18	58.51
485.35	0.00
485.53	86.60
485.71	65.54
485.89	39.79
486.07	42.13
486.25	114.69
486.43	16.38
486.61	51.49
486.78	0.00
486.96	18.72
487.14	0.00
487.32	49.15
487.50	93.62
487.68	2.34
487.85	23.41
488.03	91.28
488.21	0.00
488.39	14.04
488.57	91.28
488.75	42.13
488.92	2.34
489.10	56.17
489.28	46.81
489.46	23.41
489.64	9.36
489.81	86.60
489.99	35.11
490.17	95.96
490.35	107.66
490.53	51.49
490.70	0.00
490.88	95.96
491.06	133.41
491.24	79.58
491.41	11.70
491.59	21.06
491.77	0.00
491.95	65.54
492.13	0.00
492.30	53.83
492.48	51.49
492.66	63.19
492.84	49.15
493.01	131.07
493.19	2.34
493.37	46.81
493.54	56.17
493.72	65.54
493.90	35.11
494.08	23.41
494.25	112.35
494.43	100.64
494.61	39.79
494.79	70.22
494.96	28.09
495.14	56.17
495.32	77.24
495.49	16.38
495.67	65.54
495.85	11.70
496.02	4.68
496.20	161.50
496.38	70.22
496.55	58.51
496.73	42.13
496.91	14.04
497.09	44.47
497.26	51.49
497.44	56.17
497.62	105.32
497.79	79.58
497.97	70.22
498.14	77.24
498.32	93.62
498.50	0.00
498.67	65.54
498.85	0.00
499.03	46.81
499.20	18.72
499.38	0.00
499.56	51.49
499.73	37.45
499.91	35.11
500.08	37.45
500.26	100.64
500.44	46.81
500.61	63.19
500.79	53.83
500.97	63.19
501.14	4.68
501.32	37.45
501.49	74.90
501.67	77.24
501.84	25.75
502.02	42.13
502.20	7.02
502.37	81.92
502.55	23.41
502.72	37.45
502.90	95.96
503.07	49.15
503.25	0.00
503.43	9.36
503.60	86.60
503.78	100.64
503.95	0.00
504.13	32.77
504.30	14.04
504.48	9.36
504.65	39.79
504.83	65.54
505.01	81.92
505.18	25.75
505.36	65.54
505.53	119.37
505.71	32.77
505.88	105.32
506.06	28.09
506.23	58.51
506.41	67.88
506.58	23.41
506.76	0.00
506.93	79.58
507.11	95.96
507.28	72.56
507.46	44.47
507.63	56.17
507.81	37.45
507.98	86.60
508.16	30.43
508.33	0.00
508.50	37.45
508.68	46.81
508.85	60.85
509.03	0.00
509.20	63.19
509.38	53.83
509.55	58.51
509.73	53.83
509.90	0.00
510.08	56.17
510.25	21.06
510.42	93.62
510.60	65.54
510.77	0.00
510.95	53.83
511.12	37.45
511.30	25.75
511.47	84.26
511.64	72.56
511.82	49.15
511.99	39.79
512.17	72.56
512.34	58.51
512.51	117.03
512.69	30.43
512.86	81.92
513.04	0.00
513.21	100.64
513.38	30.43
513.56	14.04
513.73	79.58
513.90	2.34
514.08	0.00
514.25	37.45
514.43	46.81
514.60	39.79
514.77	58.51
514.95	74.90
515.12	72.56
515.29	49.15
515.47	37.45
515.64	77.24
515.81	46.81
515.99	67.88
516.16	0.00
516.33	23.41
516.51	42.13
516.68	79.58
516.85	67.88
517.03	25.75
517.20	44.47
517.37	35.11
517.54	0.00
517.72	0.00
517.89	2.34
518.06	58.51
518.24	60.85
518.41	56.17
518.58	4.68
518.75	60.85
518.93	79.58
519.10	49.15
519.27	88.94
519.45	21.06
519.62	37.45
519.79	0.00
519.96	58.51
520.14	58.51
520.31	0.00
520.48	56.17
520.65	32.77
520.83	72.56
521.00	37.45
521.17	74.90
521.34	44.47
521.52	0.00
521.69	86.60
521.86	58.51
522.03	72.56
522.20	49.15
522.38	58.51
522.55	70.22
522.72	4.68
522.89	49.15
523.07	0.00
523.24	105.32
523.41	23.41
523.58	56.17
523.75	0.00
523.92	72.56
524.10	56.17
524.27	44.47
524.44	65.54
524.61	67.88
524.78	74.90
524.96	0.00
525.13	84.26
525.30	16.38
525.47	72.56
525.64	4.68
525.81	0.00
525.98	14.04
526.16	98.30
526.33	46.81
526.50	81.92
526.67	53.83
526.84	0.00
527.01	110.01
527.18	0.00
527.36	35.11
527.53	65.54
527.70	65.54
527.87	21.06
528.04	2.34
528.21	35.11
528.38	37.45
528.55	23.41
528.72	0.00
528.89	58.51
529.07	25.75
529.24	0.00
529.41	74.90
529.58	63.19
529.75	2.34
529.92	42.13
530.09	2.34
530.26	49.15
530.43	84.26
530.60	81.92
530.77	133.41
530.94	67.88
531.11	102.98
531.28	63.19
531.46	0.00
531.63	51.49
531.80	95.96
531.97	51.49
532.14	65.54
532.31	32.77
532.48	42.13
532.65	81.92
532.82	21.06
532.99	51.49
533.16	32.77
533.33	30.43
533.50	42.13
533.67	39.79
533.84	0.00
534.01	21.06
534.18	107.66
534.35	102.98
534.52	0.00
534.69	0.00
534.86	39.79
535.03	0.00
535.20	0.00
535.37	70.22
535.54	105.32
535.71	21.06
535.88	0.00
536.05	18.72
536.22	114.69
536.38	18.72
536.55	112.35
536.72	16.38
536.89	102.98
537.06	84.26
537.23	70.22
537.40	28.09
537.57	51.49
537.74	79.58
537.91	135.75
538.08	84.26
538.25	53.83
538.42	14.04
538.59	0.00
538.75	84.26
538.92	0.00
539.09	84.26
539.26	2.34
539.43	51.49
539.60	77.24
539.77	60.85
539.94	102.98
540.11	32.77
540.28	93.62
540.44	58.51
540.61	23.41
540.78	60.85
540.95	53.83
541.12	39.79
541.29	0.00
541.46	0.00
541.62	0.00
541.79	0.00
541.96	65.54
542.13	63.19
542.30	72.56
542.47	49.15
542.63	0.00
542.80	25.75
542.97	0.00
543.14	56.17
543.31	0.00
543.48	79.58
543.64	91.28
543.81	60.85
543.98	98.30
544.15	21.06
544.32	117.03
544.48	65.54
544.65	0.00
544.82	56.17
544.99	28.09
545.16	42.13
545.32	42.13
545.49	0.00
545.66	44.47
545.83	63.19
546.00	0.00
546.16	44.47
546.33	0.00
546.50	16.38
546.67	51.49
546.83	14.04
547.00	0.00
547.17	65.54
547.34	79.58
547.50	138.09
547.67	35.11
547.84	67.88
548.00	86.60
548.17	37.45
548.34	0.00
548.51	0.00
548.67	74.90
548.84	44.47
549.01	30.43
549.18	53.83
549.34	18.72
549.51	21.06
549.68	51.49
549.84	88.94
550.01	51.49
550.18	18.72
550.34	77.24
550.51	32.77
550.68	65.54
550.84	28.09
551.01	100.64
551.18	7.02
551.34	2.34
551.51	79.58
551.68	60.85
551.84	23.41
552.01	105.32
552.18	42.13
552.34	0.00
552.51	53.83
552.68	42.13
552.84	53.83
553.01	46.81
553.18	93.62
553.34	88.94
553.51	91.28
553.67	9.36
553.84	67.88
554.01	74.90
554.17	28.09
554.34	0.00
554.51	37.45
554.67	98.30
554.84	14.04
555.00	51.49
555.17	60.85
555.33	60.85
555.50	0.00
555.67	14.04
555.83	63.19
556.00	70.22
556.16	0.00
556.33	0.00
556.50	65.54
556.66	51.49
556.83	98.30
556.99	81.92
557.16	46.81
557.32	0.00
557.49	102.98
557.65	35.11
557.82	30.43
557.98	23.41
558.15	21.06
558.32	18.72
558.48	0.00
558.65	98.30
558.81	65.54
558.98	0.00
559.14	0.00
559.31	79.58
559.47	39.79
559.64	44.47
559.80	14.04
559.97	63.19
560.13	39.79
560.30	25.75
560.46	0.00
560.63	11.70
560.79	18.72
560.96	7.02
561.12	32.77
561.29	95.96
561.45	105.32
561.61	35.11
561.78	7.02
561.94	21.06
562.11	110.01
562.27	79.58
562.44	49.15
562.60	14.04
562.77	86.60
562.93	58.51
563.10	9.36
563.26	49.15
563.42	0.00
563.59	77.24
563.75	84.26
563.92	100.64
564.08	2.34
564.24	70.22
564.41	2.34
564.57	114.69
564.74	25.75
564.90	0.00
565.07	0.00
565.23	0.00
565.39	79.58
565.56	168.52
565.72	84.26
565.88	0.00
566.05	37.45
566.21	81.92
566.38	95.96
566.54	39.79
566.70	67.88
566.87	0.00
567.03	56.17
567.19	98.30
567.36	9.36
567.52	79.58
567.68	77.24
567.85	0.00
568.01	49.15
568.17	44.47
568.34	0.00
568.50	72.56
568.66	58.51
568.83	63.19
568.99	60.85
569.15	58.51
569.32	30.43
569.48	4.68
569.64	79.58
569.81	14.04
569.97	77.24
570.13	18.72
570.30	0.00
570.46	128.73
570.62	56.17
570.78	102.98
570.95	21.06
571.11	42.13
571.27	35.11
571.43	7.02
571.60	21.06
571.76	32.77
571.92	28.09
572.09	42.13
572.25	18.72
572.41	84.26
572.57	56.17
572.74	86.60
572.90	28.09
573.06	98.30
573.22	0.00
573.38	0.00
573.55	32.77
573.71	63.19
573.87	77.24
574.03	16.38
574.20	72.56
574.36	46.81
574.52	117.03
574.68	16.38
574.84	30.43
575.01	49.15
575.17	84.26
575.33	56.17
575.49	0.00
575.65	114.69
575.82	16.38
575.98	72.56
576.14	107.66
576.30	65.54
576.46	18.72
576.62	77.24
576.79	0.00
576.95	58.51
577.11	7.02
577.27	37.45
577.43	46.81
577.59	46.81
577.75	0.00
577.92	42.13
578.08	0.00
578.24	4.68
578.40	100.64
578.56	25.75
578.72	119.37
578.88	25.75
579.04	95.96
579.21	0.00
579.37	63.19
579.53	39.79
579.69	11.70
579.85	37.45
580.01	44.47
580.17	72.56
580.33	51.49
580.49	84.26
580.65	128.73
580.82	44.47
580.98	114.69
581.14	72.56
581.30	21.06
581.46	74.90
581.62	56.17
581.78	65.54
581.94	37.45
582.10	7.02
582.26	81.92
582.42	23.41
582.58	0.00
582.74	88.94
582.90	112.35
583.06	39.79
583.22	51.49
583.38	53.83
583.54	2.34
583.70	84.26
583.86	91.28
584.02	84.26
584.18	4.68
584.34	4.68
584.50	56.17
584.66	102.98
584.82	0.00
584.98	30.43
585.14	0.00
585.30	30.43
585.46	23.41
585.62	28.09
585.78	39.79
585.94	74.90
586.10	35.11
586.26	58.51
586.42	37.45
586.58	79.58
586.74	39.79
586.90	77.24
587.06	53.83
587.22	91.28
587.38	107.66
587.54	84.26
587.70	32.77
587.86	117.03
588.02	70.22
588.18	58.51
588.34	107.66
588.49	70.22
588.65	63.19
588.81	112.35
588.97	11.70
589.13	0.00
589.29	21.06
589.45	84.26
589.61	53.83
589.77	44.47
589.93	14.04
590.08	18.72
590.24	23.41
590.40	58.51
590.56	0.00
590.72	0.00
590.88	74.90
591.04	119.37
591.20	46.81
591.35	72.56
591.51	70.22
591.67	91.28
591.83	56.17
591.99	112.35
592.15	63.19
592.31	9.36
592.46	42.13
592.62	0.00
592.78	37.45
592.94	72.56
593.10	39.79
593.26	0.00
593.41	0.00
593.57	91.28
593.73	9.36
593.89	25.75
594.05	67.88
594.20	35.11
594.36	37.45
594.52	39.79
594.68	46.81
594.84	0.00
594.99	46.81
595.15	0.00
595.31	44.47
595.47	44.47
595.62	46.81
595.78	37.45
595.94	51.49
596.10	16.38
596.25	102.98
596.41	0.00
596.57	56.17
596.73	0.00
596.88	72.56
597.04	0.00
597.20	53.83
597.36	28.09
597.51	133.41
597.67	46.81
597.83	91.28
597.99	14.04
598.14	93.62
598.30	67.88
598.46	0.00
598.61	0.00
598.77	53.83
598.93	21.06
599.09	16.38
599.24	37.45
599.40	58.51
599.56	67.88
599.71	138.09
599.87	23.41
600.03	84.26
600.18	49.15
600.34	30.43
600.50	79.58
600.65	35.11
600.81	86.60
600.97	11.70
601.12	42.13
601.28	51.49
601.44	46.81
601.59	7.02
601.75	51.49
601.91	42.13
602.06	81.92
602.22	39.79
602.37	121.71
602.53	21.06
602.69	0.00
602.84	18.72
603.00	65.54
603.16	105.32
603.31	58.51
603.47	51.49
603.62	44.47
603.78	18.72
603.94	16.38
604.09	32.77
604.25	0.00
604.40	4.68
604.56	53.83
604.71	58.51
604.87	84.26
605.03	9.36
605.18	23.41
605.34	30.43
605.49	49.15
605.65	18.72
605.80	65.54
605.96	4.68
606.12	74.90
606.27	0.00
606.43	149.79
606.58	14.04
606.74	81.92
606.89	142.77
607.05	53.83
607.20	42.13
607.36	79.58
607.51	70.22
607.67	77.24
607.82	86.60
607.98	60.85
608.13	39.79
608.29	72.56
608.44	42.13
608.60	30.43
608.75	16.38
608.91	53.83
609.06	21.06
609.22	88.94
609.37	2.34
609.53	0.00
609.68	11.70
609.84	0.00
609.99	60.85
610.15	23.41
610.30	9.36
610.46	58.51
610.61	72.56
610.76	18.72
610.92	21.06
611.07	72.56
611.23	14.04
611.38	88.94
611.54	4.68
611.69	46.81
611.84	0.00
612.00	2.34
612.15	58.51
612.31	21.06
612.46	32.77
612.62	51.49
612.77	0.00
612.92	65.54
613.08	65.54
613.23	0.00
613.39	49.15
613.54	11.70
613.69	42.13
613.85	77.24
614.00	0.00
614.15	46.81
614.31	37.45
614.46	67.88
614.62	7.02
614.77	7.02
614.92	46.81
615.08	86.60
615.23	28.09
615.38	70.22
615.54	2.34
615.69	51.49
615.84	0.00
616.00	51.49
616.15	0.00
616.30	9.36
616.46	42.13
616.61	21.06
616.76	0.00
616.92	117.03
617.07	86.60
617.22	0.00
617.37	32.77
617.53	60.85
617.68	98.30
617.83	63.19
617.99	28.09
618.14	72.56
618.29	35.11
618.45	58.51
618.60	86.60
618.75	18.72
618.90	11.70
619.06	25.75
619.21	67.88
619.36	35.11
619.51	0.00
619.67	9.36
619.82	18.72
619.97	37.45
620.12	51.49
620.28	35.11
620.43	117.03
620.58	60.85
620.73	11.70
620.89	0.00
621.04	30.43
621.19	0.00
621.34	2.34
621.49	30.43
621.65	79.58
621.80	56.17
621.95	81.92
622.10	0.00
622.25	105.32
622.41	107.66
622.56	67.88
622.71	56.17
622.86	0.00
623.01	49.15
623.16	37.45
623.32	39.79
623.47	25.75
623.62	81.92
623.77	58.51
623.92	58.51
624.07	72.56
624.23	21.06
624.38	39.79
624.53	67.88
624.68	84.26
624.83	23.41
624.98	72.56
625.13	0.00
625.29	0.00
625.44	32.77
625.59	60.85
625.74	23.41
625.89	79.58
626.04	18.72
626.19	0.00
626.34	58.51
626.49	0.00
626.65	65.54
626.80	4.68
626.95	133.41
627.10	32.77
627.25	35.11
627.40	102.98
627.55	58.51
627.70	25.75
627.85	46.81
628.00	16.38
628.15	23.41
628.30	56.17
628.45	70.22
628.60	60.85
628.76	9.36
628.91	56.17
629.06	28.09
629.21	56.17
629.36	16.38
629.51	88.94
629.66	0.00
629.81	49.15
629.96	51.49
630.11	39.79
630.26	0.00
630.41	107.66
630.56	39.79
630.71	0.00
630.86	18.72
631.01	81.92
631.16	74.90
631.31	11.70
631.46	16.38
631.61	23.41
631.76	32.77
631.91	49.15
632.06	46.81
632.21	14.04
632.36	25.75
632.51	86.60
632.66	74.90
632.81	0.00
632.96	16.38
633.10	67.88
633.25	11.70
633.40	67.88
633.55	14.04
633.70	7.02
633.85	49.15
634.00	21.06
634.15	46.81
634.30	4.68
634.45	0.00
634.60	65.54
634.75	16.38
634.90	2.34
635.05	32.77
635.19	21.06
635.34	18.72
635.49	46.81
635.64	67.88
635.79	70.22
635.94	0.00
636.09	16.38
636.24	102.98
636.39	28.09
636.53	35.11
636.68	0.00
636.83	46.81
636.98	11.70
637.13	100.64
637.28	49.15
637.43	70.22
637.57	9.36
637.72	46.81
637.87	2.34
638.02	35.11
638.17	67.88
638.32	39.79
638.46	35.11
638.61	53.83
638.76	67.88
638.91	84.26
639.06	18.72
639.20	70.22
639.35	67.88
639.50	16.38
639.65	86.60
639.80	37.45
639.94	2.34
640.09	88.94
640.24	79.58
640.39	74.90
640.54	28.09
640.68	84.26
640.83	39.79
640.98	60.85
641.13	60.85
641.27	0.00
641.42	67.88
641.57	107.66
641.72	60.85
641.86	0.00
642.01	28.09
642.16	119.37
642.31	86.60
642.45	88.94
642.60	58.51
642.75	0.00
642.90	84.26
643.04	79.58
643.19	0.00
643.34	39.79
643.48	0.00
643.63	58.51
643.78	14.04
643.93	70.22
644.07	16.38
644.22	56.17
644.37	39.79
644.51	18.72
644.66	63.19
644.81	30.43
644.95	51.49
645.10	79.58
645.25	42.13
645.39	7.02
645.54	58.51
645.69	53.83
645.83	0.00
645.98	63.19
646.13	25.75
646.27	81.92
646.42	28.09
646.57	0.00
646.71	79.58
646.86	42.13
647.00	30.43
647.15	46.81
647.30	56.17
647.44	0.00
647.59	0.00
647.74	7.02
647.88	14.04
648.03	49.15
648.17	0.00
648.32	65.54
648.47	25.75
648.61	0.00
648.76	63.19
648.90	0.00
649.05	51.49
649.20	56.17
649.34	28.09
649.49	74.90
649.63	0.00
649.78	84.26
649.92	60.85
650.07	0.00
650.21	0.00
650.36	16.38
650.51	0.00
650.65	53.83
650.80	0.00
650.94	30.43
651.09	30.43
651.23	11.70
651.38	37.45
651.52	4.68
651.67	79.58
651.81	46.81
651.96	56.17
652.10	28.09
652.25	7.02
652.39	0.00
652.54	39.79
652.68	32.77
652.83	53.83
652.97	46.81
653.12	39.79
653.26	16.38
653.41	98.30
653.55	56.17
653.70	0.00
653.84	51.49
653.99	37.45
654.13	102.98
654.27	49.15
654.42	56.17
654.56	74.90
654.71	93.62
654.85	9.36
655.00	25.75
655.14	81.92
655.29	46.81
655.43	11.70
655.57	77.24
655.72	35.11
655.86	44.47
656.01	14.04
656.15	7.02
656.30	42.13
656.44	28.09
656.58	0.00
656.73	11.70
656.87	91.28
657.01	9.36
657.16	88.94
657.30	67.88
657.45	51.49
657.59	98.30
657.73	14.04
657.88	0.00
658.02	18.72
658.16	0.00
658.31	44.47
658.45	0.00
658.60	74.90
658.74	42.13
658.88	51.49
659.03	30.43
659.17	49.15
659.31	0.00
659.46	44.47
659.60	0.00
659.74	44.47
659.89	28.09
660.03	102.98
660.17	39.79
660.32	60.85
660.46	58.51
660.60	39.79
660.74	25.75
660.89	93.62
661.03	23.41
661.17	0.00
661.32	56.17
661.46	77.24
661.60	21.06
661.74	44.47
661.89	0.00
662.03	51.49
662.17	37.45
662.31	11.70
662.46	74.90
662.60	30.43
662.74	91.28
662.88	51.49
663.03	56.17
663.17	58.51
663.31	30.43
663.45	9.36
663.60	4.68
663.74	56.17
663.88	0.00
664.02	95.96
664.17	32.77
664.31	23.41
664.45	37.45
664.59	35.11
664.73	0.00
664.88	77.24
665.02	0.00
665.16	46.81
665.30	74.90
665.44	56.17
665.59	91.28
665.73	42.13
665.87	0.00
666.01	28.09
666.15	0.00
666.29	0.00
666.44	25.75
666.58	72.56
666.72	14.04
666.86	42.13
667.00	37.45
667.14	37.45
667.28	70.22
667.43	28.09
667.57	67.88
667.71	77.24
667.85	16.38
667.99	2.34
668.13	0.00
668.27	46.81
668.41	72.56
668.56	70.22
668.70	37.45
668.84	25.75
668.98	16.38
669.12	0.00
669.26	0.00
669.40	42.13
669.54	0.00
669.68	79.58
669.82	46.81
669.96	70.22
670.10	60.85
670.25	32.77
670.39	0.00
670.53	0.00
670.67	65.54
670.81	14.04
670.95	0.00
671.09	14.04
671.23	39.79
671.37	28.09
671.51	16.38
671.65	65.54
671.79	65.54
671.93	0.00
672.07	0.00
672.21	21.06
672.35	32.77
672.49	14.04
672.63	42.13
672.77	84.26
672.91	28.09
673.05	28.09
673.19	128.73
673.33	56.17
673.47	44.47
673.61	51.49
673.75	14.04
673.89	72.56
674.03	16.38
674.17	0.00
674.31	18.72
674.45	30.43
674.59	0.00
674.73	18.72
674.87	63.19
675.01	56.17
675.15	25.75
675.29	0.00
675.43	65.54
675.56	44.47
675.70	0.00
675.84	4.68
675.98	0.00
676.12	60.85
676.26	16.38
676.40	51.49
676.54	53.83
676.68	46.81
676.82	0.00
676.96	39.79
677.10	72.56
677.23	0.00
677.37	53.83
677.51	58.51
677.65	25.75
677.79	63.19
677.93	25.75
678.07	32.77
678.21	0.00
678.34	21.06
678.48	0.00
678.62	0.00
678.76	93.62
678.90	39.79
679.04	4.68
679.18	58.51
679.31	39.79
679.45	131.07
679.59	53.83
679.73	30.43
679.87	0.00
680.00	86.60
680.14	4.68
680.28	7.02
680.42	102.98
680.56	56.17
680.70	86.60
680.83	49.15
680.97	0.00
681.11	46.81
681.25	74.90
681.39	32.77
681.52	30.43
681.66	0.00
681.80	65.54
681.94	14.04
682.07	25.75
682.21	60.85
682.35	32.77
682.49	11.70
682.62	0.00
682.76	44.47
682.90	0.00
683.04	63.19
683.17	72.56
683.31	117.03
683.45	11.70
683.59	35.11
683.72	56.17
683.86	4.68
684.00	18.72
684.13	9.36
684.27	98.30
684.41	42.13
684.55	65.54
684.68	100.64
684.82	0.00
684.96	16.38
685.09	63.19
685.23	28.09
685.37	2.34
685.50	30.43
685.64	30.43
685.78	56.17
685.91	0.00
686.05	67.88
686.19	58.51
686.32	23.41
686.46	74.90
686.60	0.00
686.73	18.72
686.87	86.60
687.01	86.60
687.14	0.00
687.28	42.13
687.42	98.30
687.55	46.81
687.69	56.17
687.82	30.43
687.96	53.83
688.10	11.70
688.23	30.43
688.37	14.04
688.50	0.00
688.64	30.43
688.78	14.04
688.91	23.41
689.05	18.72
689.18	0.00
689.32	0.00
689.46	4.68
689.59	44.47
689.73	0.00
689.86	0.00
690.00	44.47
690.13	145.11
690.27	77.24
690.41	21.06
690.54	70.22
690.68	32.77
690.81	81.92
690.95	56.17
691.08	35.11
691.22	4.68
691.35	7.02
691.49	30.43
691.62	30.43
691.76	16.38
691.89	0.00
692.03	14.04
692.16	16.38
692.30	51.49
692.43	18.72
692.57	39.79
692.70	46.81
692.84	65.54
692.97	16.38
693.11	67.88
693.24	25.75
693.38	0.00
693.51	0.00
693.65	51.49
693.78	4.68
693.92	30.43
694.05	0.00
694.19	58.51
694.32	0.00
694.45	37.45
694.59	0.00
694.72	65.54
694.86	37.45
694.99	25.75
695.13	0.00
695.26	63.19
695.39	49.15
695.53	0.00
695.66	0.00
695.80	56.17
695.93	37.45
696.07	18.72
696.20	32.77
696.33	67.88
696.47	4.68
696.60	23.41
696.73	93.62
696.87	16.38
697.00	30.43
697.14	53.83
697.27	98.30
697.40	16.38
697.54	25.75
697.67	42.13
697.80	35.11
697.94	58.51
698.07	39.79
698.21	46.81
698.34	37.45
698.47	42.13
698.61	107.66
698.74	72.56
698.87	35.11
699.01	30.43
699.14	46.81
699.27	44.47
699.40	67.88
699.54	105.32
699.67	42.13
699.80	51.49
699.94	60.85
700.07	58.51
700.20	0.00
700.34	65.54
700.47	7.02
700.60	42.13
700.73	4.68
700.87	37.45
701.00	58.51
701.13	25.75
701.26	74.90
701.40	18.72
701.53	60.85
701.66	51.49
701.79	49.15
701.93	18.72
702.06	60.85
702.19	0.00
702.32	37.45
702.46	86.60
702.59	0.00
702.72	37.45
702.85	81.92
702.99	18.72
703.12	49.15
703.25	11.70
703.38	44.47
703.51	58.51
703.65	42.13
703.78	4.68
703.91	21.06
704.04	7.02
704.17	23.41
704.31	79.58
704.44	51.49
704.57	18.72
704.70	46.81
704.83	0.00
704.96	0.00
705.10	28.09
705.23	23.41
>>>>>End Processed Spectral Data<<<<<
