SpectraSuite Data File
++++++++++++++++++++++++++++++++++++
Date: Fri Oct 04 12:13:27 GMT-05:00 2013
User: price-jones
Dark Spectrum Present: No
Reference Spectrum Present: No
Number of Sampled Component Spectra: 1
Spectrometers: USB2+H05261
Integration Time (usec): 10000 (USB2+H05261)
Spectra Averaged: 1 (USB2+H05261)
Boxcar Smoothing: 0 (USB2+H05261)
Correct for Electrical Dark: No (USB2+H05261)
Strobe/Lamp Enabled: No (USB2+H05261)
Correct for Detector Non-linearity: No (USB2+H05261)
Correct for Stray Light: No (USB2+H05261)
Number of Pixels in Processed Spectrum: 2048
>>>>>Begin Processed Spectral Data<<<<<
365.73	0.00
365.92	0.00
366.12	0.00
366.32	0.00
366.52	0.00
366.72	0.00
366.91	0.00
367.11	0.00
367.31	0.00
367.51	0.00
367.70	0.00
367.90	0.00
368.10	0.00
368.30	0.00
368.49	0.00
368.69	0.00
368.89	0.00
369.09	0.00
369.28	0.00
369.48	0.00
369.68	0.00
369.87	0.00
370.07	0.00
370.27	0.00
370.47	0.00
370.66	0.00
370.86	4.68
371.06	2.34
371.25	0.00
371.45	18.72
371.65	0.00
371.84	0.00
372.04	18.72
372.24	14.04
372.44	0.00
372.63	32.77
372.83	7.02
373.03	70.22
373.22	46.81
373.42	49.15
373.62	16.38
373.81	65.54
374.01	9.36
374.21	44.47
374.40	14.04
374.60	49.15
374.79	23.41
374.99	37.45
375.19	0.00
375.38	44.47
375.58	35.11
375.78	49.15
375.97	37.45
376.17	117.03
376.37	30.43
376.56	28.09
376.76	0.00
376.95	16.38
377.15	0.00
377.35	0.00
377.54	0.00
377.74	51.49
377.93	56.17
378.13	42.13
378.33	42.13
378.52	0.00
378.72	32.77
378.91	0.00
379.11	0.00
379.31	30.43
379.50	88.94
379.70	0.00
379.89	0.00
380.09	0.00
380.28	28.09
380.48	21.06
380.68	0.00
380.87	0.00
381.07	42.13
381.26	63.19
381.46	39.79
381.65	49.15
381.85	56.17
382.04	56.17
382.24	39.79
382.43	0.00
382.63	107.66
382.83	0.00
383.02	11.70
383.22	0.00
383.41	9.36
383.61	0.00
383.80	37.45
384.00	32.77
384.19	0.00
384.39	2.34
384.58	74.90
384.78	70.22
384.97	0.00
385.17	0.00
385.36	30.43
385.56	28.09
385.75	0.00
385.95	58.51
386.14	0.00
386.34	42.13
386.53	42.13
386.72	14.04
386.92	67.88
387.11	16.38
387.31	51.49
387.50	63.19
387.70	0.00
387.89	63.19
388.09	23.41
388.28	0.00
388.48	49.15
388.67	93.62
388.86	44.47
389.06	0.00
389.25	9.36
389.45	14.04
389.64	35.11
389.84	84.26
390.03	49.15
390.22	58.51
390.42	35.11
390.61	0.00
390.81	23.41
391.00	0.00
391.19	58.51
391.39	0.00
391.58	9.36
391.78	53.83
391.97	16.38
392.16	0.00
392.36	67.88
392.55	0.00
392.75	18.72
392.94	0.00
393.13	21.06
393.33	0.00
393.52	0.00
393.71	51.49
393.91	35.11
394.10	39.79
394.29	0.00
394.49	0.00
394.68	23.41
394.88	11.70
395.07	67.88
395.26	18.72
395.46	0.00
395.65	0.00
395.84	9.36
396.04	70.22
396.23	18.72
396.42	0.00
396.62	0.00
396.81	0.00
397.00	0.00
397.19	7.02
397.39	46.81
397.58	39.79
397.77	25.75
397.97	0.00
398.16	0.00
398.35	46.81
398.55	84.26
398.74	0.00
398.93	14.04
399.12	4.68
399.32	51.49
399.51	14.04
399.70	14.04
399.90	14.04
400.09	0.00
400.28	44.47
400.47	16.38
400.67	79.58
400.86	37.45
401.05	67.88
401.24	0.00
401.44	35.11
401.63	7.02
401.82	11.70
402.01	0.00
402.21	53.83
402.40	7.02
402.59	9.36
402.78	0.00
402.97	9.36
403.17	18.72
403.36	0.00
403.55	0.00
403.74	79.58
403.93	72.56
404.13	110.01
404.32	88.94
404.51	18.72
404.70	72.56
404.89	16.38
405.09	67.88
405.28	2.34
405.47	0.00
405.66	0.00
405.85	35.11
406.05	7.02
406.24	53.83
406.43	28.09
406.62	53.83
406.81	4.68
407.00	0.00
407.20	42.13
407.39	0.00
407.58	74.90
407.77	77.24
407.96	2.34
408.15	39.79
408.34	56.17
408.54	2.34
408.73	37.45
408.92	9.36
409.11	0.00
409.30	98.30
409.49	0.00
409.68	28.09
409.87	81.92
410.07	88.94
410.26	28.09
410.45	4.68
410.64	0.00
410.83	70.22
411.02	0.00
411.21	53.83
411.40	65.54
411.59	39.79
411.78	18.72
411.98	0.00
412.17	2.34
412.36	65.54
412.55	23.41
412.74	9.36
412.93	4.68
413.12	0.00
413.31	0.00
413.50	49.15
413.69	9.36
413.88	0.00
414.07	49.15
414.26	0.00
414.45	28.09
414.64	0.00
414.83	0.00
415.02	28.09
415.22	23.41
415.41	124.05
415.60	0.00
415.79	37.45
415.98	0.00
416.17	23.41
416.36	42.13
416.55	0.00
416.74	0.00
416.93	0.00
417.12	0.00
417.31	0.00
417.50	0.00
417.69	23.41
417.88	7.02
418.07	65.54
418.26	51.49
418.45	7.02
418.64	49.15
418.83	18.72
419.02	42.13
419.21	30.43
419.39	72.56
419.58	37.45
419.77	32.77
419.96	70.22
420.15	21.06
420.34	46.81
420.53	7.02
420.72	77.24
420.91	0.00
421.10	30.43
421.29	0.00
421.48	46.81
421.67	0.00
421.86	110.01
422.05	0.00
422.24	0.00
422.43	49.15
422.61	53.83
422.80	0.00
422.99	0.00
423.18	51.49
423.37	32.77
423.56	37.45
423.75	77.24
423.94	0.00
424.13	67.88
424.32	0.00
424.50	35.11
424.69	30.43
424.88	58.51
425.07	0.00
425.26	44.47
425.45	46.81
425.64	67.88
425.83	93.62
426.01	0.00
426.20	63.19
426.39	70.22
426.58	2.34
426.77	44.47
426.96	4.68
427.15	35.11
427.33	51.49
427.52	44.47
427.71	23.41
427.90	46.81
428.09	16.38
428.28	32.77
428.46	18.72
428.65	35.11
428.84	35.11
429.03	53.83
429.22	32.77
429.40	49.15
429.59	18.72
429.78	70.22
429.97	84.26
430.16	30.43
430.34	72.56
430.53	0.00
430.72	18.72
430.91	58.51
431.10	25.75
431.28	0.00
431.47	14.04
431.66	0.00
431.85	7.02
432.03	46.81
432.22	44.47
432.41	42.13
432.60	11.70
432.79	51.49
432.97	93.62
433.16	16.38
433.35	58.51
433.54	86.60
433.72	98.30
433.91	14.04
434.10	23.41
434.28	32.77
434.47	9.36
434.66	0.00
434.85	53.83
435.03	60.85
435.22	30.43
435.41	0.00
435.59	21.06
435.78	67.88
435.97	65.54
436.16	18.72
436.34	42.13
436.53	0.00
436.72	60.85
436.90	0.00
437.09	21.06
437.28	74.90
437.46	9.36
437.65	67.88
437.84	58.51
438.02	21.06
438.21	79.58
438.40	88.94
438.58	18.72
438.77	46.81
438.96	30.43
439.14	4.68
439.33	53.83
439.52	30.43
439.70	18.72
439.89	4.68
440.08	42.13
440.26	7.02
440.45	0.00
440.63	0.00
440.82	60.85
441.01	121.71
441.19	63.19
441.38	49.15
441.57	30.43
441.75	0.00
441.94	51.49
442.12	30.43
442.31	74.90
442.50	7.02
442.68	77.24
442.87	16.38
443.05	0.00
443.24	16.38
443.43	25.75
443.61	0.00
443.80	0.00
443.98	49.15
444.17	65.54
444.35	0.00
444.54	77.24
444.73	42.13
444.91	72.56
445.10	91.28
445.28	107.66
445.47	21.06
445.65	51.49
445.84	63.19
446.02	16.38
446.21	37.45
446.39	0.00
446.58	16.38
446.77	100.64
446.95	140.43
447.14	70.22
447.32	184.90
447.51	16.38
447.69	67.88
447.88	11.70
448.06	35.11
448.25	56.17
448.43	49.15
448.62	37.45
448.80	0.00
448.99	9.36
449.17	60.85
449.36	51.49
449.54	70.22
449.73	53.83
449.91	37.45
450.10	46.81
450.28	46.81
450.46	7.02
450.65	53.83
450.83	0.00
451.02	42.13
451.20	65.54
451.39	42.13
451.57	35.11
451.76	16.38
451.94	21.06
452.13	63.19
452.31	11.70
452.49	28.09
452.68	0.00
452.86	21.06
453.05	72.56
453.23	63.19
453.42	51.49
453.60	14.04
453.78	77.24
453.97	32.77
454.15	0.00
454.34	65.54
454.52	32.77
454.70	0.00
454.89	42.13
455.07	49.15
455.26	51.49
455.44	44.47
455.62	39.79
455.81	56.17
455.99	32.77
456.17	16.38
456.36	28.09
456.54	0.00
456.73	77.24
456.91	0.00
457.09	44.47
457.28	7.02
457.46	0.00
457.64	0.00
457.83	0.00
458.01	46.81
458.19	56.17
458.38	81.92
458.56	93.62
458.74	28.09
458.93	39.79
459.11	32.77
459.29	28.09
459.48	28.09
459.66	0.00
459.84	0.00
460.03	37.45
460.21	91.28
460.39	0.00
460.57	28.09
460.76	70.22
460.94	18.72
461.12	4.68
461.31	16.38
461.49	21.06
461.67	28.09
461.85	42.13
462.04	58.51
462.22	126.39
462.40	39.79
462.59	23.41
462.77	56.17
462.95	0.00
463.13	0.00
463.32	60.85
463.50	11.70
463.68	53.83
463.86	67.88
464.05	14.04
464.23	25.75
464.41	0.00
464.59	25.75
464.78	70.22
464.96	32.77
465.14	39.79
465.32	0.00
465.50	0.00
465.69	51.49
465.87	2.34
466.05	0.00
466.23	65.54
466.41	0.00
466.60	46.81
466.78	70.22
466.96	39.79
467.14	0.00
467.32	0.00
467.51	37.45
467.69	37.45
467.87	21.06
468.05	65.54
468.23	30.43
468.41	65.54
468.60	0.00
468.78	25.75
468.96	0.00
469.14	53.83
469.32	65.54
469.50	25.75
469.69	18.72
469.87	46.81
470.05	0.00
470.23	56.17
470.41	49.15
470.59	49.15
470.77	21.06
470.95	9.36
471.14	81.92
471.32	18.72
471.50	30.43
471.68	67.88
471.86	63.19
472.04	0.00
472.22	67.88
472.40	35.11
472.58	21.06
472.77	53.83
472.95	72.56
473.13	23.41
473.31	49.15
473.49	0.00
473.67	49.15
473.85	21.06
474.03	14.04
474.21	25.75
474.39	39.79
474.57	72.56
474.75	14.04
474.93	0.00
475.12	51.49
475.30	25.75
475.48	60.85
475.66	16.38
475.84	30.43
476.02	37.45
476.20	16.38
476.38	44.47
476.56	18.72
476.74	32.77
476.92	46.81
477.10	51.49
477.28	53.83
477.46	9.36
477.64	49.15
477.82	152.13
478.00	42.13
478.18	72.56
478.36	0.00
478.54	0.00
478.72	110.01
478.90	67.88
479.08	0.00
479.26	58.51
479.44	79.58
479.62	35.11
479.80	0.00
479.98	56.17
480.16	46.81
480.34	0.00
480.52	72.56
480.70	35.11
480.88	9.36
481.06	42.13
481.24	46.81
481.41	95.96
481.59	7.02
481.77	30.43
481.95	23.41
482.13	0.00
482.31	77.24
482.49	0.00
482.67	18.72
482.85	16.38
483.03	88.94
483.21	70.22
483.39	18.72
483.57	93.62
483.74	84.26
483.92	4.68
484.10	0.00
484.28	42.13
484.46	39.79
484.64	91.28
484.82	0.00
485.00	0.00
485.18	44.47
485.35	28.09
485.53	30.43
485.71	14.04
485.89	4.68
486.07	35.11
486.25	51.49
486.43	49.15
486.61	0.00
486.78	114.69
486.96	56.17
487.14	44.47
487.32	25.75
487.50	49.15
487.68	18.72
487.85	18.72
488.03	37.45
488.21	0.00
488.39	37.45
488.57	9.36
488.75	23.41
488.92	63.19
489.10	60.85
489.28	81.92
489.46	7.02
489.64	0.00
489.81	0.00
489.99	16.38
490.17	0.00
490.35	56.17
490.53	7.02
490.70	58.51
490.88	30.43
491.06	56.17
491.24	7.02
491.41	39.79
491.59	44.47
491.77	58.51
491.95	79.58
492.13	56.17
492.30	86.60
492.48	56.17
492.66	0.00
492.84	67.88
493.01	81.92
493.19	18.72
493.37	65.54
493.54	18.72
493.72	44.47
493.90	0.00
494.08	0.00
494.25	70.22
494.43	79.58
494.61	86.60
494.79	56.17
494.96	7.02
495.14	60.85
495.32	21.06
495.49	2.34
495.67	51.49
495.85	42.13
496.02	65.54
496.20	72.56
496.38	37.45
496.55	14.04
496.73	102.98
496.91	0.00
497.09	84.26
497.26	79.58
497.44	0.00
497.62	0.00
497.79	105.32
497.97	32.77
498.14	37.45
498.32	95.96
498.50	35.11
498.67	0.00
498.85	86.60
499.03	44.47
499.20	32.77
499.38	77.24
499.56	79.58
499.73	88.94
499.91	112.35
500.08	53.83
500.26	28.09
500.44	14.04
500.61	28.09
500.79	88.94
500.97	35.11
501.14	67.88
501.32	46.81
501.49	0.00
501.67	42.13
501.84	65.54
502.02	81.92
502.20	23.41
502.37	0.00
502.55	91.28
502.72	53.83
502.90	58.51
503.07	110.01
503.25	37.45
503.43	21.06
503.60	65.54
503.78	0.00
503.95	42.13
504.13	16.38
504.30	23.41
504.48	77.24
504.65	0.00
504.83	25.75
505.01	56.17
505.18	58.51
505.36	86.60
505.53	58.51
505.71	86.60
505.88	86.60
506.06	67.88
506.23	32.77
506.41	65.54
506.58	23.41
506.76	25.75
506.93	72.56
507.11	39.79
507.28	77.24
507.46	9.36
507.63	32.77
507.81	32.77
507.98	65.54
508.16	117.03
508.33	56.17
508.50	58.51
508.68	98.30
508.85	11.70
509.03	25.75
509.20	0.00
509.38	46.81
509.55	81.92
509.73	0.00
509.90	35.11
510.08	35.11
510.25	0.00
510.42	53.83
510.60	0.00
510.77	74.90
510.95	18.72
511.12	63.19
511.30	91.28
511.47	49.15
511.64	0.00
511.82	28.09
511.99	58.51
512.17	63.19
512.34	32.77
512.51	67.88
512.69	60.85
512.86	49.15
513.04	65.54
513.21	88.94
513.38	74.90
513.56	0.00
513.73	74.90
513.90	84.26
514.08	44.47
514.25	77.24
514.43	46.81
514.60	32.77
514.77	0.00
514.95	32.77
515.12	30.43
515.29	72.56
515.47	145.11
515.64	2.34
515.81	21.06
515.99	74.90
516.16	11.70
516.33	23.41
516.51	70.22
516.68	56.17
516.85	35.11
517.03	0.00
517.20	4.68
517.37	28.09
517.54	95.96
517.72	0.00
517.89	25.75
518.06	65.54
518.24	28.09
518.41	53.83
518.58	28.09
518.75	91.28
518.93	0.00
519.10	65.54
519.27	77.24
519.45	46.81
519.62	0.00
519.79	81.92
519.96	60.85
520.14	14.04
520.31	0.00
520.48	35.11
520.65	91.28
520.83	0.00
521.00	42.13
521.17	58.51
521.34	117.03
521.52	11.70
521.69	32.77
521.86	77.24
522.03	58.51
522.20	37.45
522.38	14.04
522.55	67.88
522.72	60.85
522.89	63.19
523.07	14.04
523.24	42.13
523.41	124.05
523.58	14.04
523.75	46.81
523.92	102.98
524.10	0.00
524.27	65.54
524.44	72.56
524.61	0.00
524.78	0.00
524.96	154.48
525.13	65.54
525.30	4.68
525.47	67.88
525.64	58.51
525.81	7.02
525.98	16.38
526.16	2.34
526.33	91.28
526.50	117.03
526.67	0.00
526.84	21.06
527.01	37.45
527.18	18.72
527.36	25.75
527.53	63.19
527.70	30.43
527.87	107.66
528.04	46.81
528.21	4.68
528.38	56.17
528.55	67.88
528.72	86.60
528.89	86.60
529.07	53.83
529.24	14.04
529.41	32.77
529.58	0.00
529.75	119.37
529.92	0.00
530.09	56.17
530.26	0.00
530.43	60.85
530.60	0.00
530.77	0.00
530.94	0.00
531.11	35.11
531.28	67.88
531.46	25.75
531.63	60.85
531.80	53.83
531.97	53.83
532.14	84.26
532.31	112.35
532.48	81.92
532.65	0.00
532.82	98.30
532.99	58.51
533.16	63.19
533.33	25.75
533.50	0.00
533.67	0.00
533.84	25.75
534.01	35.11
534.18	32.77
534.35	86.60
534.52	0.00
534.69	70.22
534.86	81.92
535.03	91.28
535.20	67.88
535.37	16.38
535.54	65.54
535.71	7.02
535.88	95.96
536.05	95.96
536.22	60.85
536.38	74.90
536.55	0.00
536.72	37.45
536.89	112.35
537.06	84.26
537.23	14.04
537.40	39.79
537.57	88.94
537.74	21.06
537.91	35.11
538.08	77.24
538.25	25.75
538.42	0.00
538.59	51.49
538.75	44.47
538.92	0.00
539.09	11.70
539.26	65.54
539.43	42.13
539.60	163.84
539.77	304.27
539.94	189.58
540.11	117.03
540.28	110.01
540.44	37.45
540.61	63.19
540.78	37.45
540.95	30.43
541.12	42.13
541.29	77.24
541.46	88.94
541.62	21.06
541.79	60.85
541.96	49.15
542.13	60.85
542.30	21.06
542.47	37.45
542.63	32.77
542.80	81.92
542.97	44.47
543.14	0.00
543.31	16.38
543.48	93.62
543.64	42.13
543.81	23.41
543.98	21.06
544.15	42.13
544.32	63.19
544.48	37.45
544.65	49.15
544.82	0.00
544.99	147.45
545.16	74.90
545.32	28.09
545.49	14.04
545.66	58.51
545.83	84.26
546.00	42.13
546.16	11.70
546.33	4.68
546.50	0.00
546.67	56.17
546.83	0.00
547.00	23.41
547.17	67.88
547.34	14.04
547.50	0.00
547.67	18.72
547.84	46.81
548.00	58.51
548.17	105.32
548.34	72.56
548.51	23.41
548.67	79.58
548.84	105.32
549.01	60.85
549.18	28.09
549.34	63.19
549.51	98.30
549.68	32.77
549.84	86.60
550.01	30.43
550.18	37.45
550.34	28.09
550.51	18.72
550.68	23.41
550.84	79.58
551.01	18.72
551.18	4.68
551.34	119.37
551.51	119.37
551.68	70.22
551.84	0.00
552.01	79.58
552.18	39.79
552.34	0.00
552.51	77.24
552.68	35.11
552.84	23.41
553.01	0.00
553.18	93.62
553.34	2.34
553.51	2.34
553.67	0.00
553.84	72.56
554.01	0.00
554.17	88.94
554.34	65.54
554.51	107.66
554.67	46.81
554.84	58.51
555.00	74.90
555.17	4.68
555.33	42.13
555.50	0.00
555.67	4.68
555.83	0.00
556.00	84.26
556.16	53.83
556.33	9.36
556.50	4.68
556.66	18.72
556.83	63.19
556.99	30.43
557.16	46.81
557.32	79.58
557.49	25.75
557.65	49.15
557.82	81.92
557.98	16.38
558.15	0.00
558.32	63.19
558.48	70.22
558.65	63.19
558.81	56.17
558.98	39.79
559.14	39.79
559.31	67.88
559.47	105.32
559.64	0.00
559.80	37.45
559.97	42.13
560.13	93.62
560.30	79.58
560.46	124.05
560.63	63.19
560.79	32.77
560.96	0.00
561.12	60.85
561.29	9.36
561.45	23.41
561.61	39.79
561.78	100.64
561.94	42.13
562.11	7.02
562.27	0.00
562.44	42.13
562.60	21.06
562.77	18.72
562.93	63.19
563.10	98.30
563.26	86.60
563.42	60.85
563.59	49.15
563.75	60.85
563.92	21.06
564.08	32.77
564.24	9.36
564.41	51.49
564.57	0.00
564.74	16.38
564.90	63.19
565.07	37.45
565.23	0.00
565.39	0.00
565.56	37.45
565.72	37.45
565.88	0.00
566.05	35.11
566.21	65.54
566.38	65.54
566.54	49.15
566.70	86.60
566.87	21.06
567.03	16.38
567.19	30.43
567.36	16.38
567.52	32.77
567.68	65.54
567.85	23.41
568.01	74.90
568.17	16.38
568.34	2.34
568.50	112.35
568.66	18.72
568.83	51.49
568.99	58.51
569.15	0.00
569.32	46.81
569.48	70.22
569.64	0.00
569.81	65.54
569.97	7.02
570.13	86.60
570.30	0.00
570.46	72.56
570.62	0.00
570.78	53.83
570.95	46.81
571.11	53.83
571.27	86.60
571.43	72.56
571.60	37.45
571.76	11.70
571.92	58.51
572.09	14.04
572.25	4.68
572.41	60.85
572.57	93.62
572.74	70.22
572.90	30.43
573.06	46.81
573.22	51.49
573.38	39.79
573.55	112.35
573.71	114.69
573.87	53.83
574.03	88.94
574.20	44.47
574.36	21.06
574.52	0.00
574.68	28.09
574.84	51.49
575.01	11.70
575.17	35.11
575.33	51.49
575.49	60.85
575.65	100.64
575.82	0.00
575.98	21.06
576.14	70.22
576.30	102.98
576.46	93.62
576.62	23.41
576.79	30.43
576.95	49.15
577.11	35.11
577.27	58.51
577.43	0.00
577.59	100.64
577.75	32.77
577.92	0.00
578.08	70.22
578.24	67.88
578.40	14.04
578.56	81.92
578.72	30.43
578.88	18.72
579.04	81.92
579.21	21.06
579.37	53.83
579.53	65.54
579.69	37.45
579.85	18.72
580.01	81.92
580.17	25.75
580.33	37.45
580.49	9.36
580.65	100.64
580.82	63.19
580.98	21.06
581.14	21.06
581.30	4.68
581.46	35.11
581.62	117.03
581.78	131.07
581.94	81.92
582.10	72.56
582.26	98.30
582.42	53.83
582.58	63.19
582.74	86.60
582.90	2.34
583.06	102.98
583.22	14.04
583.38	51.49
583.54	39.79
583.70	135.75
583.86	74.90
584.02	98.30
584.18	65.54
584.34	140.43
584.50	372.15
584.66	2619.06
584.82	6729.04
584.98	9748.33
585.14	8835.52
585.30	5638.35
585.46	3274.41
585.62	2064.35
585.78	1041.54
585.94	442.36
586.10	163.84
586.26	121.71
586.42	63.19
586.58	138.09
586.74	112.35
586.90	46.81
587.06	133.41
587.22	53.83
587.38	81.92
587.54	194.26
587.70	482.15
587.86	641.31
588.02	737.27
588.18	589.82
588.34	374.49
588.49	217.67
588.65	135.75
588.81	23.41
588.97	107.66
589.13	70.22
589.29	4.68
589.45	53.83
589.61	42.13
589.77	112.35
589.93	42.13
590.08	51.49
590.24	110.01
590.40	25.75
590.56	65.54
590.72	53.83
590.88	25.75
591.04	23.41
591.20	25.75
591.35	28.09
591.51	77.24
591.67	0.00
591.83	32.77
591.99	70.22
592.15	35.11
592.31	77.24
592.46	63.19
592.62	28.09
592.78	65.54
592.94	70.22
593.10	18.72
593.26	65.54
593.41	44.47
593.57	7.02
593.73	67.88
593.89	362.78
594.05	887.06
594.20	1203.04
594.36	1219.42
594.52	875.36
594.68	491.51
594.84	388.53
594.99	231.71
595.15	95.96
595.31	105.32
595.47	93.62
595.62	4.68
595.78	88.94
595.94	28.09
596.10	102.98
596.25	0.00
596.41	63.19
596.57	65.54
596.73	131.07
596.88	72.56
597.04	198.95
597.20	255.12
597.36	376.83
597.51	259.80
597.67	147.45
597.83	147.45
597.99	70.22
598.14	114.69
598.30	58.51
598.46	58.51
598.61	9.36
598.77	81.92
598.93	107.66
599.09	56.17
599.24	35.11
599.40	44.47
599.56	21.06
599.71	77.24
599.87	168.52
600.03	25.75
600.18	58.51
600.34	30.43
600.50	81.92
600.65	49.15
600.81	0.00
600.97	39.79
601.12	0.00
601.28	9.36
601.44	67.88
601.59	88.94
601.75	58.51
601.91	37.45
602.06	14.04
602.22	117.03
602.37	140.43
602.53	266.82
602.69	372.15
602.84	306.61
603.00	327.68
603.16	124.05
603.31	173.20
603.47	39.79
603.62	110.01
603.78	105.32
603.94	35.11
604.09	0.00
604.25	58.51
604.40	0.00
604.56	37.45
604.71	44.47
604.87	16.38
605.03	25.75
605.18	67.88
605.34	58.51
605.49	0.00
605.65	58.51
605.80	42.13
605.96	0.00
606.12	42.13
606.27	0.00
606.43	126.39
606.58	86.60
606.74	152.13
606.89	461.09
607.05	866.00
607.20	1144.52
607.36	915.15
607.51	620.24
607.67	456.40
607.82	278.52
607.98	182.56
608.13	102.98
608.29	70.22
608.44	28.09
608.60	0.00
608.75	0.00
608.91	161.50
609.06	678.76
609.22	1355.17
609.37	1926.26
609.53	1600.93
609.68	1097.71
609.84	741.95
609.99	489.17
610.15	304.27
610.30	140.43
610.46	84.26
610.61	100.64
610.76	9.36
610.92	37.45
611.07	63.19
611.23	117.03
611.38	114.69
611.54	53.83
611.69	81.92
611.84	25.75
612.00	2.34
612.15	93.62
612.31	147.45
612.46	74.90
612.62	124.05
612.77	60.85
612.92	126.39
613.08	51.49
613.23	124.05
613.39	74.90
613.54	142.77
613.69	650.67
613.85	1680.50
614.00	2684.59
614.15	2745.45
614.31	2069.03
614.46	1371.55
614.62	896.43
614.77	592.16
614.92	285.55
615.08	156.82
615.23	100.64
615.38	46.81
615.54	35.11
615.69	138.09
615.84	393.21
616.00	554.71
616.15	779.40
616.30	744.29
616.46	489.17
616.61	250.44
616.76	159.16
616.92	72.56
617.07	56.17
617.22	60.85
617.37	18.72
617.53	7.02
617.68	0.00
617.83	53.83
617.99	30.43
618.14	23.41
618.29	79.58
618.45	102.98
618.60	91.28
618.75	35.11
618.90	14.04
619.06	42.13
619.21	28.09
619.36	37.45
619.51	16.38
619.67	37.45
619.82	4.68
619.97	28.09
620.12	14.04
620.28	21.06
620.43	63.19
620.58	65.54
620.73	79.58
620.89	65.54
621.04	95.96
621.19	182.56
621.34	428.32
621.49	418.96
621.65	397.89
621.80	339.38
621.95	152.13
622.10	166.18
622.25	145.11
622.41	77.24
622.56	74.90
622.71	77.24
622.86	39.79
623.01	11.70
623.16	32.77
623.32	7.02
623.47	44.47
623.62	65.54
623.77	32.77
623.92	72.56
624.07	0.00
624.23	39.79
624.38	7.02
624.53	74.90
624.68	67.88
624.83	58.51
624.98	2.34
625.13	42.13
625.29	42.13
625.44	65.54
625.59	18.72
625.74	0.00
625.89	77.24
626.04	299.59
626.19	795.78
626.34	1350.49
626.49	1570.50
626.65	1078.99
626.80	774.72
626.95	493.85
627.10	301.93
627.25	140.43
627.40	121.71
627.55	28.09
627.70	112.35
627.85	65.54
628.00	28.09
628.15	138.09
628.30	23.41
628.45	84.26
628.60	86.60
628.76	4.68
628.91	53.83
629.06	7.02
629.21	53.83
629.36	63.19
629.51	4.68
629.66	25.75
629.81	91.28
629.96	126.39
630.11	238.73
630.26	388.53
630.41	306.61
630.56	330.02
630.71	161.50
630.86	126.39
631.01	95.96
631.16	114.69
631.31	53.83
631.46	91.28
631.61	51.49
631.76	79.58
631.91	81.92
632.06	46.81
632.21	95.96
632.36	98.30
632.51	91.28
632.66	86.60
632.81	163.84
632.96	524.28
633.10	866.00
633.25	992.39
633.40	898.77
633.55	678.76
633.70	449.38
633.85	234.05
634.00	191.92
634.15	142.77
634.30	30.43
634.45	44.47
634.60	37.45
634.75	56.17
634.90	65.54
635.05	30.43
635.19	2.34
635.34	0.00
635.49	79.58
635.64	21.06
635.79	46.81
635.94	0.00
636.09	72.56
636.24	30.43
636.39	0.00
636.53	128.73
636.68	39.79
636.83	0.00
636.98	0.00
637.13	7.02
637.28	25.75
637.43	18.72
637.57	105.32
637.72	423.64
637.87	1121.12
638.02	1820.94
638.17	1947.33
638.32	1397.30
638.46	1055.58
638.61	695.14
638.76	486.83
638.91	205.97
639.06	133.41
639.20	175.54
639.35	102.98
639.50	93.62
639.65	610.88
639.80	1715.61
639.94	2656.51
640.09	3129.30
640.24	2263.30
640.39	1631.35
640.54	1076.65
640.68	645.99
640.83	348.74
640.98	147.45
641.13	46.81
641.27	16.38
641.42	126.39
641.57	86.60
641.72	46.81
641.86	11.70
642.01	7.02
642.16	32.77
642.31	60.85
642.45	102.98
642.60	72.56
642.75	53.83
642.90	16.38
643.04	42.13
643.19	14.04
643.34	0.00
643.48	60.85
643.63	46.81
643.78	30.43
643.93	16.38
644.07	79.58
644.22	117.03
644.37	86.60
644.51	100.64
644.66	0.00
644.81	39.79
644.95	23.41
645.10	53.83
645.25	0.00
645.39	102.98
645.54	0.00
645.69	70.22
645.83	67.88
645.98	2.34
646.13	18.72
646.27	65.54
646.42	30.43
646.57	91.28
646.71	25.75
646.86	53.83
647.00	74.90
647.15	67.88
647.30	77.24
647.44	18.72
647.59	0.00
647.74	18.72
647.88	67.88
648.03	46.81
648.17	23.41
648.32	39.79
648.47	39.79
648.61	65.54
648.76	91.28
648.90	0.00
649.05	93.62
649.20	37.45
649.34	72.56
649.49	95.96
649.63	32.77
649.78	95.96
649.92	37.45
650.07	266.82
650.21	840.25
650.36	1268.57
650.51	1535.39
650.65	1235.80
650.80	858.98
650.94	702.16
651.09	320.65
651.23	212.99
651.38	98.30
651.52	86.60
651.67	42.13
651.81	35.11
651.96	35.11
652.10	25.75
652.25	42.13
652.39	2.34
652.54	65.54
652.68	168.52
652.83	269.16
652.97	355.76
653.12	606.20
653.26	533.64
653.41	362.78
653.55	220.01
653.70	175.54
653.84	30.43
653.99	74.90
654.13	0.00
654.27	58.51
654.42	95.96
654.56	0.00
654.71	0.00
654.85	70.22
655.00	107.66
655.14	91.28
655.29	32.77
655.43	46.81
655.57	0.00
655.72	16.38
655.86	4.68
656.01	37.45
656.15	14.04
656.30	46.81
656.44	14.04
656.58	56.17
656.73	23.41
656.87	25.75
657.01	23.41
657.16	0.00
657.30	11.70
657.45	46.81
657.59	56.17
657.73	53.83
657.88	72.56
658.02	0.00
658.16	9.36
658.31	51.49
658.45	21.06
658.60	0.00
658.74	0.00
658.88	30.43
659.03	7.02
659.17	42.13
659.31	161.50
659.46	388.53
659.60	653.01
659.74	795.78
659.89	784.08
660.03	479.81
660.17	313.63
660.32	236.39
660.46	166.18
660.60	156.82
660.74	81.92
660.89	30.43
661.03	74.90
661.17	56.17
661.32	11.70
661.46	21.06
661.60	46.81
661.74	0.00
661.89	46.81
662.03	53.83
662.17	63.19
662.31	37.45
662.46	0.00
662.60	0.00
662.74	0.00
662.88	51.49
663.03	42.13
663.17	4.68
663.31	81.92
663.45	142.77
663.60	46.81
663.74	100.64
663.88	4.68
664.02	0.00
664.17	63.19
664.31	72.56
664.45	28.09
664.59	58.51
664.73	95.96
664.88	21.06
665.02	11.70
665.16	0.00
665.30	105.32
665.44	14.04
665.59	67.88
665.73	49.15
665.87	65.54
666.01	25.75
666.15	21.06
666.29	0.00
666.44	0.00
666.58	58.51
666.72	0.00
666.86	98.30
667.00	28.09
667.14	0.00
667.28	238.73
667.43	641.31
667.57	1048.56
667.71	1355.17
667.85	1196.01
667.99	861.32
668.13	620.24
668.27	341.72
668.41	131.07
668.56	126.39
668.70	42.13
668.84	11.70
668.98	88.94
669.12	23.41
669.26	84.26
669.40	44.47
669.54	0.00
669.68	0.00
669.82	49.15
669.96	46.81
670.10	7.02
670.25	114.69
670.39	0.00
670.53	23.41
670.67	0.00
670.81	25.75
670.95	112.35
671.09	70.22
671.23	290.23
671.37	489.17
671.51	814.51
671.65	851.96
671.79	685.78
671.93	437.68
672.07	292.57
672.21	187.24
672.35	196.60
672.49	126.39
672.63	79.58
672.77	11.70
672.91	67.88
673.05	0.00
673.19	0.00
673.33	23.41
673.47	51.49
673.61	44.47
673.75	110.01
673.89	0.00
674.03	42.13
674.17	42.13
674.31	58.51
674.45	0.00
674.59	30.43
674.73	0.00
674.87	21.06
675.01	46.81
675.15	44.47
675.29	95.96
675.43	100.64
675.56	72.56
675.70	14.04
675.84	91.28
675.98	72.56
676.12	32.77
676.26	74.90
676.40	51.49
676.54	30.43
676.68	88.94
676.82	0.00
676.96	7.02
677.10	63.19
677.23	21.06
677.37	58.51
677.51	53.83
677.65	28.09
677.79	72.56
677.93	42.13
678.07	21.06
678.21	32.77
678.34	56.17
678.48	23.41
678.62	74.90
678.76	21.06
678.90	0.00
679.04	0.00
679.18	0.00
679.31	23.41
679.45	18.72
679.59	30.43
679.73	58.51
679.87	98.30
680.00	46.81
680.14	0.00
680.28	28.09
680.42	56.17
680.56	81.92
680.70	23.41
680.83	23.41
680.97	42.13
681.11	0.00
681.25	53.83
681.39	32.77
681.52	42.13
681.66	44.47
681.80	56.17
681.94	56.17
682.07	7.02
682.21	0.00
682.35	42.13
682.49	11.70
682.62	42.13
682.76	21.06
682.90	63.19
683.04	65.54
683.17	11.70
683.31	39.79
683.45	28.09
683.59	119.37
683.72	49.15
683.86	79.58
684.00	88.94
684.13	63.19
684.27	53.83
684.41	79.58
684.55	30.43
684.68	0.00
684.82	0.00
684.96	0.00
685.09	0.00
685.23	18.72
685.37	37.45
685.50	88.94
685.64	23.41
685.78	30.43
685.91	11.70
686.05	65.54
686.19	21.06
686.32	42.13
686.46	37.45
686.60	51.49
686.73	39.79
686.87	0.00
687.01	25.75
687.14	0.00
687.28	53.83
687.42	42.13
687.55	23.41
687.69	0.00
687.82	23.41
687.96	9.36
688.10	0.00
688.23	0.00
688.37	39.79
688.50	72.56
688.64	65.54
688.78	32.77
688.91	16.38
689.05	53.83
689.18	0.00
689.32	0.00
689.46	65.54
689.59	100.64
689.73	9.36
689.86	35.11
690.00	0.00
690.13	32.77
690.27	30.43
690.41	133.41
690.54	30.43
690.68	56.17
690.81	51.49
690.95	0.00
691.08	7.02
691.22	51.49
691.35	18.72
691.49	74.90
691.62	126.39
691.76	63.19
691.89	44.47
692.03	28.09
692.16	0.00
692.30	56.17
692.43	23.41
692.57	264.48
692.70	433.00
692.84	601.52
692.97	564.07
693.11	390.87
693.24	390.87
693.38	201.29
693.51	156.82
693.65	91.28
693.78	114.69
693.92	110.01
694.05	21.06
694.19	46.81
694.32	0.00
694.45	86.60
694.59	23.41
694.72	0.00
694.86	0.00
694.99	77.24
695.13	63.19
695.26	28.09
695.39	16.38
695.53	60.85
695.66	4.68
695.80	7.02
695.93	0.00
696.07	0.00
696.20	42.13
696.33	81.92
696.47	70.22
696.60	65.54
696.73	65.54
696.87	98.30
697.00	23.41
697.14	21.06
697.27	14.04
697.40	42.13
697.54	39.79
697.67	7.02
697.80	0.00
697.94	0.00
698.07	39.79
698.21	0.00
698.34	88.94
698.47	14.04
698.61	65.54
698.74	0.00
698.87	16.38
699.01	0.00
699.14	11.70
699.27	49.15
699.40	2.34
699.54	28.09
699.67	32.77
699.80	0.00
699.94	0.00
700.07	18.72
700.20	0.00
700.34	0.00
700.47	63.19
700.60	0.00
700.73	35.11
700.87	0.00
701.00	25.75
701.13	25.75
701.26	4.68
701.40	7.02
701.53	2.34
701.66	72.56
701.79	84.26
701.93	60.85
702.06	60.85
702.19	67.88
702.32	100.64
702.46	102.98
702.59	60.85
702.72	110.01
702.85	325.33
702.99	777.06
703.12	1146.86
703.25	1217.08
703.38	1041.54
703.51	828.55
703.65	657.69
703.78	498.53
703.91	301.93
704.04	159.16
704.17	117.03
704.31	138.09
704.44	51.49
704.57	32.77
704.70	117.03
704.83	46.81
704.96	2.34
705.10	46.81
705.23	0.00
>>>>>End Processed Spectral Data<<<<<
