SpectraSuite Data File
++++++++++++++++++++++++++++++++++++
Date: Fri Oct 04 12:13:28 GMT-05:00 2013
User: price-jones
Dark Spectrum Present: No
Reference Spectrum Present: No
Number of Sampled Component Spectra: 1
Spectrometers: USB2+H05261
Integration Time (usec): 10000 (USB2+H05261)
Spectra Averaged: 1 (USB2+H05261)
Boxcar Smoothing: 0 (USB2+H05261)
Correct for Electrical Dark: No (USB2+H05261)
Strobe/Lamp Enabled: No (USB2+H05261)
Correct for Detector Non-linearity: No (USB2+H05261)
Correct for Stray Light: No (USB2+H05261)
Number of Pixels in Processed Spectrum: 2048
>>>>>Begin Processed Spectral Data<<<<<
365.73	4.68
365.92	4.68
366.12	4.68
366.32	0.00
366.52	0.00
366.72	0.00
366.91	0.00
367.11	0.00
367.31	0.00
367.51	0.00
367.70	0.00
367.90	0.00
368.10	0.00
368.30	0.00
368.49	0.00
368.69	0.00
368.89	0.00
369.09	0.00
369.28	0.00
369.48	0.00
369.68	0.00
369.87	0.00
370.07	0.00
370.27	0.00
370.47	0.00
370.66	0.00
370.86	0.00
371.06	0.00
371.25	0.00
371.45	0.00
371.65	0.00
371.84	0.00
372.04	0.00
372.24	0.00
372.44	25.75
372.63	44.47
372.83	0.00
373.03	0.00
373.22	0.00
373.42	2.34
373.62	44.47
373.81	0.00
374.01	25.75
374.21	39.79
374.40	91.28
374.60	9.36
374.79	9.36
374.99	44.47
375.19	11.70
375.38	0.00
375.58	128.73
375.78	21.06
375.97	35.11
376.17	77.24
376.37	98.30
376.56	44.47
376.76	32.77
376.95	0.00
377.15	0.00
377.35	0.00
377.54	35.11
377.74	0.00
377.93	0.00
378.13	7.02
378.33	42.13
378.52	49.15
378.72	0.00
378.91	37.45
379.11	9.36
379.31	0.00
379.50	70.22
379.70	21.06
379.89	51.49
380.09	44.47
380.28	32.77
380.48	2.34
380.68	37.45
380.87	0.00
381.07	0.00
381.26	7.02
381.46	0.00
381.65	11.70
381.85	25.75
382.04	0.00
382.24	28.09
382.43	46.81
382.63	0.00
382.83	0.00
383.02	0.00
383.22	0.00
383.41	0.00
383.61	37.45
383.80	0.00
384.00	14.04
384.19	0.00
384.39	0.00
384.58	0.00
384.78	35.11
384.97	0.00
385.17	67.88
385.36	0.00
385.56	0.00
385.75	0.00
385.95	0.00
386.14	58.51
386.34	0.00
386.53	7.02
386.72	0.00
386.92	9.36
387.11	0.00
387.31	42.13
387.50	25.75
387.70	86.60
387.89	21.06
388.09	28.09
388.28	7.02
388.48	9.36
388.67	14.04
388.86	65.54
389.06	0.00
389.25	23.41
389.45	11.70
389.64	51.49
389.84	53.83
390.03	0.00
390.22	79.58
390.42	77.24
390.61	18.72
390.81	0.00
391.00	37.45
391.19	2.34
391.39	60.85
391.58	14.04
391.78	0.00
391.97	21.06
392.16	21.06
392.36	0.00
392.55	42.13
392.75	16.38
392.94	14.04
393.13	77.24
393.33	0.00
393.52	53.83
393.71	2.34
393.91	9.36
394.10	0.00
394.29	0.00
394.49	0.00
394.68	35.11
394.88	44.47
395.07	0.00
395.26	4.68
395.46	35.11
395.65	0.00
395.84	0.00
396.04	84.26
396.23	91.28
396.42	60.85
396.62	42.13
396.81	11.70
397.00	60.85
397.19	18.72
397.39	0.00
397.58	0.00
397.77	0.00
397.97	0.00
398.16	0.00
398.35	23.41
398.55	2.34
398.74	70.22
398.93	2.34
399.12	74.90
399.32	67.88
399.51	44.47
399.70	11.70
399.90	65.54
400.09	0.00
400.28	11.70
400.47	56.17
400.67	67.88
400.86	0.00
401.05	9.36
401.24	42.13
401.44	0.00
401.63	23.41
401.82	2.34
402.01	0.00
402.21	2.34
402.40	0.00
402.59	37.45
402.78	39.79
402.97	58.51
403.17	63.19
403.36	49.15
403.55	0.00
403.74	7.02
403.93	84.26
404.13	49.15
404.32	16.38
404.51	53.83
404.70	0.00
404.89	0.00
405.09	0.00
405.28	0.00
405.47	9.36
405.66	60.85
405.85	0.00
406.05	18.72
406.24	35.11
406.43	0.00
406.62	42.13
406.81	0.00
407.00	23.41
407.20	0.00
407.39	25.75
407.58	32.77
407.77	0.00
407.96	44.47
408.15	60.85
408.34	84.26
408.54	0.00
408.73	37.45
408.92	32.77
409.11	70.22
409.30	60.85
409.49	28.09
409.68	58.51
409.87	0.00
410.07	46.81
410.26	9.36
410.45	0.00
410.64	16.38
410.83	0.00
411.02	23.41
411.21	18.72
411.40	0.00
411.59	23.41
411.78	67.88
411.98	9.36
412.17	9.36
412.36	21.06
412.55	88.94
412.74	0.00
412.93	11.70
413.12	7.02
413.31	46.81
413.50	72.56
413.69	72.56
413.88	37.45
414.07	44.47
414.26	18.72
414.45	32.77
414.64	74.90
414.83	88.94
415.02	0.00
415.22	42.13
415.41	0.00
415.60	0.00
415.79	58.51
415.98	25.75
416.17	42.13
416.36	49.15
416.55	60.85
416.74	0.00
416.93	72.56
417.12	49.15
417.31	49.15
417.50	35.11
417.69	84.26
417.88	53.83
418.07	39.79
418.26	79.58
418.45	4.68
418.64	63.19
418.83	74.90
419.02	37.45
419.21	77.24
419.39	42.13
419.58	23.41
419.77	21.06
419.96	0.00
420.15	0.00
420.34	32.77
420.53	53.83
420.72	72.56
420.91	0.00
421.10	21.06
421.29	4.68
421.48	0.00
421.67	21.06
421.86	4.68
422.05	25.75
422.24	58.51
422.43	0.00
422.61	44.47
422.80	0.00
422.99	39.79
423.18	0.00
423.37	7.02
423.56	42.13
423.75	0.00
423.94	23.41
424.13	49.15
424.32	58.51
424.50	140.43
424.69	39.79
424.88	0.00
425.07	0.00
425.26	25.75
425.45	39.79
425.64	16.38
425.83	79.58
426.01	23.41
426.20	74.90
426.39	0.00
426.58	37.45
426.77	28.09
426.96	39.79
427.15	39.79
427.33	72.56
427.52	56.17
427.71	37.45
427.90	39.79
428.09	35.11
428.28	25.75
428.46	7.02
428.65	67.88
428.84	35.11
429.03	42.13
429.22	32.77
429.40	56.17
429.59	72.56
429.78	0.00
429.97	0.00
430.16	0.00
430.34	74.90
430.53	32.77
430.72	28.09
430.91	0.00
431.10	37.45
431.28	70.22
431.47	0.00
431.66	28.09
431.85	65.54
432.03	0.00
432.22	0.00
432.41	14.04
432.60	9.36
432.79	74.90
432.97	0.00
433.16	114.69
433.35	39.79
433.54	58.51
433.72	25.75
433.91	0.00
434.10	58.51
434.28	4.68
434.47	11.70
434.66	70.22
434.85	98.30
435.03	67.88
435.22	56.17
435.41	14.04
435.59	32.77
435.78	37.45
435.97	0.00
436.16	0.00
436.34	91.28
436.53	32.77
436.72	51.49
436.90	63.19
437.09	72.56
437.28	44.47
437.46	93.62
437.65	9.36
437.84	105.32
438.02	0.00
438.21	44.47
438.40	0.00
438.58	0.00
438.77	2.34
438.96	93.62
439.14	58.51
439.33	74.90
439.52	32.77
439.70	7.02
439.89	49.15
440.08	93.62
440.26	0.00
440.45	63.19
440.63	16.38
440.82	0.00
441.01	58.51
441.19	53.83
441.38	4.68
441.57	0.00
441.75	0.00
441.94	37.45
442.12	25.75
442.31	0.00
442.50	0.00
442.68	37.45
442.87	4.68
443.05	0.00
443.24	0.00
443.43	4.68
443.61	42.13
443.80	0.00
443.98	30.43
444.17	14.04
444.35	77.24
444.54	72.56
444.73	0.00
444.91	7.02
445.10	37.45
445.28	95.96
445.47	0.00
445.65	16.38
445.84	7.02
446.02	35.11
446.21	0.00
446.39	21.06
446.58	0.00
446.77	51.49
446.95	100.64
447.14	44.47
447.32	32.77
447.51	35.11
447.69	0.00
447.88	4.68
448.06	28.09
448.25	32.77
448.43	70.22
448.62	63.19
448.80	35.11
448.99	65.54
449.17	121.71
449.36	18.72
449.54	14.04
449.73	0.00
449.91	0.00
450.10	58.51
450.28	25.75
450.46	58.51
450.65	0.00
450.83	23.41
451.02	18.72
451.20	39.79
451.39	79.58
451.57	0.00
451.76	30.43
451.94	0.00
452.13	105.32
452.31	14.04
452.49	0.00
452.68	21.06
452.86	58.51
453.05	30.43
453.23	44.47
453.42	4.68
453.60	56.17
453.78	74.90
453.97	2.34
454.15	21.06
454.34	95.96
454.52	0.00
454.70	0.00
454.89	0.00
455.07	0.00
455.26	2.34
455.44	77.24
455.62	81.92
455.81	21.06
455.99	65.54
456.17	67.88
456.36	53.83
456.54	18.72
456.73	84.26
456.91	72.56
457.09	84.26
457.28	32.77
457.46	42.13
457.64	2.34
457.83	117.03
458.01	53.83
458.19	53.83
458.38	0.00
458.56	98.30
458.74	0.00
458.93	0.00
459.11	0.00
459.29	14.04
459.48	37.45
459.66	0.00
459.84	21.06
460.03	9.36
460.21	49.15
460.39	28.09
460.57	79.58
460.76	79.58
460.94	25.75
461.12	81.92
461.31	9.36
461.49	18.72
461.67	70.22
461.85	0.00
462.04	4.68
462.22	91.28
462.40	2.34
462.59	63.19
462.77	65.54
462.95	42.13
463.13	0.00
463.32	56.17
463.50	42.13
463.68	46.81
463.86	72.56
464.05	0.00
464.23	39.79
464.41	86.60
464.59	0.00
464.78	0.00
464.96	51.49
465.14	21.06
465.32	2.34
465.50	98.30
465.69	32.77
465.87	53.83
466.05	32.77
466.23	23.41
466.41	42.13
466.60	44.47
466.78	124.05
466.96	44.47
467.14	23.41
467.32	25.75
467.51	39.79
467.69	60.85
467.87	49.15
468.05	14.04
468.23	100.64
468.41	25.75
468.60	37.45
468.78	0.00
468.96	0.00
469.14	42.13
469.32	23.41
469.50	28.09
469.69	51.49
469.87	37.45
470.05	63.19
470.23	11.70
470.41	0.00
470.59	70.22
470.77	42.13
470.95	58.51
471.14	16.38
471.32	49.15
471.50	0.00
471.68	0.00
471.86	53.83
472.04	53.83
472.22	2.34
472.40	30.43
472.58	14.04
472.77	110.01
472.95	56.17
473.13	14.04
473.31	58.51
473.49	0.00
473.67	42.13
473.85	21.06
474.03	51.49
474.21	63.19
474.39	56.17
474.57	51.49
474.75	79.58
474.93	46.81
475.12	63.19
475.30	9.36
475.48	0.00
475.66	18.72
475.84	25.75
476.02	53.83
476.20	0.00
476.38	42.13
476.56	4.68
476.74	23.41
476.92	46.81
477.10	65.54
477.28	42.13
477.46	65.54
477.64	86.60
477.82	4.68
478.00	56.17
478.18	142.77
478.36	53.83
478.54	14.04
478.72	56.17
478.90	0.00
479.08	32.77
479.26	56.17
479.44	53.83
479.62	67.88
479.80	0.00
479.98	37.45
480.16	37.45
480.34	53.83
480.52	49.15
480.70	7.02
480.88	4.68
481.06	0.00
481.24	35.11
481.41	0.00
481.59	44.47
481.77	0.00
481.95	7.02
482.13	11.70
482.31	0.00
482.49	0.00
482.67	0.00
482.85	44.47
483.03	0.00
483.21	88.94
483.39	56.17
483.57	74.90
483.74	32.77
483.92	0.00
484.10	23.41
484.28	39.79
484.46	126.39
484.64	79.58
484.82	72.56
485.00	28.09
485.18	58.51
485.35	16.38
485.53	49.15
485.71	39.79
485.89	63.19
486.07	51.49
486.25	39.79
486.43	11.70
486.61	88.94
486.78	58.51
486.96	23.41
487.14	2.34
487.32	39.79
487.50	95.96
487.68	74.90
487.85	4.68
488.03	67.88
488.21	16.38
488.39	81.92
488.57	37.45
488.75	18.72
488.92	74.90
489.10	32.77
489.28	25.75
489.46	23.41
489.64	65.54
489.81	23.41
489.99	86.60
490.17	58.51
490.35	0.00
490.53	65.54
490.70	37.45
490.88	30.43
491.06	35.11
491.24	91.28
491.41	28.09
491.59	77.24
491.77	4.68
491.95	0.00
492.13	30.43
492.30	0.00
492.48	0.00
492.66	72.56
492.84	0.00
493.01	16.38
493.19	14.04
493.37	65.54
493.54	2.34
493.72	65.54
493.90	63.19
494.08	21.06
494.25	23.41
494.43	128.73
494.61	0.00
494.79	53.83
494.96	44.47
495.14	56.17
495.32	14.04
495.49	28.09
495.67	84.26
495.85	0.00
496.02	32.77
496.20	51.49
496.38	63.19
496.55	88.94
496.73	23.41
496.91	53.83
497.09	65.54
497.26	2.34
497.44	25.75
497.62	0.00
497.79	60.85
497.97	2.34
498.14	11.70
498.32	53.83
498.50	11.70
498.67	37.45
498.85	79.58
499.03	16.38
499.20	110.01
499.38	84.26
499.56	7.02
499.73	81.92
499.91	0.00
500.08	28.09
500.26	37.45
500.44	0.00
500.61	4.68
500.79	42.13
500.97	9.36
501.14	60.85
501.32	72.56
501.49	0.00
501.67	67.88
501.84	72.56
502.02	79.58
502.20	0.00
502.37	37.45
502.55	0.00
502.72	74.90
502.90	11.70
503.07	23.41
503.25	14.04
503.43	39.79
503.60	100.64
503.78	102.98
503.95	51.49
504.13	67.88
504.30	2.34
504.48	84.26
504.65	56.17
504.83	51.49
505.01	0.00
505.18	51.49
505.36	4.68
505.53	35.11
505.71	93.62
505.88	65.54
506.06	74.90
506.23	23.41
506.41	4.68
506.58	88.94
506.76	32.77
506.93	58.51
507.11	37.45
507.28	37.45
507.46	44.47
507.63	37.45
507.81	0.00
507.98	44.47
508.16	7.02
508.33	70.22
508.50	0.00
508.68	42.13
508.85	0.00
509.03	0.00
509.20	0.00
509.38	30.43
509.55	42.13
509.73	18.72
509.90	53.83
510.08	65.54
510.25	67.88
510.42	23.41
510.60	11.70
510.77	4.68
510.95	9.36
511.12	93.62
511.30	98.30
511.47	30.43
511.64	16.38
511.82	44.47
511.99	32.77
512.17	67.88
512.34	88.94
512.51	39.79
512.69	21.06
512.86	0.00
513.04	114.69
513.21	46.81
513.38	51.49
513.56	56.17
513.73	51.49
513.90	53.83
514.08	28.09
514.25	9.36
514.43	63.19
514.60	110.01
514.77	18.72
514.95	91.28
515.12	37.45
515.29	16.38
515.47	46.81
515.64	11.70
515.81	30.43
515.99	9.36
516.16	46.81
516.33	2.34
516.51	65.54
516.68	0.00
516.85	46.81
517.03	18.72
517.20	58.51
517.37	42.13
517.54	0.00
517.72	16.38
517.89	53.83
518.06	42.13
518.24	0.00
518.41	88.94
518.58	79.58
518.75	23.41
518.93	0.00
519.10	18.72
519.27	0.00
519.45	51.49
519.62	100.64
519.79	25.75
519.96	28.09
520.14	16.38
520.31	44.47
520.48	81.92
520.65	60.85
520.83	21.06
521.00	21.06
521.17	0.00
521.34	42.13
521.52	0.00
521.69	93.62
521.86	51.49
522.03	84.26
522.20	91.28
522.38	46.81
522.55	7.02
522.72	74.90
522.89	98.30
523.07	0.00
523.24	30.43
523.41	35.11
523.58	63.19
523.75	35.11
523.92	81.92
524.10	0.00
524.27	77.24
524.44	53.83
524.61	74.90
524.78	0.00
524.96	93.62
525.13	70.22
525.30	65.54
525.47	46.81
525.64	30.43
525.81	37.45
525.98	0.00
526.16	9.36
526.33	35.11
526.50	0.00
526.67	65.54
526.84	30.43
527.01	9.36
527.18	0.00
527.36	0.00
527.53	0.00
527.70	65.54
527.87	63.19
528.04	63.19
528.21	46.81
528.38	60.85
528.55	44.47
528.72	0.00
528.89	0.00
529.07	121.71
529.24	0.00
529.41	11.70
529.58	7.02
529.75	56.17
529.92	112.35
530.09	23.41
530.26	70.22
530.43	42.13
530.60	39.79
530.77	105.32
530.94	11.70
531.11	14.04
531.28	21.06
531.46	42.13
531.63	16.38
531.80	21.06
531.97	0.00
532.14	84.26
532.31	37.45
532.48	30.43
532.65	9.36
532.82	133.41
532.99	93.62
533.16	70.22
533.33	51.49
533.50	37.45
533.67	72.56
533.84	107.66
534.01	44.47
534.18	51.49
534.35	100.64
534.52	32.77
534.69	0.00
534.86	30.43
535.03	65.54
535.20	23.41
535.37	42.13
535.54	95.96
535.71	18.72
535.88	44.47
536.05	70.22
536.22	39.79
536.38	0.00
536.55	81.92
536.72	30.43
536.89	49.15
537.06	16.38
537.23	79.58
537.40	42.13
537.57	95.96
537.74	23.41
537.91	53.83
538.08	25.75
538.25	60.85
538.42	30.43
538.59	23.41
538.75	25.75
538.92	65.54
539.09	28.09
539.26	67.88
539.43	74.90
539.60	156.82
539.77	360.44
539.94	334.70
540.11	264.48
540.28	145.11
540.44	67.88
540.61	28.09
540.78	23.41
540.95	44.47
541.12	0.00
541.29	0.00
541.46	18.72
541.62	58.51
541.79	32.77
541.96	37.45
542.13	77.24
542.30	88.94
542.47	49.15
542.63	65.54
542.80	117.03
542.97	63.19
543.14	25.75
543.31	70.22
543.48	4.68
543.64	56.17
543.81	65.54
543.98	23.41
544.15	0.00
544.32	49.15
544.48	21.06
544.65	0.00
544.82	32.77
544.99	35.11
545.16	30.43
545.32	93.62
545.49	0.00
545.66	91.28
545.83	46.81
546.00	37.45
546.16	53.83
546.33	30.43
546.50	98.30
546.67	25.75
546.83	77.24
547.00	37.45
547.17	102.98
547.34	95.96
547.50	86.60
547.67	107.66
547.84	65.54
548.00	16.38
548.17	63.19
548.34	7.02
548.51	30.43
548.67	25.75
548.84	49.15
549.01	0.00
549.18	77.24
549.34	4.68
549.51	0.00
549.68	72.56
549.84	16.38
550.01	7.02
550.18	0.00
550.34	0.00
550.51	51.49
550.68	7.02
550.84	9.36
551.01	42.13
551.18	39.79
551.34	30.43
551.51	42.13
551.68	117.03
551.84	21.06
552.01	0.00
552.18	0.00
552.34	39.79
552.51	16.38
552.68	25.75
552.84	0.00
553.01	7.02
553.18	81.92
553.34	0.00
553.51	53.83
553.67	39.79
553.84	23.41
554.01	63.19
554.17	70.22
554.34	39.79
554.51	110.01
554.67	0.00
554.84	93.62
555.00	53.83
555.17	30.43
555.33	0.00
555.50	23.41
555.67	44.47
555.83	72.56
556.00	91.28
556.16	0.00
556.33	28.09
556.50	86.60
556.66	79.58
556.83	100.64
556.99	60.85
557.16	16.38
557.32	65.54
557.49	67.88
557.65	88.94
557.82	49.15
557.98	53.83
558.15	16.38
558.32	93.62
558.48	77.24
558.65	28.09
558.81	14.04
558.98	9.36
559.14	4.68
559.31	60.85
559.47	84.26
559.64	42.13
559.80	35.11
559.97	65.54
560.13	39.79
560.30	91.28
560.46	95.96
560.63	18.72
560.79	126.39
560.96	16.38
561.12	4.68
561.29	58.51
561.45	63.19
561.61	63.19
561.78	18.72
561.94	42.13
562.11	53.83
562.27	60.85
562.44	28.09
562.60	74.90
562.77	37.45
562.93	21.06
563.10	56.17
563.26	28.09
563.42	18.72
563.59	67.88
563.75	32.77
563.92	49.15
564.08	37.45
564.24	37.45
564.41	21.06
564.57	28.09
564.74	25.75
564.90	23.41
565.07	14.04
565.23	44.47
565.39	37.45
565.56	28.09
565.72	77.24
565.88	67.88
566.05	2.34
566.21	46.81
566.38	93.62
566.54	98.30
566.70	0.00
566.87	65.54
567.03	39.79
567.19	100.64
567.36	4.68
567.52	0.00
567.68	9.36
567.85	25.75
568.01	25.75
568.17	140.43
568.34	58.51
568.50	100.64
568.66	70.22
568.83	44.47
568.99	32.77
569.15	0.00
569.32	21.06
569.48	0.00
569.64	14.04
569.81	32.77
569.97	14.04
570.13	21.06
570.30	28.09
570.46	35.11
570.62	16.38
570.78	0.00
570.95	46.81
571.11	119.37
571.27	0.00
571.43	84.26
571.60	28.09
571.76	21.06
571.92	0.00
572.09	70.22
572.25	135.75
572.41	84.26
572.57	46.81
572.74	65.54
572.90	100.64
573.06	46.81
573.22	0.00
573.38	11.70
573.55	0.00
573.71	32.77
573.87	0.00
574.03	58.51
574.20	21.06
574.36	28.09
574.52	25.75
574.68	25.75
574.84	88.94
575.01	49.15
575.17	35.11
575.33	0.00
575.49	88.94
575.65	86.60
575.82	117.03
575.98	149.79
576.14	124.05
576.30	46.81
576.46	107.66
576.62	74.90
576.79	42.13
576.95	39.79
577.11	91.28
577.27	44.47
577.43	154.48
577.59	0.00
577.75	14.04
577.92	63.19
578.08	46.81
578.24	23.41
578.40	63.19
578.56	102.98
578.72	86.60
578.88	65.54
579.04	102.98
579.21	77.24
579.37	72.56
579.53	53.83
579.69	112.35
579.85	105.32
580.01	67.88
580.17	49.15
580.33	88.94
580.49	93.62
580.65	35.11
580.82	60.85
580.98	105.32
581.14	100.64
581.30	53.83
581.46	98.30
581.62	184.90
581.78	112.35
581.94	105.32
582.10	117.03
582.26	72.56
582.42	18.72
582.58	49.15
582.74	58.51
582.90	42.13
583.06	112.35
583.22	58.51
583.38	100.64
583.54	37.45
583.70	135.75
583.86	35.11
584.02	163.84
584.18	205.97
584.34	217.67
584.50	650.67
584.66	4329.99
584.82	11412.45
584.98	17153.79
585.14	15527.11
585.30	9479.17
585.46	5465.15
585.62	3482.72
585.78	1701.57
585.94	699.82
586.10	238.73
586.26	208.31
586.42	126.39
586.58	152.13
586.74	93.62
586.90	133.41
587.06	58.51
587.22	126.39
587.38	140.43
587.54	259.80
587.70	674.07
587.86	1086.01
588.02	1329.42
588.18	847.27
588.34	601.52
588.49	351.08
588.65	248.10
588.81	74.90
588.97	60.85
589.13	42.13
589.29	21.06
589.45	58.51
589.61	98.30
589.77	53.83
589.93	70.22
590.08	93.62
590.24	100.64
590.40	56.17
590.56	39.79
590.72	88.94
590.88	42.13
591.04	72.56
591.20	46.81
591.35	60.85
591.51	93.62
591.67	70.22
591.83	51.49
591.99	86.60
592.15	70.22
592.31	46.81
592.46	16.38
592.62	35.11
592.78	0.00
592.94	65.54
593.10	107.66
593.26	110.01
593.41	147.45
593.57	117.03
593.73	84.26
593.89	636.63
594.05	1383.26
594.20	2118.18
594.36	2026.90
594.52	1252.19
594.68	842.59
594.84	601.52
594.99	320.65
595.15	135.75
595.31	126.39
595.47	51.49
595.62	95.96
595.78	81.92
595.94	84.26
596.10	35.11
596.25	84.26
596.41	84.26
596.57	74.90
596.73	98.30
596.88	105.32
597.04	313.63
597.20	535.98
597.36	580.45
597.51	388.53
597.67	238.73
597.83	110.01
597.99	149.79
598.14	46.81
598.30	107.66
598.46	37.45
598.61	105.32
598.77	65.54
598.93	28.09
599.09	35.11
599.24	105.32
599.40	11.70
599.56	56.17
599.71	0.00
599.87	67.88
600.03	74.90
600.18	11.70
600.34	35.11
600.50	86.60
600.65	37.45
600.81	32.77
600.97	72.56
601.12	28.09
601.28	32.77
601.44	93.62
601.59	11.70
601.75	32.77
601.91	11.70
602.06	21.06
602.22	72.56
602.37	124.05
602.53	313.63
602.69	547.69
602.84	603.86
603.00	346.40
603.16	285.55
603.31	236.39
603.47	124.05
603.62	138.09
603.78	67.88
603.94	7.02
604.09	0.00
604.25	72.56
604.40	0.00
604.56	91.28
604.71	131.07
604.87	0.00
605.03	53.83
605.18	32.77
605.34	100.64
605.49	46.81
605.65	65.54
605.80	30.43
605.96	110.01
606.12	32.77
606.27	81.92
606.43	39.79
606.58	42.13
606.74	227.03
606.89	653.01
607.05	1418.36
607.20	1886.47
607.36	1600.93
607.51	1015.79
607.67	706.84
607.82	425.98
607.98	220.01
608.13	133.41
608.29	74.90
608.44	42.13
608.60	105.32
608.75	117.03
608.91	196.60
609.06	1067.28
609.22	2328.83
609.37	3171.43
609.53	2726.72
609.68	1736.68
609.84	1128.14
609.99	748.97
610.15	498.53
610.30	177.88
610.46	138.09
610.61	133.41
610.76	63.19
610.92	44.47
611.07	70.22
611.23	65.54
611.38	37.45
611.54	56.17
611.69	51.49
611.84	4.68
612.00	42.13
612.15	86.60
612.31	60.85
612.46	105.32
612.62	154.48
612.77	140.43
612.92	74.90
613.08	86.60
613.23	93.62
613.39	145.11
613.54	236.39
613.69	931.53
613.85	2726.72
614.00	4472.76
614.15	5006.41
614.31	3536.55
614.46	2279.68
614.62	1549.43
614.77	830.89
614.92	470.45
615.08	170.86
615.23	105.32
615.38	110.01
615.54	0.00
615.69	177.88
615.84	613.22
616.00	1008.77
616.15	1373.89
616.30	1062.60
616.46	767.70
616.61	543.00
616.76	348.74
616.92	196.60
617.07	98.30
617.22	81.92
617.37	138.09
617.53	49.15
617.68	102.98
617.83	95.96
617.99	60.85
618.14	0.00
618.29	0.00
618.45	14.04
618.60	88.94
618.75	42.13
618.90	56.17
619.06	25.75
619.21	58.51
619.36	110.01
619.51	4.68
619.67	16.38
619.82	0.00
619.97	74.90
620.12	51.49
620.28	44.47
620.43	42.13
620.58	0.00
620.73	25.75
620.89	107.66
621.04	110.01
621.19	301.93
621.34	629.60
621.49	840.25
621.65	725.57
621.80	444.70
621.95	308.95
622.10	250.44
622.25	107.66
622.41	53.83
622.56	14.04
622.71	18.72
622.86	0.00
623.01	95.96
623.16	32.77
623.32	37.45
623.47	79.58
623.62	35.11
623.77	65.54
623.92	2.34
624.07	86.60
624.23	63.19
624.38	11.70
624.53	42.13
624.68	30.43
624.83	11.70
624.98	65.54
625.13	21.06
625.29	81.92
625.44	93.62
625.59	65.54
625.74	142.77
625.89	173.20
626.04	524.28
626.19	1343.47
626.34	2270.32
626.49	2572.25
626.65	1989.46
626.80	1226.44
626.95	844.93
627.10	512.58
627.25	334.70
627.40	102.98
627.55	35.11
627.70	25.75
627.85	0.00
628.00	32.77
628.15	65.54
628.30	119.37
628.45	0.00
628.60	60.85
628.76	91.28
628.91	21.06
629.06	79.58
629.21	63.19
629.36	30.43
629.51	0.00
629.66	9.36
629.81	70.22
629.96	285.55
630.11	547.69
630.26	784.08
630.41	641.31
630.56	346.40
630.71	332.36
630.86	182.56
631.01	131.07
631.16	7.02
631.31	0.00
631.46	42.13
631.61	0.00
631.76	28.09
631.91	121.71
632.06	58.51
632.21	0.00
632.36	9.36
632.51	37.45
632.66	35.11
632.81	215.33
632.96	849.61
633.10	1385.60
633.25	1827.96
633.40	1453.47
633.55	950.26
633.70	734.93
633.85	519.60
634.00	320.65
634.15	133.41
634.30	60.85
634.45	110.01
634.60	0.00
634.75	14.04
634.90	37.45
635.05	18.72
635.19	35.11
635.34	16.38
635.49	0.00
635.64	23.41
635.79	14.04
635.94	88.94
636.09	60.85
636.24	72.56
636.39	56.17
636.53	53.83
636.68	74.90
636.83	21.06
636.98	100.64
637.13	88.94
637.28	91.28
637.43	58.51
637.57	138.09
637.72	615.56
637.87	1778.81
638.02	2899.92
638.17	3307.18
638.32	2480.97
638.46	1687.53
638.61	1116.44
638.76	674.07
638.91	376.83
639.06	187.24
639.20	95.96
639.35	145.11
639.50	215.33
639.65	1086.01
639.80	2799.28
639.94	4587.45
640.09	5287.27
640.24	3810.39
640.39	2593.31
640.54	1689.87
640.68	1008.77
640.83	559.39
640.98	283.20
641.13	170.86
641.27	39.79
641.42	42.13
641.57	79.58
641.72	35.11
641.86	37.45
642.01	56.17
642.16	74.90
642.31	74.90
642.45	79.58
642.60	32.77
642.75	9.36
642.90	28.09
643.04	39.79
643.19	0.00
643.34	79.58
643.48	35.11
643.63	0.00
643.78	4.68
643.93	7.02
644.07	79.58
644.22	63.19
644.37	74.90
644.51	60.85
644.66	51.49
644.81	0.00
644.95	46.81
645.10	37.45
645.25	37.45
645.39	86.60
645.54	95.96
645.69	42.13
645.83	121.71
645.98	0.00
646.13	86.60
646.27	49.15
646.42	11.70
646.57	18.72
646.71	0.00
646.86	35.11
647.00	67.88
647.15	67.88
647.30	21.06
647.44	0.00
647.59	0.00
647.74	105.32
647.88	2.34
648.03	93.62
648.17	58.51
648.32	0.00
648.47	2.34
648.61	0.00
648.76	56.17
648.90	77.24
649.05	28.09
649.20	124.05
649.34	46.81
649.49	42.13
649.63	56.17
649.78	100.64
649.92	37.45
650.07	451.72
650.21	1177.29
650.36	2179.04
650.51	2656.51
650.65	2282.02
650.80	1504.96
650.94	1039.20
651.09	657.69
651.23	262.14
651.38	56.17
651.52	110.01
651.67	93.62
651.81	53.83
651.96	110.01
652.10	37.45
652.25	100.64
652.39	23.41
652.54	67.88
652.68	110.01
652.83	362.78
652.97	692.80
653.12	966.64
653.26	814.51
653.41	596.84
653.55	416.62
653.70	231.71
653.84	189.58
653.99	173.20
654.13	91.28
654.27	23.41
654.42	21.06
654.56	147.45
654.71	65.54
654.85	0.00
655.00	16.38
655.14	25.75
655.29	0.00
655.43	2.34
655.57	25.75
655.72	0.00
655.86	112.35
656.01	53.83
656.15	44.47
656.30	70.22
656.44	0.00
656.58	39.79
656.73	0.00
656.87	67.88
657.01	14.04
657.16	58.51
657.30	81.92
657.45	42.13
657.59	51.49
657.73	32.77
657.88	11.70
658.02	0.00
658.16	25.75
658.31	37.45
658.45	2.34
658.60	23.41
658.74	79.58
658.88	74.90
659.03	46.81
659.17	42.13
659.31	79.58
659.46	561.73
659.60	1013.45
659.74	1411.34
659.89	1158.57
660.03	798.12
660.17	606.20
660.32	374.49
660.46	238.73
660.60	117.03
660.74	32.77
660.89	39.79
661.03	35.11
661.17	23.41
661.32	0.00
661.46	63.19
661.60	0.00
661.74	39.79
661.89	0.00
662.03	18.72
662.17	56.17
662.31	56.17
662.46	86.60
662.60	9.36
662.74	42.13
662.88	44.47
663.03	42.13
663.17	81.92
663.31	63.19
663.45	30.43
663.60	58.51
663.74	4.68
663.88	74.90
664.02	51.49
664.17	102.98
664.31	98.30
664.45	0.00
664.59	49.15
664.73	74.90
664.88	56.17
665.02	11.70
665.16	65.54
665.30	32.77
665.44	0.00
665.59	72.56
665.73	46.81
665.87	67.88
666.01	53.83
666.15	23.41
666.29	107.66
666.44	67.88
666.58	95.96
666.72	35.11
666.86	72.56
667.00	93.62
667.14	102.98
667.28	355.76
667.43	1001.75
667.57	1799.87
667.71	2272.66
667.85	1909.88
667.99	1563.48
668.13	961.96
668.27	547.69
668.41	346.40
668.56	182.56
668.70	168.52
668.84	72.56
668.98	131.07
669.12	44.47
669.26	0.00
669.40	65.54
669.54	37.45
669.68	30.43
669.82	0.00
669.96	44.47
670.10	0.00
670.25	16.38
670.39	23.41
670.53	42.13
670.67	32.77
670.81	44.47
670.95	25.75
671.09	79.58
671.23	416.62
671.37	837.91
671.51	1313.04
671.65	1540.07
671.79	1060.26
671.93	910.47
672.07	437.68
672.21	297.25
672.35	196.60
672.49	81.92
672.63	72.56
672.77	14.04
672.91	72.56
673.05	35.11
673.19	42.13
673.33	72.56
673.47	7.02
673.61	56.17
673.75	91.28
673.89	0.00
674.03	67.88
674.17	0.00
674.31	51.49
674.45	32.77
674.59	0.00
674.73	37.45
674.87	39.79
675.01	58.51
675.15	51.49
675.29	4.68
675.43	7.02
675.56	77.24
675.70	30.43
675.84	46.81
675.98	0.00
676.12	0.00
676.26	58.51
676.40	23.41
676.54	58.51
676.68	49.15
676.82	37.45
676.96	0.00
677.10	30.43
677.23	65.54
677.37	119.37
677.51	81.92
677.65	49.15
677.79	0.00
677.93	0.00
678.07	25.75
678.21	35.11
678.34	9.36
678.48	23.41
678.62	49.15
678.76	67.88
678.90	18.72
679.04	70.22
679.18	30.43
679.31	67.88
679.45	18.72
679.59	77.24
679.73	21.06
679.87	0.00
680.00	60.85
680.14	9.36
680.28	23.41
680.42	93.62
680.56	0.00
680.70	74.90
680.83	81.92
680.97	60.85
681.11	86.60
681.25	25.75
681.39	53.83
681.52	0.00
681.66	56.17
681.80	42.13
681.94	70.22
682.07	46.81
682.21	25.75
682.35	0.00
682.49	11.70
682.62	0.00
682.76	9.36
682.90	35.11
683.04	0.00
683.17	0.00
683.31	60.85
683.45	39.79
683.59	37.45
683.72	25.75
683.86	44.47
684.00	23.41
684.13	9.36
684.27	23.41
684.41	0.00
684.55	0.00
684.68	32.77
684.82	18.72
684.96	35.11
685.09	44.47
685.23	53.83
685.37	23.41
685.50	32.77
685.64	21.06
685.78	63.19
685.91	0.00
686.05	65.54
686.19	0.00
686.32	4.68
686.46	39.79
686.60	72.56
686.73	28.09
686.87	30.43
687.01	88.94
687.14	58.51
687.28	30.43
687.42	65.54
687.55	0.00
687.69	51.49
687.82	0.00
687.96	72.56
688.10	44.47
688.23	0.00
688.37	2.34
688.50	35.11
688.64	42.13
688.78	28.09
688.91	79.58
689.05	35.11
689.18	86.60
689.32	74.90
689.46	58.51
689.59	70.22
689.73	4.68
689.86	49.15
690.00	32.77
690.13	7.02
690.27	4.68
690.41	81.92
690.54	7.02
690.68	14.04
690.81	18.72
690.95	9.36
691.08	70.22
691.22	37.45
691.35	0.00
691.49	58.51
691.62	39.79
691.76	14.04
691.89	9.36
692.03	2.34
692.16	23.41
692.30	95.96
692.43	182.56
692.57	430.66
692.70	716.20
692.84	1018.13
692.97	929.19
693.11	692.80
693.24	566.41
693.38	344.06
693.51	259.80
693.65	208.31
693.78	81.92
693.92	70.22
694.05	60.85
694.19	9.36
694.32	0.00
694.45	79.58
694.59	63.19
694.72	4.68
694.86	49.15
694.99	65.54
695.13	25.75
695.26	0.00
695.39	0.00
695.53	28.09
695.66	37.45
695.80	16.38
695.93	46.81
696.07	107.66
696.20	4.68
696.33	142.77
696.47	102.98
696.60	102.98
696.73	56.17
696.87	0.00
697.00	77.24
697.14	44.47
697.27	16.38
697.40	18.72
697.54	42.13
697.67	93.62
697.80	32.77
697.94	0.00
698.07	63.19
698.21	0.00
698.34	98.30
698.47	0.00
698.61	49.15
698.74	0.00
698.87	21.06
699.01	0.00
699.14	0.00
699.27	72.56
699.40	0.00
699.54	11.70
699.67	0.00
699.80	11.70
699.94	0.00
700.07	4.68
700.20	11.70
700.34	0.00
700.47	30.43
700.60	35.11
700.73	0.00
700.87	56.17
701.00	49.15
701.13	0.00
701.26	74.90
701.40	25.75
701.53	39.79
701.66	14.04
701.79	49.15
701.93	67.88
702.06	70.22
702.19	18.72
702.32	70.22
702.46	98.30
702.59	70.22
702.72	187.24
702.85	608.54
702.99	1184.31
703.12	1607.95
703.25	1959.03
703.38	1746.04
703.51	1310.70
703.65	1132.82
703.78	793.44
703.91	505.56
704.04	386.19
704.17	187.24
704.31	128.73
704.44	67.88
704.57	58.51
704.70	77.24
704.83	74.90
704.96	16.38
705.10	93.62
705.23	39.79
>>>>>End Processed Spectral Data<<<<<
