SpectraSuite Data File
++++++++++++++++++++++++++++++++++++
Date: Fri Oct 04 12:13:31 GMT-05:00 2013
User: price-jones
Dark Spectrum Present: No
Reference Spectrum Present: No
Number of Sampled Component Spectra: 1
Spectrometers: USB2+H05261
Integration Time (usec): 10000 (USB2+H05261)
Spectra Averaged: 1 (USB2+H05261)
Boxcar Smoothing: 0 (USB2+H05261)
Correct for Electrical Dark: No (USB2+H05261)
Strobe/Lamp Enabled: No (USB2+H05261)
Correct for Detector Non-linearity: No (USB2+H05261)
Correct for Stray Light: No (USB2+H05261)
Number of Pixels in Processed Spectrum: 2048
>>>>>Begin Processed Spectral Data<<<<<
365.73	0.00
365.92	0.00
366.12	0.00
366.32	0.00
366.52	0.00
366.72	0.00
366.91	0.00
367.11	0.00
367.31	0.00
367.51	0.00
367.70	0.00
367.90	0.00
368.10	0.00
368.30	0.00
368.49	0.00
368.69	0.00
368.89	0.00
369.09	0.00
369.28	0.00
369.48	0.00
369.68	0.00
369.87	0.00
370.07	0.00
370.27	0.00
370.47	0.00
370.66	0.00
370.86	0.00
371.06	0.00
371.25	0.00
371.45	0.00
371.65	0.00
371.84	0.00
372.04	0.00
372.24	25.75
372.44	0.00
372.63	67.88
372.83	74.90
373.03	58.51
373.22	16.38
373.42	32.77
373.62	63.19
373.81	21.06
374.01	39.79
374.21	0.00
374.40	42.13
374.60	100.64
374.79	0.00
374.99	56.17
375.19	18.72
375.38	0.00
375.58	11.70
375.78	60.85
375.97	37.45
376.17	23.41
376.37	0.00
376.56	51.49
376.76	49.15
376.95	30.43
377.15	46.81
377.35	95.96
377.54	0.00
377.74	58.51
377.93	49.15
378.13	42.13
378.33	37.45
378.52	56.17
378.72	56.17
378.91	25.75
379.11	0.00
379.31	23.41
379.50	0.00
379.70	28.09
379.89	16.38
380.09	0.00
380.28	49.15
380.48	18.72
380.68	51.49
380.87	56.17
381.07	2.34
381.26	51.49
381.46	72.56
381.65	49.15
381.85	16.38
382.04	46.81
382.24	49.15
382.43	37.45
382.63	51.49
382.83	35.11
383.02	58.51
383.22	18.72
383.41	0.00
383.61	11.70
383.80	67.88
384.00	98.30
384.19	0.00
384.39	0.00
384.58	91.28
384.78	42.13
384.97	0.00
385.17	0.00
385.36	0.00
385.56	0.00
385.75	81.92
385.95	0.00
386.14	56.17
386.34	0.00
386.53	9.36
386.72	0.00
386.92	72.56
387.11	7.02
387.31	0.00
387.50	0.00
387.70	30.43
387.89	0.00
388.09	67.88
388.28	4.68
388.48	39.79
388.67	16.38
388.86	74.90
389.06	65.54
389.25	0.00
389.45	2.34
389.64	0.00
389.84	2.34
390.03	0.00
390.22	56.17
390.42	4.68
390.61	25.75
390.81	35.11
391.00	60.85
391.19	0.00
391.39	67.88
391.58	14.04
391.78	25.75
391.97	2.34
392.16	7.02
392.36	63.19
392.55	86.60
392.75	37.45
392.94	42.13
393.13	0.00
393.33	0.00
393.52	0.00
393.71	25.75
393.91	14.04
394.10	37.45
394.29	23.41
394.49	23.41
394.68	11.70
394.88	0.00
395.07	60.85
395.26	79.58
395.46	32.77
395.65	95.96
395.84	0.00
396.04	39.79
396.23	49.15
396.42	0.00
396.62	16.38
396.81	14.04
397.00	16.38
397.19	0.00
397.39	42.13
397.58	0.00
397.77	16.38
397.97	0.00
398.16	37.45
398.35	32.77
398.55	77.24
398.74	65.54
398.93	14.04
399.12	77.24
399.32	35.11
399.51	56.17
399.70	0.00
399.90	0.00
400.09	30.43
400.28	0.00
400.47	128.73
400.67	25.75
400.86	14.04
401.05	32.77
401.24	56.17
401.44	56.17
401.63	46.81
401.82	0.00
402.01	110.01
402.21	79.58
402.40	67.88
402.59	0.00
402.78	0.00
402.97	42.13
403.17	14.04
403.36	18.72
403.55	32.77
403.74	21.06
403.93	0.00
404.13	7.02
404.32	0.00
404.51	39.79
404.70	0.00
404.89	7.02
405.09	37.45
405.28	84.26
405.47	84.26
405.66	0.00
405.85	49.15
406.05	51.49
406.24	44.47
406.43	0.00
406.62	35.11
406.81	23.41
407.00	21.06
407.20	0.00
407.39	23.41
407.58	39.79
407.77	0.00
407.96	60.85
408.15	65.54
408.34	53.83
408.54	84.26
408.73	81.92
408.92	0.00
409.11	46.81
409.30	42.13
409.49	28.09
409.68	37.45
409.87	2.34
410.07	7.02
410.26	0.00
410.45	95.96
410.64	0.00
410.83	32.77
411.02	56.17
411.21	44.47
411.40	0.00
411.59	0.00
411.78	30.43
411.98	30.43
412.17	0.00
412.36	126.39
412.55	18.72
412.74	2.34
412.93	30.43
413.12	4.68
413.31	63.19
413.50	0.00
413.69	102.98
413.88	46.81
414.07	28.09
414.26	53.83
414.45	77.24
414.64	35.11
414.83	21.06
415.02	18.72
415.22	0.00
415.41	32.77
415.60	91.28
415.79	42.13
415.98	70.22
416.17	7.02
416.36	0.00
416.55	46.81
416.74	0.00
416.93	16.38
417.12	0.00
417.31	28.09
417.50	37.45
417.69	51.49
417.88	86.60
418.07	72.56
418.26	46.81
418.45	28.09
418.64	11.70
418.83	0.00
419.02	16.38
419.21	28.09
419.39	42.13
419.58	53.83
419.77	14.04
419.96	23.41
420.15	7.02
420.34	58.51
420.53	30.43
420.72	21.06
420.91	44.47
421.10	11.70
421.29	42.13
421.48	42.13
421.67	49.15
421.86	23.41
422.05	0.00
422.24	0.00
422.43	63.19
422.61	0.00
422.80	30.43
422.99	39.79
423.18	51.49
423.37	39.79
423.56	74.90
423.75	25.75
423.94	4.68
424.13	14.04
424.32	0.00
424.50	0.00
424.69	35.11
424.88	18.72
425.07	95.96
425.26	23.41
425.45	72.56
425.64	0.00
425.83	86.60
426.01	0.00
426.20	44.47
426.39	0.00
426.58	0.00
426.77	0.00
426.96	11.70
427.15	18.72
427.33	18.72
427.52	63.19
427.71	0.00
427.90	60.85
428.09	86.60
428.28	84.26
428.46	60.85
428.65	58.51
428.84	32.77
429.03	112.35
429.22	39.79
429.40	84.26
429.59	4.68
429.78	35.11
429.97	0.00
430.16	21.06
430.34	21.06
430.53	49.15
430.72	65.54
430.91	9.36
431.10	21.06
431.28	0.00
431.47	0.00
431.66	14.04
431.85	11.70
432.03	30.43
432.22	58.51
432.41	30.43
432.60	42.13
432.79	25.75
432.97	0.00
433.16	44.47
433.35	58.51
433.54	16.38
433.72	30.43
433.91	0.00
434.10	23.41
434.28	70.22
434.47	0.00
434.66	72.56
434.85	72.56
435.03	51.49
435.22	30.43
435.41	72.56
435.59	0.00
435.78	74.90
435.97	7.02
436.16	58.51
436.34	32.77
436.53	42.13
436.72	46.81
436.90	42.13
437.09	91.28
437.28	0.00
437.46	32.77
437.65	46.81
437.84	14.04
438.02	30.43
438.21	49.15
438.40	32.77
438.58	84.26
438.77	49.15
438.96	32.77
439.14	77.24
439.33	7.02
439.52	0.00
439.70	91.28
439.89	102.98
440.08	32.77
440.26	65.54
440.45	0.00
440.63	28.09
440.82	0.00
441.01	0.00
441.19	128.73
441.38	2.34
441.57	77.24
441.75	65.54
441.94	84.26
442.12	0.00
442.31	0.00
442.50	74.90
442.68	0.00
442.87	30.43
443.05	37.45
443.24	91.28
443.43	35.11
443.61	25.75
443.80	42.13
443.98	0.00
444.17	39.79
444.35	0.00
444.54	23.41
444.73	60.85
444.91	86.60
445.10	44.47
445.28	0.00
445.47	21.06
445.65	51.49
445.84	23.41
446.02	21.06
446.21	2.34
446.39	37.45
446.58	25.75
446.77	0.00
446.95	7.02
447.14	30.43
447.32	107.66
447.51	18.72
447.69	16.38
447.88	0.00
448.06	25.75
448.25	2.34
448.43	9.36
448.62	35.11
448.80	49.15
448.99	35.11
449.17	21.06
449.36	56.17
449.54	65.54
449.73	7.02
449.91	46.81
450.10	37.45
450.28	81.92
450.46	49.15
450.65	53.83
450.83	39.79
451.02	46.81
451.20	51.49
451.39	14.04
451.57	0.00
451.76	72.56
451.94	32.77
452.13	11.70
452.31	79.58
452.49	49.15
452.68	35.11
452.86	23.41
453.05	14.04
453.23	42.13
453.42	46.81
453.60	0.00
453.78	30.43
453.97	39.79
454.15	0.00
454.34	16.38
454.52	37.45
454.70	91.28
454.89	0.00
455.07	37.45
455.26	0.00
455.44	44.47
455.62	0.00
455.81	35.11
455.99	14.04
456.17	0.00
456.36	7.02
456.54	0.00
456.73	16.38
456.91	25.75
457.09	21.06
457.28	39.79
457.46	0.00
457.64	0.00
457.83	28.09
458.01	0.00
458.19	60.85
458.38	63.19
458.56	65.54
458.74	30.43
458.93	65.54
459.11	107.66
459.29	0.00
459.48	81.92
459.66	18.72
459.84	30.43
460.03	49.15
460.21	37.45
460.39	0.00
460.57	0.00
460.76	63.19
460.94	102.98
461.12	39.79
461.31	11.70
461.49	53.83
461.67	58.51
461.85	25.75
462.04	107.66
462.22	37.45
462.40	28.09
462.59	4.68
462.77	0.00
462.95	0.00
463.13	72.56
463.32	18.72
463.50	37.45
463.68	0.00
463.86	0.00
464.05	18.72
464.23	149.79
464.41	2.34
464.59	72.56
464.78	58.51
464.96	58.51
465.14	77.24
465.32	28.09
465.50	30.43
465.69	37.45
465.87	65.54
466.05	39.79
466.23	11.70
466.41	32.77
466.60	114.69
466.78	79.58
466.96	25.75
467.14	81.92
467.32	44.47
467.51	32.77
467.69	0.00
467.87	70.22
468.05	53.83
468.23	7.02
468.41	51.49
468.60	37.45
468.78	44.47
468.96	170.86
469.14	0.00
469.32	0.00
469.50	56.17
469.69	37.45
469.87	56.17
470.05	30.43
470.23	110.01
470.41	0.00
470.59	0.00
470.77	65.54
470.95	119.37
471.14	9.36
471.32	53.83
471.50	25.75
471.68	56.17
471.86	0.00
472.04	72.56
472.22	32.77
472.40	11.70
472.58	44.47
472.77	0.00
472.95	11.70
473.13	91.28
473.31	23.41
473.49	37.45
473.67	67.88
473.85	65.54
474.03	14.04
474.21	44.47
474.39	53.83
474.57	0.00
474.75	67.88
474.93	79.58
475.12	81.92
475.30	0.00
475.48	0.00
475.66	51.49
475.84	56.17
476.02	74.90
476.20	42.13
476.38	93.62
476.56	63.19
476.74	79.58
476.92	9.36
477.10	2.34
477.28	37.45
477.46	30.43
477.64	16.38
477.82	114.69
478.00	28.09
478.18	56.17
478.36	58.51
478.54	0.00
478.72	91.28
478.90	21.06
479.08	2.34
479.26	65.54
479.44	14.04
479.62	39.79
479.80	98.30
479.98	53.83
480.16	0.00
480.34	21.06
480.52	28.09
480.70	0.00
480.88	84.26
481.06	42.13
481.24	53.83
481.41	23.41
481.59	63.19
481.77	39.79
481.95	32.77
482.13	56.17
482.31	49.15
482.49	70.22
482.67	79.58
482.85	0.00
483.03	9.36
483.21	4.68
483.39	77.24
483.57	0.00
483.74	25.75
483.92	0.00
484.10	56.17
484.28	0.00
484.46	53.83
484.64	77.24
484.82	81.92
485.00	16.38
485.18	72.56
485.35	79.58
485.53	51.49
485.71	16.38
485.89	46.81
486.07	0.00
486.25	49.15
486.43	42.13
486.61	86.60
486.78	14.04
486.96	2.34
487.14	42.13
487.32	2.34
487.50	88.94
487.68	46.81
487.85	44.47
488.03	11.70
488.21	25.75
488.39	79.58
488.57	91.28
488.75	67.88
488.92	42.13
489.10	60.85
489.28	72.56
489.46	58.51
489.64	23.41
489.81	11.70
489.99	53.83
490.17	65.54
490.35	42.13
490.53	72.56
490.70	119.37
490.88	39.79
491.06	9.36
491.24	60.85
491.41	81.92
491.59	23.41
491.77	53.83
491.95	86.60
492.13	18.72
492.30	21.06
492.48	7.02
492.66	63.19
492.84	93.62
493.01	95.96
493.19	51.49
493.37	0.00
493.54	37.45
493.72	74.90
493.90	28.09
494.08	49.15
494.25	28.09
494.43	32.77
494.61	44.47
494.79	30.43
494.96	0.00
495.14	0.00
495.32	0.00
495.49	74.90
495.67	25.75
495.85	58.51
496.02	0.00
496.20	37.45
496.38	44.47
496.55	81.92
496.73	37.45
496.91	49.15
497.09	30.43
497.26	56.17
497.44	0.00
497.62	117.03
497.79	9.36
497.97	35.11
498.14	93.62
498.32	42.13
498.50	37.45
498.67	51.49
498.85	58.51
499.03	9.36
499.20	39.79
499.38	11.70
499.56	93.62
499.73	86.60
499.91	135.75
500.08	16.38
500.26	18.72
500.44	63.19
500.61	58.51
500.79	39.79
500.97	32.77
501.14	70.22
501.32	44.47
501.49	128.73
501.67	7.02
501.84	44.47
502.02	37.45
502.20	58.51
502.37	14.04
502.55	77.24
502.72	124.05
502.90	16.38
503.07	0.00
503.25	37.45
503.43	14.04
503.60	46.81
503.78	84.26
503.95	0.00
504.13	32.77
504.30	0.00
504.48	51.49
504.65	65.54
504.83	46.81
505.01	88.94
505.18	39.79
505.36	44.47
505.53	0.00
505.71	51.49
505.88	18.72
506.06	37.45
506.23	63.19
506.41	93.62
506.58	42.13
506.76	77.24
506.93	0.00
507.11	4.68
507.28	77.24
507.46	49.15
507.63	112.35
507.81	25.75
507.98	86.60
508.16	0.00
508.33	58.51
508.50	53.83
508.68	124.05
508.85	35.11
509.03	74.90
509.20	30.43
509.38	86.60
509.55	0.00
509.73	72.56
509.90	51.49
510.08	14.04
510.25	65.54
510.42	0.00
510.60	100.64
510.77	23.41
510.95	30.43
511.12	53.83
511.30	42.13
511.47	81.92
511.64	4.68
511.82	114.69
511.99	4.68
512.17	9.36
512.34	0.00
512.51	37.45
512.69	93.62
512.86	72.56
513.04	79.58
513.21	67.88
513.38	18.72
513.56	81.92
513.73	63.19
513.90	100.64
514.08	51.49
514.25	67.88
514.43	86.60
514.60	14.04
514.77	30.43
514.95	0.00
515.12	74.90
515.29	21.06
515.47	39.79
515.64	32.77
515.81	100.64
515.99	2.34
516.16	11.70
516.33	84.26
516.51	60.85
516.68	2.34
516.85	0.00
517.03	67.88
517.20	9.36
517.37	0.00
517.54	14.04
517.72	42.13
517.89	21.06
518.06	14.04
518.24	63.19
518.41	28.09
518.58	121.71
518.75	16.38
518.93	67.88
519.10	65.54
519.27	28.09
519.45	35.11
519.62	51.49
519.79	11.70
519.96	28.09
520.14	51.49
520.31	16.38
520.48	9.36
520.65	105.32
520.83	39.79
521.00	84.26
521.17	58.51
521.34	53.83
521.52	0.00
521.69	11.70
521.86	56.17
522.03	39.79
522.20	21.06
522.38	35.11
522.55	105.32
522.72	58.51
522.89	4.68
523.07	42.13
523.24	2.34
523.41	77.24
523.58	60.85
523.75	14.04
523.92	0.00
524.10	58.51
524.27	0.00
524.44	7.02
524.61	39.79
524.78	25.75
524.96	0.00
525.13	126.39
525.30	53.83
525.47	30.43
525.64	102.98
525.81	44.47
525.98	63.19
526.16	7.02
526.33	51.49
526.50	4.68
526.67	79.58
526.84	0.00
527.01	42.13
527.18	58.51
527.36	30.43
527.53	39.79
527.70	135.75
527.87	0.00
528.04	60.85
528.21	18.72
528.38	77.24
528.55	39.79
528.72	0.00
528.89	56.17
529.07	56.17
529.24	102.98
529.41	84.26
529.58	74.90
529.75	2.34
529.92	2.34
530.09	79.58
530.26	95.96
530.43	53.83
530.60	2.34
530.77	58.51
530.94	0.00
531.11	30.43
531.28	21.06
531.46	44.47
531.63	25.75
531.80	77.24
531.97	16.38
532.14	14.04
532.31	72.56
532.48	53.83
532.65	16.38
532.82	100.64
532.99	49.15
533.16	44.47
533.33	32.77
533.50	32.77
533.67	46.81
533.84	35.11
534.01	93.62
534.18	35.11
534.35	7.02
534.52	37.45
534.69	44.47
534.86	25.75
535.03	51.49
535.20	46.81
535.37	58.51
535.54	58.51
535.71	28.09
535.88	51.49
536.05	7.02
536.22	95.96
536.38	60.85
536.55	42.13
536.72	79.58
536.89	4.68
537.06	9.36
537.23	0.00
537.40	107.66
537.57	110.01
537.74	86.60
537.91	30.43
538.08	25.75
538.25	0.00
538.42	77.24
538.59	30.43
538.75	30.43
538.92	44.47
539.09	0.00
539.26	51.49
539.43	140.43
539.60	70.22
539.77	112.35
539.94	124.05
540.11	91.28
540.28	88.94
540.44	16.38
540.61	0.00
540.78	53.83
540.95	98.30
541.12	0.00
541.29	30.43
541.46	60.85
541.62	102.98
541.79	28.09
541.96	37.45
542.13	46.81
542.30	16.38
542.47	93.62
542.63	72.56
542.80	4.68
542.97	0.00
543.14	11.70
543.31	37.45
543.48	0.00
543.64	112.35
543.81	32.77
543.98	46.81
544.15	11.70
544.32	60.85
544.48	9.36
544.65	0.00
544.82	0.00
544.99	37.45
545.16	46.81
545.32	0.00
545.49	30.43
545.66	46.81
545.83	9.36
546.00	32.77
546.16	46.81
546.33	60.85
546.50	11.70
546.67	39.79
546.83	86.60
547.00	60.85
547.17	4.68
547.34	0.00
547.50	2.34
547.67	65.54
547.84	2.34
548.00	49.15
548.17	56.17
548.34	35.11
548.51	0.00
548.67	9.36
548.84	100.64
549.01	2.34
549.18	42.13
549.34	0.00
549.51	46.81
549.68	23.41
549.84	102.98
550.01	0.00
550.18	32.77
550.34	58.51
550.51	14.04
550.68	11.70
550.84	110.01
551.01	72.56
551.18	51.49
551.34	84.26
551.51	16.38
551.68	63.19
551.84	18.72
552.01	2.34
552.18	16.38
552.34	58.51
552.51	46.81
552.68	11.70
552.84	79.58
553.01	0.00
553.18	18.72
553.34	72.56
553.51	98.30
553.67	65.54
553.84	16.38
554.01	46.81
554.17	0.00
554.34	65.54
554.51	25.75
554.67	0.00
554.84	37.45
555.00	88.94
555.17	0.00
555.33	114.69
555.50	21.06
555.67	60.85
555.83	0.00
556.00	9.36
556.16	53.83
556.33	56.17
556.50	0.00
556.66	42.13
556.83	9.36
556.99	58.51
557.16	60.85
557.32	2.34
557.49	0.00
557.65	42.13
557.82	16.38
557.98	11.70
558.15	35.11
558.32	0.00
558.48	14.04
558.65	21.06
558.81	63.19
558.98	56.17
559.14	0.00
559.31	42.13
559.47	2.34
559.64	32.77
559.80	53.83
559.97	30.43
560.13	74.90
560.30	39.79
560.46	35.11
560.63	58.51
560.79	88.94
560.96	0.00
561.12	0.00
561.29	39.79
561.45	42.13
561.61	67.88
561.78	46.81
561.94	51.49
562.11	53.83
562.27	0.00
562.44	74.90
562.60	25.75
562.77	67.88
562.93	28.09
563.10	21.06
563.26	60.85
563.42	39.79
563.59	11.70
563.75	0.00
563.92	25.75
564.08	0.00
564.24	0.00
564.41	23.41
564.57	9.36
564.74	46.81
564.90	16.38
565.07	44.47
565.23	65.54
565.39	23.41
565.56	9.36
565.72	7.02
565.88	11.70
566.05	84.26
566.21	49.15
566.38	53.83
566.54	63.19
566.70	95.96
566.87	42.13
567.03	46.81
567.19	32.77
567.36	42.13
567.52	0.00
567.68	35.11
567.85	102.98
568.01	46.81
568.17	14.04
568.34	42.13
568.50	0.00
568.66	32.77
568.83	84.26
568.99	4.68
569.15	81.92
569.32	60.85
569.48	0.00
569.64	30.43
569.81	0.00
569.97	42.13
570.13	35.11
570.30	77.24
570.46	60.85
570.62	65.54
570.78	0.00
570.95	42.13
571.11	37.45
571.27	53.83
571.43	0.00
571.60	37.45
571.76	74.90
571.92	21.06
572.09	0.00
572.25	42.13
572.41	30.43
572.57	0.00
572.74	42.13
572.90	14.04
573.06	11.70
573.22	65.54
573.38	56.17
573.55	121.71
573.71	21.06
573.87	14.04
574.03	65.54
574.20	46.81
574.36	42.13
574.52	65.54
574.68	2.34
574.84	25.75
575.01	74.90
575.17	37.45
575.33	56.17
575.49	16.38
575.65	11.70
575.82	70.22
575.98	58.51
576.14	126.39
576.30	70.22
576.46	53.83
576.62	0.00
576.79	86.60
576.95	14.04
577.11	60.85
577.27	14.04
577.43	0.00
577.59	0.00
577.75	49.15
577.92	25.75
578.08	102.98
578.24	77.24
578.40	70.22
578.56	86.60
578.72	112.35
578.88	0.00
579.04	86.60
579.21	0.00
579.37	63.19
579.53	0.00
579.69	88.94
579.85	65.54
580.01	14.04
580.17	60.85
580.33	93.62
580.49	44.47
580.65	51.49
580.82	121.71
580.98	0.00
581.14	56.17
581.30	37.45
581.46	58.51
581.62	42.13
581.78	114.69
581.94	86.60
582.10	93.62
582.26	46.81
582.42	63.19
582.58	145.11
582.74	9.36
582.90	121.71
583.06	25.75
583.22	56.17
583.38	124.05
583.54	88.94
583.70	28.09
583.86	18.72
584.02	35.11
584.18	65.54
584.34	65.54
584.50	205.97
584.66	1081.33
584.82	2942.05
584.98	4395.53
585.14	4070.19
585.30	2546.50
585.46	1401.98
585.62	898.77
585.78	416.62
585.94	161.50
586.10	112.35
586.26	79.58
586.42	81.92
586.58	42.13
586.74	63.19
586.90	0.00
587.06	58.51
587.22	7.02
587.38	60.85
587.54	105.32
587.70	180.22
587.86	365.12
588.02	332.36
588.18	208.31
588.34	128.73
588.49	107.66
588.65	84.26
588.81	0.00
588.97	72.56
589.13	72.56
589.29	84.26
589.45	72.56
589.61	91.28
589.77	35.11
589.93	102.98
590.08	46.81
590.24	4.68
590.40	84.26
590.56	81.92
590.72	46.81
590.88	135.75
591.04	56.17
591.20	98.30
591.35	44.47
591.51	0.00
591.67	58.51
591.83	51.49
591.99	119.37
592.15	65.54
592.31	102.98
592.46	0.00
592.62	39.79
592.78	44.47
592.94	135.75
593.10	0.00
593.26	67.88
593.41	25.75
593.57	7.02
593.73	53.83
593.89	196.60
594.05	503.22
594.20	587.47
594.36	568.75
594.52	437.68
594.68	248.10
594.84	112.35
594.99	154.48
595.15	105.32
595.31	77.24
595.47	7.02
595.62	2.34
595.78	0.00
595.94	70.22
596.10	117.03
596.25	70.22
596.41	46.81
596.57	0.00
596.73	56.17
596.88	107.66
597.04	63.19
597.20	135.75
597.36	166.18
597.51	147.45
597.67	77.24
597.83	56.17
597.99	77.24
598.14	63.19
598.30	32.77
598.46	63.19
598.61	35.11
598.77	16.38
598.93	46.81
599.09	67.88
599.24	46.81
599.40	70.22
599.56	16.38
599.71	51.49
599.87	42.13
600.03	42.13
600.18	65.54
600.34	65.54
600.50	28.09
600.65	16.38
600.81	28.09
600.97	72.56
601.12	7.02
601.28	53.83
601.44	18.72
601.59	58.51
601.75	0.00
601.91	102.98
602.06	21.06
602.22	65.54
602.37	30.43
602.53	74.90
602.69	159.16
602.84	196.60
603.00	112.35
603.16	58.51
603.31	53.83
603.47	23.41
603.62	95.96
603.78	56.17
603.94	72.56
604.09	0.00
604.25	79.58
604.40	60.85
604.56	11.70
604.71	18.72
604.87	60.85
605.03	81.92
605.18	14.04
605.34	60.85
605.49	53.83
605.65	28.09
605.80	65.54
605.96	93.62
606.12	18.72
606.27	98.30
606.43	30.43
606.58	16.38
606.74	138.09
606.89	182.56
607.05	297.25
607.20	531.30
607.36	433.00
607.51	313.63
607.67	234.05
607.82	131.07
607.98	142.77
608.13	0.00
608.29	70.22
608.44	168.52
608.60	56.17
608.75	81.92
608.91	81.92
609.06	337.04
609.22	620.24
609.37	936.21
609.53	746.63
609.68	533.64
609.84	313.63
609.99	205.97
610.15	140.43
610.30	100.64
610.46	72.56
610.61	67.88
610.76	63.19
610.92	60.85
611.07	42.13
611.23	67.88
611.38	0.00
611.54	72.56
611.69	0.00
611.84	53.83
612.00	67.88
612.15	70.22
612.31	53.83
612.46	79.58
612.62	49.15
612.77	30.43
612.92	18.72
613.08	107.66
613.23	18.72
613.39	93.62
613.54	100.64
613.69	306.61
613.85	760.67
614.00	1233.46
614.15	1345.81
614.31	1060.26
614.46	688.12
614.62	505.56
614.77	259.80
614.92	42.13
615.08	46.81
615.23	39.79
615.38	28.09
615.54	51.49
615.69	175.54
615.84	266.82
616.00	381.51
616.15	346.40
616.30	390.87
616.46	224.69
616.61	142.77
616.76	72.56
616.92	58.51
617.07	28.09
617.22	67.88
617.37	0.00
617.53	2.34
617.68	39.79
617.83	0.00
617.99	32.77
618.14	105.32
618.29	14.04
618.45	60.85
618.60	51.49
618.75	100.64
618.90	23.41
619.06	35.11
619.21	84.26
619.36	70.22
619.51	16.38
619.67	58.51
619.82	67.88
619.97	84.26
620.12	58.51
620.28	35.11
620.43	84.26
620.58	18.72
620.73	49.15
620.89	28.09
621.04	79.58
621.19	121.71
621.34	159.16
621.49	250.44
621.65	215.33
621.80	212.99
621.95	100.64
622.10	86.60
622.25	126.39
622.41	81.92
622.56	0.00
622.71	53.83
622.86	21.06
623.01	93.62
623.16	102.98
623.32	28.09
623.47	44.47
623.62	60.85
623.77	60.85
623.92	93.62
624.07	44.47
624.23	32.77
624.38	63.19
624.53	56.17
624.68	86.60
624.83	42.13
624.98	35.11
625.13	37.45
625.29	35.11
625.44	49.15
625.59	56.17
625.74	51.49
625.89	30.43
626.04	175.54
626.19	313.63
626.34	627.26
626.49	753.65
626.65	589.82
626.80	395.55
626.95	191.92
627.10	145.11
627.25	86.60
627.40	67.88
627.55	112.35
627.70	145.11
627.85	91.28
628.00	16.38
628.15	88.94
628.30	32.77
628.45	0.00
628.60	63.19
628.76	39.79
628.91	67.88
629.06	56.17
629.21	32.77
629.36	67.88
629.51	42.13
629.66	39.79
629.81	81.92
629.96	126.39
630.11	159.16
630.26	205.97
630.41	173.20
630.56	152.13
630.71	72.56
630.86	100.64
631.01	44.47
631.16	56.17
631.31	30.43
631.46	37.45
631.61	49.15
631.76	93.62
631.91	18.72
632.06	16.38
632.21	63.19
632.36	56.17
632.51	63.19
632.66	88.94
632.81	72.56
632.96	294.91
633.10	344.06
633.25	477.47
633.40	428.32
633.55	220.01
633.70	245.76
633.85	121.71
634.00	86.60
634.15	74.90
634.30	25.75
634.45	42.13
634.60	105.32
634.75	28.09
634.90	18.72
635.05	14.04
635.19	135.75
635.34	84.26
635.49	9.36
635.64	63.19
635.79	74.90
635.94	0.00
636.09	0.00
636.24	16.38
636.39	21.06
636.53	0.00
636.68	0.00
636.83	21.06
636.98	60.85
637.13	81.92
637.28	70.22
637.43	88.94
637.57	7.02
637.72	119.37
637.87	407.25
638.02	699.82
638.17	847.27
638.32	669.39
638.46	538.32
638.61	231.71
638.76	292.57
638.91	110.01
639.06	100.64
639.20	65.54
639.35	39.79
639.50	107.66
639.65	315.97
639.80	788.76
639.94	1184.31
640.09	1394.96
640.24	1067.28
640.39	716.20
640.54	449.38
640.68	355.76
640.83	180.22
640.98	102.98
641.13	93.62
641.27	51.49
641.42	28.09
641.57	0.00
641.72	11.70
641.86	42.13
642.01	28.09
642.16	49.15
642.31	53.83
642.45	60.85
642.60	0.00
642.75	37.45
642.90	9.36
643.04	58.51
643.19	28.09
643.34	65.54
643.48	4.68
643.63	88.94
643.78	77.24
643.93	65.54
644.07	9.36
644.22	0.00
644.37	0.00
644.51	0.00
644.66	32.77
644.81	100.64
644.95	0.00
645.10	65.54
645.25	51.49
645.39	9.36
645.54	49.15
645.69	0.00
645.83	65.54
645.98	74.90
646.13	9.36
646.27	9.36
646.42	0.00
646.57	86.60
646.71	4.68
646.86	0.00
647.00	65.54
647.15	119.37
647.30	25.75
647.44	30.43
647.59	0.00
647.74	60.85
647.88	0.00
648.03	25.75
648.17	0.00
648.32	18.72
648.47	4.68
648.61	21.06
648.76	95.96
648.90	74.90
649.05	11.70
649.20	32.77
649.34	7.02
649.49	49.15
649.63	18.72
649.78	117.03
649.92	53.83
650.07	110.01
650.21	287.89
650.36	557.05
650.51	795.78
650.65	613.22
650.80	482.15
650.94	285.55
651.09	131.07
651.23	105.32
651.38	56.17
651.52	0.00
651.67	63.19
651.81	67.88
651.96	30.43
652.10	46.81
652.25	18.72
652.39	58.51
652.54	58.51
652.68	56.17
652.83	119.37
652.97	241.08
653.12	264.48
653.26	259.80
653.41	189.58
653.55	131.07
653.70	60.85
653.84	100.64
653.99	107.66
654.13	74.90
654.27	56.17
654.42	56.17
654.56	32.77
654.71	7.02
654.85	81.92
655.00	0.00
655.14	21.06
655.29	11.70
655.43	63.19
655.57	7.02
655.72	32.77
655.86	0.00
656.01	65.54
656.15	7.02
656.30	79.58
656.44	0.00
656.58	2.34
656.73	0.00
656.87	44.47
657.01	0.00
657.16	56.17
657.30	63.19
657.45	60.85
657.59	23.41
657.73	16.38
657.88	46.81
658.02	14.04
658.16	70.22
658.31	58.51
658.45	65.54
658.60	0.00
658.74	0.00
658.88	0.00
659.03	42.13
659.17	28.09
659.31	131.07
659.46	187.24
659.60	325.33
659.74	365.12
659.89	418.96
660.03	250.44
660.17	182.56
660.32	86.60
660.46	81.92
660.60	25.75
660.74	42.13
660.89	18.72
661.03	51.49
661.17	53.83
661.32	91.28
661.46	9.36
661.60	0.00
661.74	81.92
661.89	0.00
662.03	60.85
662.17	9.36
662.31	9.36
662.46	32.77
662.60	70.22
662.74	138.09
662.88	65.54
663.03	30.43
663.17	0.00
663.31	65.54
663.45	9.36
663.60	25.75
663.74	0.00
663.88	32.77
664.02	0.00
664.17	0.00
664.31	77.24
664.45	28.09
664.59	53.83
664.73	98.30
664.88	30.43
665.02	7.02
665.16	32.77
665.30	74.90
665.44	79.58
665.59	67.88
665.73	4.68
665.87	0.00
666.01	25.75
666.15	11.70
666.29	39.79
666.44	35.11
666.58	14.04
666.72	30.43
666.86	28.09
667.00	25.75
667.14	25.75
667.28	88.94
667.43	264.48
667.57	425.98
667.71	564.07
667.85	510.24
667.99	411.93
668.13	248.10
668.27	205.97
668.41	149.79
668.56	70.22
668.70	60.85
668.84	23.41
668.98	25.75
669.12	46.81
669.26	91.28
669.40	49.15
669.54	149.79
669.68	42.13
669.82	72.56
669.96	30.43
670.10	0.00
670.25	0.00
670.39	21.06
670.53	63.19
670.67	25.75
670.81	16.38
670.95	16.38
671.09	84.26
671.23	105.32
671.37	227.03
671.51	437.68
671.65	458.74
671.79	290.23
671.93	191.92
672.07	93.62
672.21	53.83
672.35	51.49
672.49	72.56
672.63	98.30
672.77	74.90
672.91	42.13
673.05	0.00
673.19	32.77
673.33	39.79
673.47	110.01
673.61	0.00
673.75	0.00
673.89	18.72
674.03	30.43
674.17	9.36
674.31	35.11
674.45	91.28
674.59	32.77
674.73	56.17
674.87	4.68
675.01	0.00
675.15	79.58
675.29	23.41
675.43	25.75
675.56	39.79
675.70	0.00
675.84	51.49
675.98	23.41
676.12	56.17
676.26	0.00
676.40	88.94
676.54	42.13
676.68	7.02
676.82	72.56
676.96	44.47
677.10	0.00
677.23	53.83
677.37	37.45
677.51	60.85
677.65	72.56
677.79	77.24
677.93	63.19
678.07	0.00
678.21	84.26
678.34	0.00
678.48	18.72
678.62	21.06
678.76	18.72
678.90	49.15
679.04	37.45
679.18	102.98
679.31	0.00
679.45	4.68
679.59	35.11
679.73	39.79
679.87	0.00
680.00	44.47
680.14	44.47
680.28	0.00
680.42	30.43
680.56	58.51
680.70	16.38
680.83	46.81
680.97	9.36
681.11	65.54
681.25	11.70
681.39	37.45
681.52	74.90
681.66	16.38
681.80	42.13
681.94	21.06
682.07	65.54
682.21	14.04
682.35	46.81
682.49	2.34
682.62	0.00
682.76	23.41
682.90	21.06
683.04	72.56
683.17	9.36
683.31	18.72
683.45	56.17
683.59	51.49
683.72	28.09
683.86	0.00
684.00	46.81
684.13	14.04
684.27	0.00
684.41	0.00
684.55	51.49
684.68	21.06
684.82	37.45
684.96	9.36
685.09	77.24
685.23	25.75
685.37	79.58
685.50	0.00
685.64	42.13
685.78	28.09
685.91	16.38
686.05	11.70
686.19	18.72
686.32	60.85
686.46	35.11
686.60	23.41
686.73	25.75
686.87	72.56
687.01	0.00
687.14	67.88
687.28	0.00
687.42	46.81
687.55	28.09
687.69	11.70
687.82	9.36
687.96	65.54
688.10	67.88
688.23	11.70
688.37	140.43
688.50	63.19
688.64	49.15
688.78	0.00
688.91	0.00
689.05	32.77
689.18	0.00
689.32	7.02
689.46	0.00
689.59	63.19
689.73	72.56
689.86	46.81
690.00	35.11
690.13	65.54
690.27	44.47
690.41	32.77
690.54	93.62
690.68	18.72
690.81	46.81
690.95	0.00
691.08	0.00
691.22	46.81
691.35	4.68
691.49	53.83
691.62	0.00
691.76	63.19
691.89	42.13
692.03	107.66
692.16	0.00
692.30	58.51
692.43	65.54
692.57	86.60
692.70	215.33
692.84	257.46
692.97	334.70
693.11	220.01
693.24	182.56
693.38	163.84
693.51	121.71
693.65	46.81
693.78	11.70
693.92	4.68
694.05	79.58
694.19	25.75
694.32	0.00
694.45	21.06
694.59	70.22
694.72	0.00
694.86	42.13
694.99	117.03
695.13	56.17
695.26	63.19
695.39	42.13
695.53	49.15
695.66	51.49
695.80	91.28
695.93	98.30
696.07	105.32
696.20	18.72
696.33	2.34
696.47	84.26
696.60	16.38
696.73	53.83
696.87	77.24
697.00	74.90
697.14	70.22
697.27	58.51
697.40	102.98
697.54	4.68
697.67	32.77
697.80	133.41
697.94	88.94
698.07	70.22
698.21	21.06
698.34	16.38
698.47	0.00
698.61	16.38
698.74	0.00
698.87	58.51
699.01	44.47
699.14	37.45
699.27	42.13
699.40	0.00
699.54	37.45
699.67	21.06
699.80	16.38
699.94	44.47
700.07	0.00
700.20	37.45
700.34	126.39
700.47	16.38
700.60	58.51
700.73	35.11
700.87	0.00
701.00	4.68
701.13	65.54
701.26	30.43
701.40	37.45
701.53	0.00
701.66	79.58
701.79	51.49
701.93	72.56
702.06	74.90
702.19	124.05
702.32	81.92
702.46	0.00
702.59	0.00
702.72	84.26
702.85	177.88
702.99	393.21
703.12	416.62
703.25	535.98
703.38	418.96
703.51	318.31
703.65	318.31
703.78	229.37
703.91	156.82
704.04	119.37
704.17	117.03
704.31	81.92
704.44	67.88
704.57	53.83
704.70	0.00
704.83	30.43
704.96	0.00
705.10	42.13
705.23	7.02
>>>>>End Processed Spectral Data<<<<<
