SpectraSuite Data File
++++++++++++++++++++++++++++++++++++
Date: Fri Oct 04 12:13:38 GMT-05:00 2013
User: price-jones
Dark Spectrum Present: No
Reference Spectrum Present: No
Number of Sampled Component Spectra: 1
Spectrometers: USB2+H05261
Integration Time (usec): 10000 (USB2+H05261)
Spectra Averaged: 1 (USB2+H05261)
Boxcar Smoothing: 0 (USB2+H05261)
Correct for Electrical Dark: No (USB2+H05261)
Strobe/Lamp Enabled: No (USB2+H05261)
Correct for Detector Non-linearity: No (USB2+H05261)
Correct for Stray Light: No (USB2+H05261)
Number of Pixels in Processed Spectrum: 2048
>>>>>Begin Processed Spectral Data<<<<<
365.73	44.47
365.92	44.47
366.12	44.47
366.32	0.00
366.52	0.00
366.72	0.00
366.91	0.00
367.11	0.00
367.31	0.00
367.51	0.00
367.70	0.00
367.90	0.00
368.10	0.00
368.30	0.00
368.49	0.00
368.69	0.00
368.89	0.00
369.09	0.00
369.28	0.00
369.48	0.00
369.68	0.00
369.87	0.00
370.07	0.00
370.27	0.00
370.47	0.00
370.66	0.00
370.86	0.00
371.06	0.00
371.25	0.00
371.45	0.00
371.65	7.02
371.84	0.00
372.04	0.00
372.24	30.43
372.44	9.36
372.63	0.00
372.83	0.00
373.03	0.00
373.22	32.77
373.42	28.09
373.62	42.13
373.81	70.22
374.01	44.47
374.21	9.36
374.40	16.38
374.60	0.00
374.79	30.43
374.99	11.70
375.19	105.32
375.38	42.13
375.58	77.24
375.78	7.02
375.97	0.00
376.17	86.60
376.37	74.90
376.56	7.02
376.76	25.75
376.95	16.38
377.15	51.49
377.35	0.00
377.54	0.00
377.74	11.70
377.93	28.09
378.13	37.45
378.33	14.04
378.52	46.81
378.72	72.56
378.91	98.30
379.11	0.00
379.31	11.70
379.50	0.00
379.70	28.09
379.89	18.72
380.09	0.00
380.28	42.13
380.48	44.47
380.68	0.00
380.87	0.00
381.07	4.68
381.26	16.38
381.46	30.43
381.65	74.90
381.85	4.68
382.04	46.81
382.24	39.79
382.43	70.22
382.63	49.15
382.83	58.51
383.02	23.41
383.22	21.06
383.41	30.43
383.61	49.15
383.80	0.00
384.00	25.75
384.19	32.77
384.39	39.79
384.58	0.00
384.78	70.22
384.97	11.70
385.17	0.00
385.36	4.68
385.56	0.00
385.75	9.36
385.95	0.00
386.14	11.70
386.34	0.00
386.53	39.79
386.72	63.19
386.92	9.36
387.11	28.09
387.31	16.38
387.50	0.00
387.70	84.26
387.89	0.00
388.09	0.00
388.28	28.09
388.48	44.47
388.67	0.00
388.86	16.38
389.06	9.36
389.25	44.47
389.45	0.00
389.64	0.00
389.84	37.45
390.03	0.00
390.22	51.49
390.42	0.00
390.61	16.38
390.81	0.00
391.00	9.36
391.19	46.81
391.39	63.19
391.58	18.72
391.78	0.00
391.97	30.43
392.16	0.00
392.36	2.34
392.55	60.85
392.75	11.70
392.94	30.43
393.13	65.54
393.33	0.00
393.52	2.34
393.71	51.49
393.91	21.06
394.10	14.04
394.29	0.00
394.49	79.58
394.68	0.00
394.88	0.00
395.07	0.00
395.26	0.00
395.46	0.00
395.65	0.00
395.84	0.00
396.04	63.19
396.23	16.38
396.42	0.00
396.62	86.60
396.81	0.00
397.00	4.68
397.19	63.19
397.39	0.00
397.58	11.70
397.77	56.17
397.97	74.90
398.16	0.00
398.35	0.00
398.55	35.11
398.74	67.88
398.93	44.47
399.12	53.83
399.32	11.70
399.51	63.19
399.70	4.68
399.90	23.41
400.09	0.00
400.28	42.13
400.47	14.04
400.67	0.00
400.86	46.81
401.05	25.75
401.24	28.09
401.44	67.88
401.63	0.00
401.82	67.88
402.01	56.17
402.21	67.88
402.40	72.56
402.59	0.00
402.78	0.00
402.97	35.11
403.17	42.13
403.36	37.45
403.55	74.90
403.74	16.38
403.93	18.72
404.13	4.68
404.32	35.11
404.51	32.77
404.70	72.56
404.89	23.41
405.09	2.34
405.28	25.75
405.47	42.13
405.66	32.77
405.85	63.19
406.05	0.00
406.24	0.00
406.43	25.75
406.62	25.75
406.81	70.22
407.00	30.43
407.20	44.47
407.39	70.22
407.58	2.34
407.77	16.38
407.96	84.26
408.15	58.51
408.34	49.15
408.54	32.77
408.73	37.45
408.92	0.00
409.11	39.79
409.30	49.15
409.49	35.11
409.68	0.00
409.87	9.36
410.07	0.00
410.26	0.00
410.45	21.06
410.64	14.04
410.83	28.09
411.02	0.00
411.21	67.88
411.40	93.62
411.59	42.13
411.78	72.56
411.98	51.49
412.17	42.13
412.36	35.11
412.55	56.17
412.74	74.90
412.93	2.34
413.12	0.00
413.31	46.81
413.50	51.49
413.69	35.11
413.88	56.17
414.07	93.62
414.26	4.68
414.45	0.00
414.64	0.00
414.83	60.85
415.02	44.47
415.22	0.00
415.41	28.09
415.60	0.00
415.79	39.79
415.98	84.26
416.17	102.98
416.36	72.56
416.55	86.60
416.74	9.36
416.93	86.60
417.12	0.00
417.31	63.19
417.50	25.75
417.69	49.15
417.88	32.77
418.07	0.00
418.26	0.00
418.45	51.49
418.64	32.77
418.83	58.51
419.02	0.00
419.21	46.81
419.39	53.83
419.58	102.98
419.77	63.19
419.96	37.45
420.15	51.49
420.34	32.77
420.53	0.00
420.72	42.13
420.91	77.24
421.10	63.19
421.29	77.24
421.48	0.00
421.67	53.83
421.86	11.70
422.05	0.00
422.24	14.04
422.43	49.15
422.61	91.28
422.80	44.47
422.99	16.38
423.18	37.45
423.37	77.24
423.56	60.85
423.75	4.68
423.94	72.56
424.13	70.22
424.32	39.79
424.50	58.51
424.69	121.71
424.88	49.15
425.07	53.83
425.26	63.19
425.45	72.56
425.64	56.17
425.83	56.17
426.01	51.49
426.20	63.19
426.39	0.00
426.58	98.30
426.77	16.38
426.96	0.00
427.15	56.17
427.33	0.00
427.52	60.85
427.71	21.06
427.90	58.51
428.09	21.06
428.28	49.15
428.46	11.70
428.65	2.34
428.84	100.64
429.03	18.72
429.22	14.04
429.40	44.47
429.59	11.70
429.78	46.81
429.97	0.00
430.16	107.66
430.34	0.00
430.53	70.22
430.72	14.04
430.91	18.72
431.10	88.94
431.28	60.85
431.47	65.54
431.66	63.19
431.85	39.79
432.03	95.96
432.22	58.51
432.41	32.77
432.60	30.43
432.79	0.00
432.97	46.81
433.16	65.54
433.35	70.22
433.54	46.81
433.72	4.68
433.91	46.81
434.10	30.43
434.28	9.36
434.47	84.26
434.66	56.17
434.85	93.62
435.03	84.26
435.22	0.00
435.41	28.09
435.59	105.32
435.78	70.22
435.97	102.98
436.16	0.00
436.34	28.09
436.53	28.09
436.72	37.45
436.90	42.13
437.09	60.85
437.28	86.60
437.46	4.68
437.65	0.00
437.84	16.38
438.02	65.54
438.21	21.06
438.40	0.00
438.58	63.19
438.77	114.69
438.96	16.38
439.14	84.26
439.33	35.11
439.52	72.56
439.70	37.45
439.89	107.66
440.08	88.94
440.26	7.02
440.45	72.56
440.63	53.83
440.82	44.47
441.01	39.79
441.19	2.34
441.38	2.34
441.57	0.00
441.75	0.00
441.94	72.56
442.12	93.62
442.31	93.62
442.50	100.64
442.68	49.15
442.87	46.81
443.05	0.00
443.24	79.58
443.43	133.41
443.61	102.98
443.80	39.79
443.98	100.64
444.17	74.90
444.35	23.41
444.54	60.85
444.73	112.35
444.91	30.43
445.10	53.83
445.28	23.41
445.47	7.02
445.65	49.15
445.84	58.51
446.02	0.00
446.21	117.03
446.39	102.98
446.58	21.06
446.77	81.92
446.95	56.17
447.14	35.11
447.32	25.75
447.51	23.41
447.69	72.56
447.88	58.51
448.06	30.43
448.25	88.94
448.43	56.17
448.62	32.77
448.80	93.62
448.99	9.36
449.17	98.30
449.36	65.54
449.54	35.11
449.73	56.17
449.91	67.88
450.10	72.56
450.28	117.03
450.46	88.94
450.65	91.28
450.83	51.49
451.02	16.38
451.20	16.38
451.39	35.11
451.57	107.66
451.76	70.22
451.94	35.11
452.13	35.11
452.31	72.56
452.49	53.83
452.68	37.45
452.86	0.00
453.05	30.43
453.23	0.00
453.42	0.00
453.60	93.62
453.78	25.75
453.97	16.38
454.15	51.49
454.34	88.94
454.52	42.13
454.70	107.66
454.89	112.35
455.07	37.45
455.26	53.83
455.44	23.41
455.62	0.00
455.81	56.17
455.99	9.36
456.17	58.51
456.36	0.00
456.54	98.30
456.73	67.88
456.91	46.81
457.09	16.38
457.28	105.32
457.46	53.83
457.64	58.51
457.83	86.60
458.01	72.56
458.19	49.15
458.38	70.22
458.56	16.38
458.74	65.54
458.93	14.04
459.11	93.62
459.29	42.13
459.48	25.75
459.66	56.17
459.84	53.83
460.03	0.00
460.21	18.72
460.39	53.83
460.57	147.45
460.76	105.32
460.94	119.37
461.12	60.85
461.31	72.56
461.49	126.39
461.67	88.94
461.85	98.30
462.04	35.11
462.22	81.92
462.40	81.92
462.59	65.54
462.77	0.00
462.95	60.85
463.13	77.24
463.32	86.60
463.50	112.35
463.68	98.30
463.86	30.43
464.05	37.45
464.23	30.43
464.41	2.34
464.59	42.13
464.78	84.26
464.96	72.56
465.14	112.35
465.32	107.66
465.50	53.83
465.69	72.56
465.87	44.47
466.05	53.83
466.23	93.62
466.41	81.92
466.60	95.96
466.78	28.09
466.96	49.15
467.14	72.56
467.32	58.51
467.51	30.43
467.69	4.68
467.87	0.00
468.05	0.00
468.23	147.45
468.41	86.60
468.60	53.83
468.78	28.09
468.96	32.77
469.14	60.85
469.32	77.24
469.50	81.92
469.69	91.28
469.87	0.00
470.05	56.17
470.23	16.38
470.41	79.58
470.59	0.00
470.77	79.58
470.95	56.17
471.14	84.26
471.32	84.26
471.50	110.01
471.68	81.92
471.86	53.83
472.04	65.54
472.22	16.38
472.40	30.43
472.58	88.94
472.77	35.11
472.95	14.04
473.13	70.22
473.31	25.75
473.49	42.13
473.67	60.85
473.85	86.60
474.03	49.15
474.21	46.81
474.39	37.45
474.57	16.38
474.75	84.26
474.93	35.11
475.12	39.79
475.30	44.47
475.48	0.00
475.66	37.45
475.84	0.00
476.02	7.02
476.20	11.70
476.38	65.54
476.56	100.64
476.74	142.77
476.92	30.43
477.10	81.92
477.28	32.77
477.46	77.24
477.64	53.83
477.82	70.22
478.00	98.30
478.18	51.49
478.36	16.38
478.54	128.73
478.72	30.43
478.90	131.07
479.08	37.45
479.26	112.35
479.44	65.54
479.62	32.77
479.80	63.19
479.98	105.32
480.16	37.45
480.34	114.69
480.52	39.79
480.70	0.00
480.88	25.75
481.06	67.88
481.24	21.06
481.41	72.56
481.59	105.32
481.77	58.51
481.95	79.58
482.13	107.66
482.31	117.03
482.49	56.17
482.67	138.09
482.85	18.72
483.03	138.09
483.21	95.96
483.39	0.00
483.57	91.28
483.74	110.01
483.92	98.30
484.10	77.24
484.28	37.45
484.46	102.98
484.64	100.64
484.82	7.02
485.00	4.68
485.18	110.01
485.35	112.35
485.53	117.03
485.71	35.11
485.89	23.41
486.07	32.77
486.25	117.03
486.43	102.98
486.61	117.03
486.78	74.90
486.96	32.77
487.14	18.72
487.32	147.45
487.50	51.49
487.68	91.28
487.85	133.41
488.03	147.45
488.21	30.43
488.39	91.28
488.57	121.71
488.75	88.94
488.92	81.92
489.10	58.51
489.28	67.88
489.46	131.07
489.64	121.71
489.81	35.11
489.99	81.92
490.17	4.68
490.35	126.39
490.53	60.85
490.70	72.56
490.88	166.18
491.06	114.69
491.24	119.37
491.41	42.13
491.59	56.17
491.77	88.94
491.95	100.64
492.13	0.00
492.30	93.62
492.48	35.11
492.66	49.15
492.84	70.22
493.01	65.54
493.19	39.79
493.37	93.62
493.54	63.19
493.72	86.60
493.90	39.79
494.08	46.81
494.25	110.01
494.43	42.13
494.61	65.54
494.79	166.18
494.96	95.96
495.14	72.56
495.32	74.90
495.49	86.60
495.67	56.17
495.85	105.32
496.02	86.60
496.20	39.79
496.38	131.07
496.55	65.54
496.73	110.01
496.91	84.26
497.09	98.30
497.26	126.39
497.44	81.92
497.62	86.60
497.79	72.56
497.97	51.49
498.14	102.98
498.32	67.88
498.50	49.15
498.67	84.26
498.85	37.45
499.03	98.30
499.20	60.85
499.38	105.32
499.56	32.77
499.73	128.73
499.91	128.73
500.08	11.70
500.26	147.45
500.44	86.60
500.61	65.54
500.79	65.54
500.97	23.41
501.14	58.51
501.32	102.98
501.49	58.51
501.67	56.17
501.84	95.96
502.02	102.98
502.20	107.66
502.37	93.62
502.55	138.09
502.72	28.09
502.90	53.83
503.07	86.60
503.25	117.03
503.43	37.45
503.60	107.66
503.78	65.54
503.95	156.82
504.13	102.98
504.30	91.28
504.48	128.73
504.65	39.79
504.83	133.41
505.01	0.00
505.18	14.04
505.36	102.98
505.53	81.92
505.71	110.01
505.88	63.19
506.06	79.58
506.23	100.64
506.41	67.88
506.58	49.15
506.76	124.05
506.93	114.69
507.11	35.11
507.28	28.09
507.46	107.66
507.63	42.13
507.81	121.71
507.98	107.66
508.16	14.04
508.33	79.58
508.50	95.96
508.68	58.51
508.85	58.51
509.03	93.62
509.20	74.90
509.38	56.17
509.55	56.17
509.73	156.82
509.90	67.88
510.08	42.13
510.25	131.07
510.42	95.96
510.60	95.96
510.77	46.81
510.95	93.62
511.12	119.37
511.30	79.58
511.47	79.58
511.64	77.24
511.82	105.32
511.99	72.56
512.17	93.62
512.34	72.56
512.51	93.62
512.69	39.79
512.86	72.56
513.04	65.54
513.21	98.30
513.38	30.43
513.56	95.96
513.73	63.19
513.90	46.81
514.08	67.88
514.25	79.58
514.43	49.15
514.60	119.37
514.77	30.43
514.95	107.66
515.12	84.26
515.29	79.58
515.47	102.98
515.64	100.64
515.81	93.62
515.99	70.22
516.16	46.81
516.33	23.41
516.51	0.00
516.68	32.77
516.85	60.85
517.03	46.81
517.20	100.64
517.37	58.51
517.54	93.62
517.72	51.49
517.89	16.38
518.06	100.64
518.24	126.39
518.41	102.98
518.58	28.09
518.75	39.79
518.93	49.15
519.10	177.88
519.27	107.66
519.45	0.00
519.62	74.90
519.79	145.11
519.96	60.85
520.14	147.45
520.31	135.75
520.48	124.05
520.65	74.90
520.83	42.13
521.00	2.34
521.17	105.32
521.34	65.54
521.52	39.79
521.69	114.69
521.86	32.77
522.03	131.07
522.20	133.41
522.38	9.36
522.55	53.83
522.72	32.77
522.89	49.15
523.07	42.13
523.24	124.05
523.41	46.81
523.58	42.13
523.75	70.22
523.92	0.00
524.10	72.56
524.27	159.16
524.44	46.81
524.61	30.43
524.78	65.54
524.96	63.19
525.13	112.35
525.30	131.07
525.47	51.49
525.64	159.16
525.81	119.37
525.98	44.47
526.16	161.50
526.33	98.30
526.50	74.90
526.67	42.13
526.84	56.17
527.01	14.04
527.18	53.83
527.36	53.83
527.53	133.41
527.70	70.22
527.87	77.24
528.04	74.90
528.21	81.92
528.38	189.58
528.55	88.94
528.72	81.92
528.89	30.43
529.07	35.11
529.24	114.69
529.41	93.62
529.58	79.58
529.75	93.62
529.92	140.43
530.09	79.58
530.26	100.64
530.43	81.92
530.60	63.19
530.77	149.79
530.94	124.05
531.11	81.92
531.28	37.45
531.46	25.75
531.63	46.81
531.80	114.69
531.97	53.83
532.14	86.60
532.31	49.15
532.48	63.19
532.65	98.30
532.82	86.60
532.99	107.66
533.16	53.83
533.33	102.98
533.50	60.85
533.67	110.01
533.84	138.09
534.01	124.05
534.18	117.03
534.35	88.94
534.52	49.15
534.69	21.06
534.86	107.66
535.03	32.77
535.20	124.05
535.37	93.62
535.54	124.05
535.71	72.56
535.88	95.96
536.05	77.24
536.22	37.45
536.38	0.00
536.55	58.51
536.72	88.94
536.89	112.35
537.06	0.00
537.23	110.01
537.40	131.07
537.57	100.64
537.74	93.62
537.91	70.22
538.08	131.07
538.25	98.30
538.42	56.17
538.59	70.22
538.75	72.56
538.92	72.56
539.09	86.60
539.26	107.66
539.43	79.58
539.60	133.41
539.77	0.00
539.94	107.66
540.11	124.05
540.28	145.11
540.44	112.35
540.61	88.94
540.78	44.47
540.95	81.92
541.12	102.98
541.29	147.45
541.46	110.01
541.62	81.92
541.79	72.56
541.96	28.09
542.13	110.01
542.30	102.98
542.47	119.37
542.63	79.58
542.80	77.24
542.97	110.01
543.14	84.26
543.31	51.49
543.48	114.69
543.64	72.56
543.81	56.17
543.98	117.03
544.15	49.15
544.32	126.39
544.48	56.17
544.65	46.81
544.82	93.62
544.99	121.71
545.16	4.68
545.32	102.98
545.49	51.49
545.66	112.35
545.83	93.62
546.00	95.96
546.16	60.85
546.33	98.30
546.50	25.75
546.67	112.35
546.83	65.54
547.00	58.51
547.17	7.02
547.34	65.54
547.50	77.24
547.67	18.72
547.84	56.17
548.00	63.19
548.17	67.88
548.34	0.00
548.51	65.54
548.67	98.30
548.84	131.07
549.01	100.64
549.18	60.85
549.34	63.19
549.51	105.32
549.68	60.85
549.84	112.35
550.01	39.79
550.18	121.71
550.34	65.54
550.51	86.60
550.68	124.05
550.84	91.28
551.01	65.54
551.18	142.77
551.34	65.54
551.51	98.30
551.68	23.41
551.84	37.45
552.01	110.01
552.18	86.60
552.34	49.15
552.51	70.22
552.68	88.94
552.84	65.54
553.01	67.88
553.18	79.58
553.34	56.17
553.51	9.36
553.67	30.43
553.84	128.73
554.01	98.30
554.17	53.83
554.34	84.26
554.51	28.09
554.67	65.54
554.84	163.84
555.00	88.94
555.17	77.24
555.33	53.83
555.50	126.39
555.67	74.90
555.83	65.54
556.00	102.98
556.16	117.03
556.33	0.00
556.50	11.70
556.66	30.43
556.83	16.38
556.99	37.45
557.16	107.66
557.32	110.01
557.49	9.36
557.65	81.92
557.82	60.85
557.98	102.98
558.15	74.90
558.32	65.54
558.48	131.07
558.65	121.71
558.81	58.51
558.98	117.03
559.14	72.56
559.31	119.37
559.47	74.90
559.64	107.66
559.80	110.01
559.97	93.62
560.13	138.09
560.30	56.17
560.46	51.49
560.63	105.32
560.79	72.56
560.96	163.84
561.12	56.17
561.29	140.43
561.45	44.47
561.61	88.94
561.78	79.58
561.94	95.96
562.11	88.94
562.27	72.56
562.44	88.94
562.60	110.01
562.77	84.26
562.93	149.79
563.10	84.26
563.26	98.30
563.42	114.69
563.59	72.56
563.75	44.47
563.92	138.09
564.08	86.60
564.24	110.01
564.41	98.30
564.57	46.81
564.74	56.17
564.90	182.56
565.07	72.56
565.23	81.92
565.39	95.96
565.56	28.09
565.72	102.98
565.88	100.64
566.05	79.58
566.21	53.83
566.38	133.41
566.54	58.51
566.70	42.13
566.87	46.81
567.03	58.51
567.19	102.98
567.36	131.07
567.52	131.07
567.68	46.81
567.85	81.92
568.01	117.03
568.17	9.36
568.34	2.34
568.50	42.13
568.66	65.54
568.83	133.41
568.99	56.17
569.15	9.36
569.32	67.88
569.48	65.54
569.64	35.11
569.81	138.09
569.97	63.19
570.13	102.98
570.30	88.94
570.46	98.30
570.62	114.69
570.78	77.24
570.95	72.56
571.11	95.96
571.27	114.69
571.43	86.60
571.60	81.92
571.76	102.98
571.92	86.60
572.09	140.43
572.25	42.13
572.41	53.83
572.57	35.11
572.74	100.64
572.90	86.60
573.06	44.47
573.22	100.64
573.38	93.62
573.55	121.71
573.71	18.72
573.87	56.17
574.03	77.24
574.20	74.90
574.36	86.60
574.52	110.01
574.68	163.84
574.84	121.71
575.01	131.07
575.17	70.22
575.33	133.41
575.49	91.28
575.65	7.02
575.82	86.60
575.98	72.56
576.14	95.96
576.30	102.98
576.46	28.09
576.62	44.47
576.79	53.83
576.95	86.60
577.11	32.77
577.27	88.94
577.43	131.07
577.59	72.56
577.75	124.05
577.92	72.56
578.08	72.56
578.24	56.17
578.40	60.85
578.56	131.07
578.72	128.73
578.88	42.13
579.04	84.26
579.21	145.11
579.37	18.72
579.53	84.26
579.69	88.94
579.85	88.94
580.01	42.13
580.17	156.82
580.33	138.09
580.49	173.20
580.65	95.96
580.82	70.22
580.98	25.75
581.14	51.49
581.30	84.26
581.46	79.58
581.62	58.51
581.78	93.62
581.94	18.72
582.10	60.85
582.26	102.98
582.42	21.06
582.58	86.60
582.74	149.79
582.90	46.81
583.06	44.47
583.22	88.94
583.38	117.03
583.54	74.90
583.70	18.72
583.86	58.51
584.02	81.92
584.18	93.62
584.34	77.24
584.50	117.03
584.66	112.35
584.82	72.56
584.98	65.54
585.14	84.26
585.30	56.17
585.46	95.96
585.62	37.45
585.78	114.69
585.94	49.15
586.10	79.58
586.26	9.36
586.42	88.94
586.58	56.17
586.74	58.51
586.90	100.64
587.06	25.75
587.22	102.98
587.38	79.58
587.54	58.51
587.70	65.54
587.86	23.41
588.02	0.00
588.18	2.34
588.34	60.85
588.49	79.58
588.65	93.62
588.81	102.98
588.97	53.83
589.13	117.03
589.29	60.85
589.45	9.36
589.61	84.26
589.77	84.26
589.93	28.09
590.08	112.35
590.24	84.26
590.40	30.43
590.56	30.43
590.72	140.43
590.88	42.13
591.04	138.09
591.20	91.28
591.35	77.24
591.51	100.64
591.67	72.56
591.83	70.22
591.99	0.00
592.15	0.00
592.31	9.36
592.46	67.88
592.62	0.00
592.78	9.36
592.94	42.13
593.10	98.30
593.26	95.96
593.41	126.39
593.57	60.85
593.73	100.64
593.89	100.64
594.05	51.49
594.20	70.22
594.36	79.58
594.52	56.17
594.68	72.56
594.84	81.92
594.99	51.49
595.15	60.85
595.31	51.49
595.47	4.68
595.62	110.01
595.78	124.05
595.94	91.28
596.10	49.15
596.25	93.62
596.41	133.41
596.57	11.70
596.73	81.92
596.88	49.15
597.04	51.49
597.20	21.06
597.36	51.49
597.51	65.54
597.67	84.26
597.83	119.37
597.99	88.94
598.14	42.13
598.30	110.01
598.46	23.41
598.61	102.98
598.77	91.28
598.93	49.15
599.09	126.39
599.24	84.26
599.40	93.62
599.56	63.19
599.71	42.13
599.87	86.60
600.03	110.01
600.18	65.54
600.34	154.48
600.50	93.62
600.65	110.01
600.81	91.28
600.97	95.96
601.12	28.09
601.28	105.32
601.44	49.15
601.59	93.62
601.75	86.60
601.91	142.77
602.06	30.43
602.22	138.09
602.37	124.05
602.53	46.81
602.69	156.82
602.84	11.70
603.00	88.94
603.16	112.35
603.31	37.45
603.47	133.41
603.62	51.49
603.78	49.15
603.94	49.15
604.09	93.62
604.25	60.85
604.40	51.49
604.56	53.83
604.71	79.58
604.87	105.32
605.03	63.19
605.18	81.92
605.34	93.62
605.49	63.19
605.65	32.77
605.80	105.32
605.96	72.56
606.12	77.24
606.27	30.43
606.43	77.24
606.58	100.64
606.74	152.13
606.89	65.54
607.05	72.56
607.20	4.68
607.36	25.75
607.51	84.26
607.67	126.39
607.82	86.60
607.98	93.62
608.13	100.64
608.29	93.62
608.44	121.71
608.60	135.75
608.75	44.47
608.91	84.26
609.06	37.45
609.22	16.38
609.37	0.00
609.53	0.00
609.68	53.83
609.84	74.90
609.99	37.45
610.15	58.51
610.30	63.19
610.46	100.64
610.61	91.28
610.76	107.66
610.92	74.90
611.07	23.41
611.23	74.90
611.38	60.85
611.54	135.75
611.69	65.54
611.84	28.09
612.00	79.58
612.15	53.83
612.31	77.24
612.46	63.19
612.62	93.62
612.77	58.51
612.92	121.71
613.08	135.75
613.23	70.22
613.39	0.00
613.54	56.17
613.69	86.60
613.85	91.28
614.00	79.58
614.15	30.43
614.31	88.94
614.46	67.88
614.62	93.62
614.77	35.11
614.92	0.00
615.08	67.88
615.23	98.30
615.38	77.24
615.54	42.13
615.69	11.70
615.84	49.15
616.00	133.41
616.15	140.43
616.30	35.11
616.46	74.90
616.61	0.00
616.76	88.94
616.92	126.39
617.07	25.75
617.22	49.15
617.37	86.60
617.53	49.15
617.68	114.69
617.83	56.17
617.99	51.49
618.14	126.39
618.29	86.60
618.45	95.96
618.60	93.62
618.75	91.28
618.90	46.81
619.06	53.83
619.21	98.30
619.36	88.94
619.51	67.88
619.67	72.56
619.82	98.30
619.97	65.54
620.12	35.11
620.28	105.32
620.43	65.54
620.58	70.22
620.73	112.35
620.89	128.73
621.04	63.19
621.19	28.09
621.34	86.60
621.49	32.77
621.65	53.83
621.80	56.17
621.95	91.28
622.10	119.37
622.25	86.60
622.41	28.09
622.56	58.51
622.71	107.66
622.86	56.17
623.01	91.28
623.16	117.03
623.32	124.05
623.47	42.13
623.62	74.90
623.77	88.94
623.92	74.90
624.07	30.43
624.23	100.64
624.38	128.73
624.53	58.51
624.68	11.70
624.83	81.92
624.98	28.09
625.13	0.00
625.29	44.47
625.44	53.83
625.59	18.72
625.74	18.72
625.89	107.66
626.04	74.90
626.19	46.81
626.34	119.37
626.49	39.79
626.65	0.00
626.80	7.02
626.95	93.62
627.10	35.11
627.25	131.07
627.40	7.02
627.55	7.02
627.70	65.54
627.85	58.51
628.00	32.77
628.15	39.79
628.30	65.54
628.45	63.19
628.60	7.02
628.76	117.03
628.91	74.90
629.06	42.13
629.21	74.90
629.36	25.75
629.51	86.60
629.66	32.77
629.81	86.60
629.96	65.54
630.11	138.09
630.26	44.47
630.41	93.62
630.56	0.00
630.71	58.51
630.86	7.02
631.01	63.19
631.16	88.94
631.31	46.81
631.46	39.79
631.61	42.13
631.76	65.54
631.91	37.45
632.06	42.13
632.21	16.38
632.36	28.09
632.51	79.58
632.66	46.81
632.81	42.13
632.96	79.58
633.10	0.00
633.25	84.26
633.40	39.79
633.55	0.00
633.70	91.28
633.85	79.58
634.00	58.51
634.15	124.05
634.30	124.05
634.45	28.09
634.60	7.02
634.75	53.83
634.90	2.34
635.05	32.77
635.19	91.28
635.34	44.47
635.49	138.09
635.64	56.17
635.79	0.00
635.94	58.51
636.09	70.22
636.24	112.35
636.39	63.19
636.53	100.64
636.68	79.58
636.83	53.83
636.98	74.90
637.13	39.79
637.28	18.72
637.43	23.41
637.57	84.26
637.72	128.73
637.87	70.22
638.02	0.00
638.17	117.03
638.32	72.56
638.46	98.30
638.61	23.41
638.76	46.81
638.91	60.85
639.06	42.13
639.20	49.15
639.35	58.51
639.50	102.98
639.65	58.51
639.80	25.75
639.94	98.30
640.09	28.09
640.24	121.71
640.39	32.77
640.54	81.92
640.68	39.79
640.83	25.75
640.98	46.81
641.13	84.26
641.27	67.88
641.42	9.36
641.57	0.00
641.72	28.09
641.86	25.75
642.01	42.13
642.16	56.17
642.31	107.66
642.45	117.03
642.60	93.62
642.75	28.09
642.90	30.43
643.04	56.17
643.19	93.62
643.34	110.01
643.48	67.88
643.63	74.90
643.78	39.79
643.93	121.71
644.07	0.00
644.22	28.09
644.37	2.34
644.51	126.39
644.66	65.54
644.81	51.49
644.95	2.34
645.10	16.38
645.25	56.17
645.39	32.77
645.54	102.98
645.69	16.38
645.83	9.36
645.98	42.13
646.13	7.02
646.27	74.90
646.42	9.36
646.57	60.85
646.71	21.06
646.86	98.30
647.00	25.75
647.15	0.00
647.30	84.26
647.44	133.41
647.59	23.41
647.74	100.64
647.88	32.77
648.03	49.15
648.17	30.43
648.32	46.81
648.47	107.66
648.61	39.79
648.76	72.56
648.90	77.24
649.05	0.00
649.20	25.75
649.34	88.94
649.49	0.00
649.63	100.64
649.78	72.56
649.92	56.17
650.07	95.96
650.21	42.13
650.36	49.15
650.51	131.07
650.65	44.47
650.80	119.37
650.94	0.00
651.09	35.11
651.23	28.09
651.38	39.79
651.52	0.00
651.67	49.15
651.81	51.49
651.96	81.92
652.10	49.15
652.25	51.49
652.39	74.90
652.54	42.13
652.68	21.06
652.83	42.13
652.97	88.94
653.12	14.04
653.26	39.79
653.41	152.13
653.55	112.35
653.70	81.92
653.84	100.64
653.99	65.54
654.13	16.38
654.27	46.81
654.42	65.54
654.56	35.11
654.71	53.83
654.85	102.98
655.00	166.18
655.14	53.83
655.29	117.03
655.43	49.15
655.57	98.30
655.72	28.09
655.86	51.49
656.01	16.38
656.15	16.38
656.30	46.81
656.44	39.79
656.58	86.60
656.73	11.70
656.87	2.34
657.01	25.75
657.16	32.77
657.30	67.88
657.45	84.26
657.59	7.02
657.73	44.47
657.88	23.41
658.02	63.19
658.16	95.96
658.31	84.26
658.45	84.26
658.60	0.00
658.74	70.22
658.88	77.24
659.03	0.00
659.17	149.79
659.31	0.00
659.46	23.41
659.60	44.47
659.74	98.30
659.89	37.45
660.03	30.43
660.17	60.85
660.32	119.37
660.46	51.49
660.60	39.79
660.74	70.22
660.89	42.13
661.03	77.24
661.17	72.56
661.32	44.47
661.46	86.60
661.60	2.34
661.74	51.49
661.89	0.00
662.03	98.30
662.17	42.13
662.31	37.45
662.46	56.17
662.60	63.19
662.74	58.51
662.88	112.35
663.03	35.11
663.17	0.00
663.31	93.62
663.45	0.00
663.60	58.51
663.74	74.90
663.88	77.24
664.02	117.03
664.17	28.09
664.31	28.09
664.45	37.45
664.59	140.43
664.73	124.05
664.88	93.62
665.02	79.58
665.16	56.17
665.30	147.45
665.44	21.06
665.59	21.06
665.73	0.00
665.87	4.68
666.01	77.24
666.15	16.38
666.29	93.62
666.44	28.09
666.58	42.13
666.72	42.13
666.86	46.81
667.00	44.47
667.14	37.45
667.28	0.00
667.43	44.47
667.57	49.15
667.71	7.02
667.85	60.85
667.99	112.35
668.13	58.51
668.27	67.88
668.41	44.47
668.56	49.15
668.70	65.54
668.84	74.90
668.98	14.04
669.12	86.60
669.26	28.09
669.40	63.19
669.54	74.90
669.68	30.43
669.82	0.00
669.96	100.64
670.10	67.88
670.25	74.90
670.39	93.62
670.53	63.19
670.67	14.04
670.81	84.26
670.95	42.13
671.09	30.43
671.23	23.41
671.37	51.49
671.51	25.75
671.65	98.30
671.79	58.51
671.93	77.24
672.07	21.06
672.21	11.70
672.35	11.70
672.49	0.00
672.63	79.58
672.77	49.15
672.91	72.56
673.05	4.68
673.19	53.83
673.33	37.45
673.47	81.92
673.61	23.41
673.75	28.09
673.89	72.56
674.03	0.00
674.17	100.64
674.31	60.85
674.45	74.90
674.59	44.47
674.73	110.01
674.87	0.00
675.01	0.00
675.15	84.26
675.29	28.09
675.43	114.69
675.56	56.17
675.70	65.54
675.84	28.09
675.98	49.15
676.12	0.00
676.26	9.36
676.40	70.22
676.54	46.81
676.68	23.41
676.82	28.09
676.96	77.24
677.10	28.09
677.23	14.04
677.37	42.13
677.51	81.92
677.65	58.51
677.79	56.17
677.93	18.72
678.07	70.22
678.21	95.96
678.34	0.00
678.48	84.26
678.62	117.03
678.76	81.92
678.90	53.83
679.04	0.00
679.18	37.45
679.31	0.00
679.45	0.00
679.59	95.96
679.73	44.47
679.87	0.00
680.00	60.85
680.14	28.09
680.28	28.09
680.42	74.90
680.56	0.00
680.70	30.43
680.83	156.82
680.97	32.77
681.11	44.47
681.25	0.00
681.39	105.32
681.52	28.09
681.66	100.64
681.80	46.81
681.94	28.09
682.07	39.79
682.21	0.00
682.35	21.06
682.49	46.81
682.62	30.43
682.76	70.22
682.90	7.02
683.04	102.98
683.17	65.54
683.31	18.72
683.45	65.54
683.59	9.36
683.72	28.09
683.86	51.49
684.00	58.51
684.13	9.36
684.27	25.75
684.41	46.81
684.55	51.49
684.68	11.70
684.82	72.56
684.96	32.77
685.09	21.06
685.23	49.15
685.37	4.68
685.50	25.75
685.64	0.00
685.78	0.00
685.91	79.58
686.05	117.03
686.19	2.34
686.32	28.09
686.46	46.81
686.60	25.75
686.73	49.15
686.87	28.09
687.01	0.00
687.14	0.00
687.28	7.02
687.42	46.81
687.55	14.04
687.69	39.79
687.82	46.81
687.96	0.00
688.10	11.70
688.23	58.51
688.37	72.56
688.50	49.15
688.64	63.19
688.78	30.43
688.91	105.32
689.05	16.38
689.18	42.13
689.32	32.77
689.46	70.22
689.59	49.15
689.73	0.00
689.86	46.81
690.00	49.15
690.13	42.13
690.27	42.13
690.41	67.88
690.54	67.88
690.68	117.03
690.81	63.19
690.95	37.45
691.08	18.72
691.22	32.77
691.35	98.30
691.49	63.19
691.62	53.83
691.76	44.47
691.89	0.00
692.03	9.36
692.16	84.26
692.30	60.85
692.43	60.85
692.57	23.41
692.70	0.00
692.84	28.09
692.97	30.43
693.11	0.00
693.24	84.26
693.38	124.05
693.51	58.51
693.65	18.72
693.78	11.70
693.92	114.69
694.05	72.56
694.19	100.64
694.32	46.81
694.45	84.26
694.59	79.58
694.72	14.04
694.86	56.17
694.99	67.88
695.13	11.70
695.26	30.43
695.39	100.64
695.53	51.49
695.66	14.04
695.80	32.77
695.93	72.56
696.07	16.38
696.20	0.00
696.33	9.36
696.47	126.39
696.60	37.45
696.73	0.00
696.87	37.45
697.00	98.30
697.14	84.26
697.27	63.19
697.40	51.49
697.54	65.54
697.67	70.22
697.80	131.07
697.94	21.06
698.07	51.49
698.21	72.56
698.34	49.15
698.47	77.24
698.61	23.41
698.74	37.45
698.87	0.00
699.01	30.43
699.14	79.58
699.27	0.00
699.40	74.90
699.54	81.92
699.67	35.11
699.80	0.00
699.94	23.41
700.07	110.01
700.20	46.81
700.34	0.00
700.47	23.41
700.60	114.69
700.73	39.79
700.87	23.41
701.00	49.15
701.13	42.13
701.26	2.34
701.40	39.79
701.53	49.15
701.66	60.85
701.79	100.64
701.93	53.83
702.06	65.54
702.19	35.11
702.32	39.79
702.46	11.70
702.59	60.85
702.72	35.11
702.85	105.32
702.99	114.69
703.12	56.17
703.25	72.56
703.38	37.45
703.51	30.43
703.65	51.49
703.78	0.00
703.91	53.83
704.04	0.00
704.17	28.09
704.31	0.00
704.44	72.56
704.57	30.43
704.70	11.70
704.83	0.00
704.96	0.00
705.10	77.24
705.23	65.54
>>>>>End Processed Spectral Data<<<<<
