SpectraSuite Data File
++++++++++++++++++++++++++++++++++++
Date: Fri Oct 04 12:13:44 GMT-05:00 2013
User: price-jones
Dark Spectrum Present: No
Reference Spectrum Present: No
Number of Sampled Component Spectra: 1
Spectrometers: USB2+H05261
Integration Time (usec): 10000 (USB2+H05261)
Spectra Averaged: 1 (USB2+H05261)
Boxcar Smoothing: 0 (USB2+H05261)
Correct for Electrical Dark: No (USB2+H05261)
Strobe/Lamp Enabled: No (USB2+H05261)
Correct for Detector Non-linearity: No (USB2+H05261)
Correct for Stray Light: No (USB2+H05261)
Number of Pixels in Processed Spectrum: 2048
>>>>>Begin Processed Spectral Data<<<<<
365.73	0.00
365.92	0.00
366.12	0.00
366.32	0.00
366.52	0.00
366.72	0.00
366.91	0.00
367.11	0.00
367.31	0.00
367.51	0.00
367.70	0.00
367.90	0.00
368.10	0.00
368.30	0.00
368.49	0.00
368.69	0.00
368.89	0.00
369.09	0.00
369.28	0.00
369.48	0.00
369.68	0.00
369.87	0.00
370.07	0.00
370.27	0.00
370.47	0.00
370.66	0.00
370.86	18.72
371.06	0.00
371.25	0.00
371.45	7.02
371.65	23.41
371.84	0.00
372.04	42.13
372.24	7.02
372.44	0.00
372.63	0.00
372.83	25.75
373.03	16.38
373.22	67.88
373.42	16.38
373.62	37.45
373.81	11.70
374.01	79.58
374.21	44.47
374.40	98.30
374.60	44.47
374.79	98.30
374.99	32.77
375.19	14.04
375.38	58.51
375.58	79.58
375.78	44.47
375.97	39.79
376.17	0.00
376.37	4.68
376.56	49.15
376.76	35.11
376.95	44.47
377.15	98.30
377.35	35.11
377.54	7.02
377.74	0.00
377.93	0.00
378.13	0.00
378.33	42.13
378.52	11.70
378.72	0.00
378.91	0.00
379.11	0.00
379.31	102.98
379.50	53.83
379.70	0.00
379.89	39.79
380.09	18.72
380.28	0.00
380.48	0.00
380.68	0.00
380.87	9.36
381.07	37.45
381.26	0.00
381.46	0.00
381.65	23.41
381.85	63.19
382.04	11.70
382.24	2.34
382.43	25.75
382.63	0.00
382.83	44.47
383.02	21.06
383.22	0.00
383.41	18.72
383.61	46.81
383.80	0.00
384.00	56.17
384.19	56.17
384.39	11.70
384.58	30.43
384.78	81.92
384.97	23.41
385.17	58.51
385.36	0.00
385.56	28.09
385.75	0.00
385.95	0.00
386.14	63.19
386.34	95.96
386.53	0.00
386.72	95.96
386.92	42.13
387.11	11.70
387.31	4.68
387.50	0.00
387.70	30.43
387.89	0.00
388.09	60.85
388.28	0.00
388.48	37.45
388.67	14.04
388.86	0.00
389.06	79.58
389.25	0.00
389.45	42.13
389.64	46.81
389.84	32.77
390.03	77.24
390.22	42.13
390.42	0.00
390.61	21.06
390.81	44.47
391.00	44.47
391.19	21.06
391.39	14.04
391.58	39.79
391.78	53.83
391.97	53.83
392.16	37.45
392.36	35.11
392.55	7.02
392.75	0.00
392.94	60.85
393.13	58.51
393.33	67.88
393.52	39.79
393.71	28.09
393.91	0.00
394.10	0.00
394.29	2.34
394.49	70.22
394.68	0.00
394.88	37.45
395.07	30.43
395.26	49.15
395.46	46.81
395.65	11.70
395.84	44.47
396.04	56.17
396.23	58.51
396.42	39.79
396.62	0.00
396.81	0.00
397.00	35.11
397.19	23.41
397.39	133.41
397.58	70.22
397.77	70.22
397.97	39.79
398.16	60.85
398.35	21.06
398.55	25.75
398.74	16.38
398.93	63.19
399.12	35.11
399.32	60.85
399.51	25.75
399.70	2.34
399.90	81.92
400.09	16.38
400.28	53.83
400.47	117.03
400.67	2.34
400.86	4.68
401.05	0.00
401.24	49.15
401.44	21.06
401.63	0.00
401.82	53.83
402.01	25.75
402.21	37.45
402.40	49.15
402.59	88.94
402.78	37.45
402.97	0.00
403.17	39.79
403.36	152.13
403.55	0.00
403.74	53.83
403.93	0.00
404.13	0.00
404.32	49.15
404.51	60.85
404.70	0.00
404.89	23.41
405.09	30.43
405.28	2.34
405.47	21.06
405.66	21.06
405.85	21.06
406.05	0.00
406.24	37.45
406.43	0.00
406.62	7.02
406.81	25.75
407.00	49.15
407.20	124.05
407.39	28.09
407.58	63.19
407.77	16.38
407.96	9.36
408.15	51.49
408.34	37.45
408.54	16.38
408.73	95.96
408.92	102.98
409.11	53.83
409.30	0.00
409.49	0.00
409.68	4.68
409.87	72.56
410.07	25.75
410.26	124.05
410.45	32.77
410.64	102.98
410.83	88.94
411.02	42.13
411.21	91.28
411.40	49.15
411.59	25.75
411.78	0.00
411.98	49.15
412.17	42.13
412.36	63.19
412.55	58.51
412.74	30.43
412.93	81.92
413.12	46.81
413.31	77.24
413.50	44.47
413.69	0.00
413.88	67.88
414.07	70.22
414.26	23.41
414.45	0.00
414.64	14.04
414.83	32.77
415.02	42.13
415.22	60.85
415.41	42.13
415.60	117.03
415.79	39.79
415.98	67.88
416.17	60.85
416.36	51.49
416.55	16.38
416.74	0.00
416.93	30.43
417.12	56.17
417.31	65.54
417.50	4.68
417.69	7.02
417.88	51.49
418.07	0.00
418.26	18.72
418.45	25.75
418.64	25.75
418.83	35.11
419.02	4.68
419.21	46.81
419.39	88.94
419.58	16.38
419.77	86.60
419.96	117.03
420.15	2.34
420.34	58.51
420.53	9.36
420.72	70.22
420.91	74.90
421.10	0.00
421.29	7.02
421.48	25.75
421.67	51.49
421.86	14.04
422.05	14.04
422.24	42.13
422.43	21.06
422.61	74.90
422.80	37.45
422.99	0.00
423.18	18.72
423.37	72.56
423.56	14.04
423.75	53.83
423.94	35.11
424.13	46.81
424.32	35.11
424.50	16.38
424.69	74.90
424.88	84.26
425.07	32.77
425.26	53.83
425.45	56.17
425.64	93.62
425.83	74.90
426.01	98.30
426.20	77.24
426.39	100.64
426.58	163.84
426.77	4.68
426.96	16.38
427.15	21.06
427.33	11.70
427.52	70.22
427.71	32.77
427.90	0.00
428.09	44.47
428.28	84.26
428.46	42.13
428.65	0.00
428.84	0.00
429.03	18.72
429.22	0.00
429.40	0.00
429.59	74.90
429.78	28.09
429.97	107.66
430.16	91.28
430.34	4.68
430.53	91.28
430.72	58.51
430.91	65.54
431.10	70.22
431.28	74.90
431.47	14.04
431.66	81.92
431.85	0.00
432.03	49.15
432.22	79.58
432.41	72.56
432.60	60.85
432.79	77.24
432.97	79.58
433.16	23.41
433.35	28.09
433.54	28.09
433.72	49.15
433.91	30.43
434.10	58.51
434.28	51.49
434.47	2.34
434.66	100.64
434.85	28.09
435.03	65.54
435.22	42.13
435.41	49.15
435.59	39.79
435.78	14.04
435.97	60.85
436.16	23.41
436.34	46.81
436.53	81.92
436.72	35.11
436.90	18.72
437.09	117.03
437.28	53.83
437.46	53.83
437.65	51.49
437.84	2.34
438.02	30.43
438.21	60.85
438.40	67.88
438.58	65.54
438.77	32.77
438.96	72.56
439.14	58.51
439.33	32.77
439.52	58.51
439.70	0.00
439.89	25.75
440.08	30.43
440.26	44.47
440.45	121.71
440.63	0.00
440.82	72.56
441.01	42.13
441.19	100.64
441.38	65.54
441.57	28.09
441.75	74.90
441.94	0.00
442.12	32.77
442.31	105.32
442.50	86.60
442.68	70.22
442.87	60.85
443.05	30.43
443.24	72.56
443.43	51.49
443.61	49.15
443.80	39.79
443.98	72.56
444.17	51.49
444.35	58.51
444.54	4.68
444.73	81.92
444.91	63.19
445.10	58.51
445.28	0.00
445.47	37.45
445.65	16.38
445.84	39.79
446.02	0.00
446.21	56.17
446.39	93.62
446.58	100.64
446.77	112.35
446.95	56.17
447.14	0.00
447.32	91.28
447.51	21.06
447.69	39.79
447.88	74.90
448.06	77.24
448.25	67.88
448.43	51.49
448.62	2.34
448.80	39.79
448.99	32.77
449.17	30.43
449.36	58.51
449.54	67.88
449.73	37.45
449.91	117.03
450.10	152.13
450.28	23.41
450.46	156.82
450.65	37.45
450.83	86.60
451.02	44.47
451.20	49.15
451.39	7.02
451.57	39.79
451.76	21.06
451.94	9.36
452.13	37.45
452.31	30.43
452.49	79.58
452.68	18.72
452.86	51.49
453.05	0.00
453.23	110.01
453.42	35.11
453.60	44.47
453.78	67.88
453.97	49.15
454.15	25.75
454.34	44.47
454.52	0.00
454.70	9.36
454.89	28.09
455.07	39.79
455.26	63.19
455.44	32.77
455.62	102.98
455.81	84.26
455.99	23.41
456.17	95.96
456.36	46.81
456.54	77.24
456.73	93.62
456.91	63.19
457.09	100.64
457.28	35.11
457.46	0.00
457.64	42.13
457.83	112.35
458.01	60.85
458.19	7.02
458.38	84.26
458.56	67.88
458.74	91.28
458.93	65.54
459.11	4.68
459.29	67.88
459.48	2.34
459.66	58.51
459.84	72.56
460.03	44.47
460.21	37.45
460.39	39.79
460.57	65.54
460.76	107.66
460.94	53.83
461.12	35.11
461.31	51.49
461.49	51.49
461.67	67.88
461.85	67.88
462.04	65.54
462.22	105.32
462.40	0.00
462.59	25.75
462.77	77.24
462.95	53.83
463.13	67.88
463.32	117.03
463.50	44.47
463.68	67.88
463.86	93.62
464.05	39.79
464.23	7.02
464.41	23.41
464.59	72.56
464.78	49.15
464.96	107.66
465.14	84.26
465.32	30.43
465.50	46.81
465.69	117.03
465.87	91.28
466.05	53.83
466.23	49.15
466.41	49.15
466.60	74.90
466.78	100.64
466.96	4.68
467.14	42.13
467.32	133.41
467.51	182.56
467.69	95.96
467.87	25.75
468.05	11.70
468.23	79.58
468.41	30.43
468.60	74.90
468.78	44.47
468.96	0.00
469.14	51.49
469.32	156.82
469.50	56.17
469.69	67.88
469.87	93.62
470.05	84.26
470.23	65.54
470.41	46.81
470.59	63.19
470.77	88.94
470.95	21.06
471.14	14.04
471.32	107.66
471.50	72.56
471.68	65.54
471.86	72.56
472.04	131.07
472.22	0.00
472.40	56.17
472.58	91.28
472.77	51.49
472.95	30.43
473.13	51.49
473.31	0.00
473.49	23.41
473.67	9.36
473.85	49.15
474.03	46.81
474.21	81.92
474.39	102.98
474.57	86.60
474.75	81.92
474.93	74.90
475.12	112.35
475.30	114.69
475.48	46.81
475.66	105.32
475.84	93.62
476.02	0.00
476.20	37.45
476.38	77.24
476.56	67.88
476.74	58.51
476.92	7.02
477.10	60.85
477.28	0.00
477.46	110.01
477.64	0.00
477.82	117.03
478.00	42.13
478.18	11.70
478.36	0.00
478.54	84.26
478.72	74.90
478.90	0.00
479.08	84.26
479.26	37.45
479.44	86.60
479.62	51.49
479.80	53.83
479.98	107.66
480.16	28.09
480.34	77.24
480.52	53.83
480.70	0.00
480.88	98.30
481.06	7.02
481.24	140.43
481.41	67.88
481.59	16.38
481.77	28.09
481.95	102.98
482.13	74.90
482.31	95.96
482.49	121.71
482.67	93.62
482.85	65.54
483.03	86.60
483.21	72.56
483.39	140.43
483.57	51.49
483.74	37.45
483.92	67.88
484.10	105.32
484.28	25.75
484.46	88.94
484.64	0.00
484.82	49.15
485.00	9.36
485.18	18.72
485.35	23.41
485.53	14.04
485.71	25.75
485.89	58.51
486.07	49.15
486.25	60.85
486.43	133.41
486.61	63.19
486.78	0.00
486.96	42.13
487.14	98.30
487.32	107.66
487.50	0.00
487.68	72.56
487.85	100.64
488.03	37.45
488.21	70.22
488.39	58.51
488.57	9.36
488.75	44.47
488.92	84.26
489.10	42.13
489.28	107.66
489.46	133.41
489.64	93.62
489.81	65.54
489.99	16.38
490.17	60.85
490.35	117.03
490.53	93.62
490.70	184.90
490.88	102.98
491.06	95.96
491.24	37.45
491.41	56.17
491.59	53.83
491.77	72.56
491.95	98.30
492.13	49.15
492.30	46.81
492.48	58.51
492.66	32.77
492.84	70.22
493.01	79.58
493.19	142.77
493.37	98.30
493.54	156.82
493.72	84.26
493.90	18.72
494.08	51.49
494.25	102.98
494.43	67.88
494.61	11.70
494.79	126.39
494.96	145.11
495.14	93.62
495.32	56.17
495.49	53.83
495.67	81.92
495.85	81.92
496.02	100.64
496.20	149.79
496.38	42.13
496.55	77.24
496.73	72.56
496.91	9.36
497.09	114.69
497.26	98.30
497.44	91.28
497.62	81.92
497.79	110.01
497.97	46.81
498.14	9.36
498.32	124.05
498.50	105.32
498.67	58.51
498.85	51.49
499.03	77.24
499.20	128.73
499.38	112.35
499.56	133.41
499.73	112.35
499.91	49.15
500.08	4.68
500.26	81.92
500.44	70.22
500.61	91.28
500.79	65.54
500.97	0.00
501.14	44.47
501.32	53.83
501.49	65.54
501.67	4.68
501.84	49.15
502.02	16.38
502.20	91.28
502.37	72.56
502.55	102.98
502.72	74.90
502.90	91.28
503.07	63.19
503.25	117.03
503.43	81.92
503.60	60.85
503.78	63.19
503.95	56.17
504.13	49.15
504.30	9.36
504.48	84.26
504.65	95.96
504.83	98.30
505.01	121.71
505.18	142.77
505.36	70.22
505.53	77.24
505.71	93.62
505.88	16.38
506.06	53.83
506.23	98.30
506.41	60.85
506.58	91.28
506.76	49.15
506.93	140.43
507.11	58.51
507.28	58.51
507.46	32.77
507.63	98.30
507.81	72.56
507.98	79.58
508.16	70.22
508.33	42.13
508.50	65.54
508.68	98.30
508.85	91.28
509.03	63.19
509.20	42.13
509.38	58.51
509.55	154.48
509.73	72.56
509.90	147.45
510.08	74.90
510.25	77.24
510.42	121.71
510.60	18.72
510.77	65.54
510.95	91.28
511.12	121.71
511.30	74.90
511.47	117.03
511.64	72.56
511.82	105.32
511.99	98.30
512.17	117.03
512.34	46.81
512.51	23.41
512.69	114.69
512.86	128.73
513.04	74.90
513.21	147.45
513.38	51.49
513.56	93.62
513.73	46.81
513.90	21.06
514.08	88.94
514.25	37.45
514.43	16.38
514.60	138.09
514.77	180.22
514.95	84.26
515.12	30.43
515.29	182.56
515.47	107.66
515.64	91.28
515.81	63.19
515.99	124.05
516.16	58.51
516.33	28.09
516.51	100.64
516.68	81.92
516.85	86.60
517.03	105.32
517.20	124.05
517.37	117.03
517.54	70.22
517.72	98.30
517.89	30.43
518.06	135.75
518.24	152.13
518.41	67.88
518.58	51.49
518.75	112.35
518.93	91.28
519.10	88.94
519.27	98.30
519.45	117.03
519.62	56.17
519.79	86.60
519.96	53.83
520.14	74.90
520.31	65.54
520.48	114.69
520.65	126.39
520.83	4.68
521.00	131.07
521.17	177.88
521.34	93.62
521.52	30.43
521.69	56.17
521.86	98.30
522.03	67.88
522.20	117.03
522.38	4.68
522.55	95.96
522.72	102.98
522.89	65.54
523.07	119.37
523.24	107.66
523.41	86.60
523.58	79.58
523.75	37.45
523.92	60.85
524.10	42.13
524.27	100.64
524.44	86.60
524.61	133.41
524.78	53.83
524.96	119.37
525.13	9.36
525.30	121.71
525.47	67.88
525.64	42.13
525.81	102.98
525.98	37.45
526.16	114.69
526.33	140.43
526.50	21.06
526.67	46.81
526.84	53.83
527.01	86.60
527.18	145.11
527.36	28.09
527.53	114.69
527.70	67.88
527.87	147.45
528.04	187.24
528.21	51.49
528.38	60.85
528.55	37.45
528.72	119.37
528.89	88.94
529.07	77.24
529.24	74.90
529.41	32.77
529.58	91.28
529.75	46.81
529.92	110.01
530.09	67.88
530.26	58.51
530.43	44.47
530.60	117.03
530.77	63.19
530.94	88.94
531.11	124.05
531.28	107.66
531.46	28.09
531.63	58.51
531.80	63.19
531.97	44.47
532.14	81.92
532.31	81.92
532.48	100.64
532.65	147.45
532.82	102.98
532.99	32.77
533.16	0.00
533.33	65.54
533.50	117.03
533.67	51.49
533.84	81.92
534.01	84.26
534.18	46.81
534.35	114.69
534.52	131.07
534.69	72.56
534.86	117.03
535.03	81.92
535.20	81.92
535.37	140.43
535.54	77.24
535.71	88.94
535.88	133.41
536.05	86.60
536.22	88.94
536.38	138.09
536.55	175.54
536.72	56.17
536.89	39.79
537.06	18.72
537.23	65.54
537.40	51.49
537.57	46.81
537.74	147.45
537.91	88.94
538.08	58.51
538.25	126.39
538.42	46.81
538.59	72.56
538.75	95.96
538.92	0.00
539.09	39.79
539.26	72.56
539.43	74.90
539.60	138.09
539.77	60.85
539.94	70.22
540.11	35.11
540.28	107.66
540.44	81.92
540.61	39.79
540.78	95.96
540.95	56.17
541.12	46.81
541.29	98.30
541.46	58.51
541.62	65.54
541.79	11.70
541.96	44.47
542.13	88.94
542.30	79.58
542.47	142.77
542.63	140.43
542.80	56.17
542.97	95.96
543.14	74.90
543.31	84.26
543.48	77.24
543.64	119.37
543.81	39.79
543.98	67.88
544.15	114.69
544.32	25.75
544.48	105.32
544.65	98.30
544.82	88.94
544.99	42.13
545.16	56.17
545.32	49.15
545.49	39.79
545.66	44.47
545.83	107.66
546.00	18.72
546.16	84.26
546.33	93.62
546.50	42.13
546.67	72.56
546.83	70.22
547.00	100.64
547.17	65.54
547.34	53.83
547.50	56.17
547.67	77.24
547.84	56.17
548.00	39.79
548.17	51.49
548.34	25.75
548.51	60.85
548.67	74.90
548.84	93.62
549.01	42.13
549.18	37.45
549.34	18.72
549.51	114.69
549.68	51.49
549.84	65.54
550.01	60.85
550.18	81.92
550.34	25.75
550.51	51.49
550.68	58.51
550.84	53.83
551.01	58.51
551.18	91.28
551.34	112.35
551.51	88.94
551.68	84.26
551.84	88.94
552.01	32.77
552.18	105.32
552.34	93.62
552.51	0.00
552.68	65.54
552.84	32.77
553.01	53.83
553.18	102.98
553.34	86.60
553.51	112.35
553.67	63.19
553.84	95.96
554.01	63.19
554.17	51.49
554.34	65.54
554.51	35.11
554.67	79.58
554.84	65.54
555.00	95.96
555.17	74.90
555.33	0.00
555.50	88.94
555.67	110.01
555.83	7.02
556.00	98.30
556.16	124.05
556.33	81.92
556.50	70.22
556.66	63.19
556.83	53.83
556.99	100.64
557.16	121.71
557.32	133.41
557.49	60.85
557.65	84.26
557.82	98.30
557.98	60.85
558.15	23.41
558.32	88.94
558.48	39.79
558.65	77.24
558.81	35.11
558.98	0.00
559.14	126.39
559.31	131.07
559.47	65.54
559.64	110.01
559.80	107.66
559.97	21.06
560.13	44.47
560.30	65.54
560.46	102.98
560.63	88.94
560.79	74.90
560.96	46.81
561.12	140.43
561.29	42.13
561.45	49.15
561.61	37.45
561.78	81.92
561.94	53.83
562.11	88.94
562.27	95.96
562.44	86.60
562.60	77.24
562.77	65.54
562.93	74.90
563.10	79.58
563.26	58.51
563.42	95.96
563.59	88.94
563.75	84.26
563.92	86.60
564.08	70.22
564.24	95.96
564.41	84.26
564.57	145.11
564.74	98.30
564.90	121.71
565.07	121.71
565.23	0.00
565.39	93.62
565.56	81.92
565.72	79.58
565.88	42.13
566.05	88.94
566.21	56.17
566.38	60.85
566.54	70.22
566.70	91.28
566.87	72.56
567.03	84.26
567.19	140.43
567.36	135.75
567.52	93.62
567.68	14.04
567.85	105.32
568.01	93.62
568.17	105.32
568.34	100.64
568.50	124.05
568.66	32.77
568.83	56.17
568.99	51.49
569.15	86.60
569.32	72.56
569.48	102.98
569.64	74.90
569.81	72.56
569.97	95.96
570.13	149.79
570.30	79.58
570.46	128.73
570.62	95.96
570.78	58.51
570.95	44.47
571.11	100.64
571.27	131.07
571.43	72.56
571.60	121.71
571.76	114.69
571.92	93.62
572.09	23.41
572.25	28.09
572.41	100.64
572.57	70.22
572.74	60.85
572.90	100.64
573.06	65.54
573.22	84.26
573.38	81.92
573.55	67.88
573.71	65.54
573.87	177.88
574.03	23.41
574.20	28.09
574.36	49.15
574.52	9.36
574.68	60.85
574.84	119.37
575.01	0.00
575.17	63.19
575.33	60.85
575.49	18.72
575.65	72.56
575.82	86.60
575.98	124.05
576.14	32.77
576.30	37.45
576.46	98.30
576.62	16.38
576.79	112.35
576.95	107.66
577.11	60.85
577.27	72.56
577.43	0.00
577.59	112.35
577.75	0.00
577.92	102.98
578.08	70.22
578.24	72.56
578.40	91.28
578.56	56.17
578.72	53.83
578.88	37.45
579.04	100.64
579.21	35.11
579.37	0.00
579.53	77.24
579.69	7.02
579.85	124.05
580.01	149.79
580.17	86.60
580.33	51.49
580.49	112.35
580.65	63.19
580.82	112.35
580.98	91.28
581.14	79.58
581.30	44.47
581.46	93.62
581.62	58.51
581.78	105.32
581.94	88.94
582.10	51.49
582.26	30.43
582.42	0.00
582.58	79.58
582.74	39.79
582.90	91.28
583.06	79.58
583.22	67.88
583.38	39.79
583.54	42.13
583.70	110.01
583.86	84.26
584.02	23.41
584.18	121.71
584.34	65.54
584.50	56.17
584.66	110.01
584.82	0.00
584.98	32.77
585.14	65.54
585.30	72.56
585.46	30.43
585.62	74.90
585.78	60.85
585.94	56.17
586.10	126.39
586.26	98.30
586.42	98.30
586.58	60.85
586.74	53.83
586.90	70.22
587.06	95.96
587.22	37.45
587.38	60.85
587.54	79.58
587.70	91.28
587.86	11.70
588.02	25.75
588.18	72.56
588.34	39.79
588.49	21.06
588.65	42.13
588.81	72.56
588.97	46.81
589.13	9.36
589.29	93.62
589.45	98.30
589.61	32.77
589.77	95.96
589.93	81.92
590.08	42.13
590.24	105.32
590.40	49.15
590.56	56.17
590.72	67.88
590.88	74.90
591.04	28.09
591.20	79.58
591.35	126.39
591.51	86.60
591.67	53.83
591.83	7.02
591.99	51.49
592.15	117.03
592.31	72.56
592.46	46.81
592.62	133.41
592.78	51.49
592.94	72.56
593.10	14.04
593.26	72.56
593.41	79.58
593.57	46.81
593.73	117.03
593.89	14.04
594.05	138.09
594.20	65.54
594.36	100.64
594.52	58.51
594.68	9.36
594.84	0.00
594.99	131.07
595.15	28.09
595.31	37.45
595.47	149.79
595.62	114.69
595.78	105.32
595.94	44.47
596.10	67.88
596.25	72.56
596.41	63.19
596.57	0.00
596.73	110.01
596.88	14.04
597.04	70.22
597.20	88.94
597.36	51.49
597.51	95.96
597.67	84.26
597.83	117.03
597.99	44.47
598.14	44.47
598.30	30.43
598.46	95.96
598.61	124.05
598.77	60.85
598.93	91.28
599.09	70.22
599.24	84.26
599.40	39.79
599.56	79.58
599.71	98.30
599.87	44.47
600.03	44.47
600.18	170.86
600.34	16.38
600.50	60.85
600.65	67.88
600.81	119.37
600.97	65.54
601.12	126.39
601.28	95.96
601.44	46.81
601.59	63.19
601.75	4.68
601.91	74.90
602.06	56.17
602.22	42.13
602.37	58.51
602.53	79.58
602.69	86.60
602.84	42.13
603.00	51.49
603.16	79.58
603.31	88.94
603.47	117.03
603.62	65.54
603.78	63.19
603.94	35.11
604.09	110.01
604.25	56.17
604.40	117.03
604.56	117.03
604.71	72.56
604.87	42.13
605.03	25.75
605.18	91.28
605.34	74.90
605.49	79.58
605.65	2.34
605.80	28.09
605.96	107.66
606.12	74.90
606.27	46.81
606.43	11.70
606.58	86.60
606.74	65.54
606.89	37.45
607.05	37.45
607.20	91.28
607.36	46.81
607.51	11.70
607.67	95.96
607.82	70.22
607.98	46.81
608.13	86.60
608.29	39.79
608.44	35.11
608.60	46.81
608.75	37.45
608.91	4.68
609.06	42.13
609.22	177.88
609.37	42.13
609.53	74.90
609.68	44.47
609.84	86.60
609.99	98.30
610.15	9.36
610.30	135.75
610.46	128.73
610.61	110.01
610.76	51.49
610.92	77.24
611.07	74.90
611.23	42.13
611.38	7.02
611.54	18.72
611.69	53.83
611.84	110.01
612.00	32.77
612.15	32.77
612.31	37.45
612.46	112.35
612.62	42.13
612.77	21.06
612.92	56.17
613.08	95.96
613.23	37.45
613.39	159.16
613.54	0.00
613.69	49.15
613.85	28.09
614.00	42.13
614.15	51.49
614.31	7.02
614.46	77.24
614.62	39.79
614.77	44.47
614.92	21.06
615.08	18.72
615.23	60.85
615.38	35.11
615.54	67.88
615.69	63.19
615.84	65.54
616.00	98.30
616.15	53.83
616.30	105.32
616.46	79.58
616.61	42.13
616.76	42.13
616.92	84.26
617.07	23.41
617.22	0.00
617.37	21.06
617.53	70.22
617.68	63.19
617.83	67.88
617.99	23.41
618.14	100.64
618.29	70.22
618.45	112.35
618.60	70.22
618.75	67.88
618.90	86.60
619.06	88.94
619.21	21.06
619.36	149.79
619.51	95.96
619.67	119.37
619.82	84.26
619.97	63.19
620.12	46.81
620.28	14.04
620.43	86.60
620.58	37.45
620.73	51.49
620.89	60.85
621.04	107.66
621.19	119.37
621.34	100.64
621.49	77.24
621.65	91.28
621.80	51.49
621.95	49.15
622.10	49.15
622.25	0.00
622.41	9.36
622.56	102.98
622.71	49.15
622.86	37.45
623.01	77.24
623.16	112.35
623.32	93.62
623.47	25.75
623.62	88.94
623.77	121.71
623.92	95.96
624.07	42.13
624.23	0.00
624.38	53.83
624.53	25.75
624.68	63.19
624.83	65.54
624.98	53.83
625.13	63.19
625.29	107.66
625.44	25.75
625.59	49.15
625.74	56.17
625.89	0.00
626.04	25.75
626.19	58.51
626.34	53.83
626.49	63.19
626.65	95.96
626.80	21.06
626.95	0.00
627.10	72.56
627.25	2.34
627.40	93.62
627.55	14.04
627.70	77.24
627.85	70.22
628.00	121.71
628.15	0.00
628.30	0.00
628.45	42.13
628.60	51.49
628.76	67.88
628.91	58.51
629.06	53.83
629.21	49.15
629.36	44.47
629.51	72.56
629.66	91.28
629.81	56.17
629.96	11.70
630.11	77.24
630.26	37.45
630.41	77.24
630.56	77.24
630.71	30.43
630.86	42.13
631.01	119.37
631.16	58.51
631.31	42.13
631.46	23.41
631.61	0.00
631.76	0.00
631.91	58.51
632.06	32.77
632.21	42.13
632.36	84.26
632.51	77.24
632.66	67.88
632.81	30.43
632.96	30.43
633.10	18.72
633.25	72.56
633.40	60.85
633.55	35.11
633.70	102.98
633.85	28.09
634.00	112.35
634.15	25.75
634.30	4.68
634.45	53.83
634.60	88.94
634.75	63.19
634.90	49.15
635.05	25.75
635.19	105.32
635.34	51.49
635.49	0.00
635.64	88.94
635.79	11.70
635.94	79.58
636.09	60.85
636.24	30.43
636.39	11.70
636.53	67.88
636.68	51.49
636.83	11.70
636.98	65.54
637.13	28.09
637.28	79.58
637.43	39.79
637.57	35.11
637.72	53.83
637.87	4.68
638.02	9.36
638.17	42.13
638.32	32.77
638.46	65.54
638.61	60.85
638.76	0.00
638.91	30.43
639.06	74.90
639.20	42.13
639.35	28.09
639.50	107.66
639.65	30.43
639.80	77.24
639.94	81.92
640.09	128.73
640.24	86.60
640.39	95.96
640.54	84.26
640.68	37.45
640.83	0.00
640.98	11.70
641.13	100.64
641.27	58.51
641.42	46.81
641.57	107.66
641.72	72.56
641.86	0.00
642.01	60.85
642.16	110.01
642.31	65.54
642.45	44.47
642.60	112.35
642.75	37.45
642.90	86.60
643.04	77.24
643.19	0.00
643.34	74.90
643.48	67.88
643.63	30.43
643.78	53.83
643.93	67.88
644.07	42.13
644.22	58.51
644.37	77.24
644.51	21.06
644.66	16.38
644.81	98.30
644.95	72.56
645.10	9.36
645.25	53.83
645.39	7.02
645.54	56.17
645.69	110.01
645.83	25.75
645.98	100.64
646.13	18.72
646.27	18.72
646.42	4.68
646.57	44.47
646.71	100.64
646.86	39.79
647.00	58.51
647.15	53.83
647.30	28.09
647.44	79.58
647.59	0.00
647.74	49.15
647.88	65.54
648.03	102.98
648.17	77.24
648.32	0.00
648.47	42.13
648.61	11.70
648.76	98.30
648.90	0.00
649.05	0.00
649.20	65.54
649.34	46.81
649.49	30.43
649.63	37.45
649.78	58.51
649.92	56.17
650.07	93.62
650.21	105.32
650.36	112.35
650.51	32.77
650.65	74.90
650.80	25.75
650.94	16.38
651.09	91.28
651.23	30.43
651.38	100.64
651.52	21.06
651.67	70.22
651.81	30.43
651.96	0.00
652.10	70.22
652.25	51.49
652.39	84.26
652.54	67.88
652.68	0.00
652.83	32.77
652.97	74.90
653.12	30.43
653.26	14.04
653.41	117.03
653.55	7.02
653.70	2.34
653.84	119.37
653.99	74.90
654.13	72.56
654.27	39.79
654.42	42.13
654.56	51.49
654.71	28.09
654.85	95.96
655.00	70.22
655.14	63.19
655.29	70.22
655.43	0.00
655.57	53.83
655.72	81.92
655.86	117.03
656.01	95.96
656.15	23.41
656.30	93.62
656.44	0.00
656.58	70.22
656.73	0.00
656.87	35.11
657.01	18.72
657.16	105.32
657.30	74.90
657.45	11.70
657.59	11.70
657.73	42.13
657.88	18.72
658.02	56.17
658.16	60.85
658.31	100.64
658.45	0.00
658.60	114.69
658.74	46.81
658.88	74.90
659.03	79.58
659.17	0.00
659.31	42.13
659.46	0.00
659.60	58.51
659.74	35.11
659.89	39.79
660.03	23.41
660.17	102.98
660.32	14.04
660.46	100.64
660.60	67.88
660.74	58.51
660.89	74.90
661.03	77.24
661.17	79.58
661.32	91.28
661.46	100.64
661.60	39.79
661.74	16.38
661.89	51.49
662.03	72.56
662.17	7.02
662.31	23.41
662.46	56.17
662.60	53.83
662.74	84.26
662.88	112.35
663.03	7.02
663.17	74.90
663.31	60.85
663.45	63.19
663.60	30.43
663.74	0.00
663.88	37.45
664.02	0.00
664.17	53.83
664.31	74.90
664.45	84.26
664.59	159.16
664.73	102.98
664.88	39.79
665.02	51.49
665.16	58.51
665.30	86.60
665.44	7.02
665.59	2.34
665.73	81.92
665.87	95.96
666.01	88.94
666.15	51.49
666.29	91.28
666.44	44.47
666.58	56.17
666.72	28.09
666.86	30.43
667.00	49.15
667.14	91.28
667.28	140.43
667.43	18.72
667.57	42.13
667.71	0.00
667.85	0.00
667.99	58.51
668.13	72.56
668.27	46.81
668.41	7.02
668.56	23.41
668.70	65.54
668.84	0.00
668.98	4.68
669.12	84.26
669.26	70.22
669.40	72.56
669.54	60.85
669.68	0.00
669.82	0.00
669.96	44.47
670.10	0.00
670.25	49.15
670.39	39.79
670.53	53.83
670.67	37.45
670.81	37.45
670.95	56.17
671.09	58.51
671.23	95.96
671.37	60.85
671.51	60.85
671.65	23.41
671.79	42.13
671.93	70.22
672.07	56.17
672.21	46.81
672.35	11.70
672.49	37.45
672.63	72.56
672.77	9.36
672.91	72.56
673.05	100.64
673.19	9.36
673.33	37.45
673.47	18.72
673.61	46.81
673.75	0.00
673.89	79.58
674.03	32.77
674.17	23.41
674.31	28.09
674.45	9.36
674.59	77.24
674.73	86.60
674.87	79.58
675.01	49.15
675.15	88.94
675.29	35.11
675.43	56.17
675.56	21.06
675.70	0.00
675.84	56.17
675.98	35.11
676.12	58.51
676.26	56.17
676.40	44.47
676.54	51.49
676.68	25.75
676.82	124.05
676.96	53.83
677.10	60.85
677.23	44.47
677.37	28.09
677.51	16.38
677.65	0.00
677.79	32.77
677.93	49.15
678.07	39.79
678.21	105.32
678.34	25.75
678.48	0.00
678.62	0.00
678.76	0.00
678.90	0.00
679.04	95.96
679.18	53.83
679.31	65.54
679.45	42.13
679.59	28.09
679.73	0.00
679.87	39.79
680.00	11.70
680.14	18.72
680.28	21.06
680.42	72.56
680.56	46.81
680.70	37.45
680.83	49.15
680.97	74.90
681.11	0.00
681.25	0.00
681.39	74.90
681.52	63.19
681.66	53.83
681.80	16.38
681.94	117.03
682.07	56.17
682.21	58.51
682.35	30.43
682.49	2.34
682.62	81.92
682.76	46.81
682.90	9.36
683.04	30.43
683.17	46.81
683.31	44.47
683.45	30.43
683.59	63.19
683.72	67.88
683.86	88.94
684.00	60.85
684.13	56.17
684.27	32.77
684.41	67.88
684.55	58.51
684.68	72.56
684.82	32.77
684.96	37.45
685.09	35.11
685.23	49.15
685.37	39.79
685.50	67.88
685.64	37.45
685.78	25.75
685.91	39.79
686.05	81.92
686.19	0.00
686.32	39.79
686.46	0.00
686.60	28.09
686.73	0.00
686.87	0.00
687.01	35.11
687.14	63.19
687.28	0.00
687.42	16.38
687.55	0.00
687.69	0.00
687.82	81.92
687.96	67.88
688.10	60.85
688.23	65.54
688.37	65.54
688.50	70.22
688.64	32.77
688.78	56.17
688.91	2.34
689.05	37.45
689.18	11.70
689.32	0.00
689.46	23.41
689.59	131.07
689.73	44.47
689.86	65.54
690.00	23.41
690.13	0.00
690.27	63.19
690.41	0.00
690.54	9.36
690.68	0.00
690.81	56.17
690.95	0.00
691.08	58.51
691.22	65.54
691.35	93.62
691.49	67.88
691.62	18.72
691.76	60.85
691.89	9.36
692.03	0.00
692.16	23.41
692.30	39.79
692.43	25.75
692.57	32.77
692.70	56.17
692.84	37.45
692.97	28.09
693.11	4.68
693.24	21.06
693.38	0.00
693.51	46.81
693.65	0.00
693.78	39.79
693.92	32.77
694.05	7.02
694.19	30.43
694.32	42.13
694.45	4.68
694.59	117.03
694.72	0.00
694.86	56.17
694.99	51.49
695.13	53.83
695.26	0.00
695.39	49.15
695.53	91.28
695.66	67.88
695.80	77.24
695.93	28.09
696.07	35.11
696.20	28.09
696.33	18.72
696.47	30.43
696.60	79.58
696.73	30.43
696.87	4.68
697.00	65.54
697.14	0.00
697.27	25.75
697.40	60.85
697.54	65.54
697.67	0.00
697.80	30.43
697.94	7.02
698.07	23.41
698.21	21.06
698.34	39.79
698.47	39.79
698.61	49.15
698.74	39.79
698.87	51.49
699.01	0.00
699.14	65.54
699.27	124.05
699.40	105.32
699.54	74.90
699.67	63.19
699.80	93.62
699.94	56.17
700.07	14.04
700.20	11.70
700.34	84.26
700.47	58.51
700.60	9.36
700.73	44.47
700.87	0.00
701.00	23.41
701.13	46.81
701.26	37.45
701.40	21.06
701.53	37.45
701.66	28.09
701.79	23.41
701.93	42.13
702.06	18.72
702.19	44.47
702.32	70.22
702.46	21.06
702.59	46.81
702.72	53.83
702.85	37.45
702.99	0.00
703.12	0.00
703.25	44.47
703.38	37.45
703.51	44.47
703.65	23.41
703.78	0.00
703.91	74.90
704.04	53.83
704.17	72.56
704.31	0.00
704.44	53.83
704.57	70.22
704.70	14.04
704.83	35.11
704.96	23.41
705.10	65.54
705.23	56.17
>>>>>End Processed Spectral Data<<<<<
