SpectraSuite Data File
++++++++++++++++++++++++++++++++++++
Date: Fri Oct 04 12:13:32 GMT-05:00 2013
User: price-jones
Dark Spectrum Present: No
Reference Spectrum Present: No
Number of Sampled Component Spectra: 1
Spectrometers: USB2+H05261
Integration Time (usec): 10000 (USB2+H05261)
Spectra Averaged: 1 (USB2+H05261)
Boxcar Smoothing: 0 (USB2+H05261)
Correct for Electrical Dark: No (USB2+H05261)
Strobe/Lamp Enabled: No (USB2+H05261)
Correct for Detector Non-linearity: No (USB2+H05261)
Correct for Stray Light: No (USB2+H05261)
Number of Pixels in Processed Spectrum: 2048
>>>>>Begin Processed Spectral Data<<<<<
365.73	0.00
365.92	0.00
366.12	0.00
366.32	0.00
366.52	0.00
366.72	0.00
366.91	0.00
367.11	0.00
367.31	0.00
367.51	0.00
367.70	0.00
367.90	0.00
368.10	0.00
368.30	0.00
368.49	0.00
368.69	0.00
368.89	0.00
369.09	0.00
369.28	0.00
369.48	0.00
369.68	0.00
369.87	0.00
370.07	0.00
370.27	0.00
370.47	0.00
370.66	0.00
370.86	0.00
371.06	0.00
371.25	0.00
371.45	7.02
371.65	32.77
371.84	0.00
372.04	0.00
372.24	0.00
372.44	0.00
372.63	58.51
372.83	0.00
373.03	16.38
373.22	7.02
373.42	81.92
373.62	23.41
373.81	42.13
374.01	79.58
374.21	32.77
374.40	0.00
374.60	0.00
374.79	25.75
374.99	16.38
375.19	65.54
375.38	0.00
375.58	77.24
375.78	65.54
375.97	74.90
376.17	46.81
376.37	37.45
376.56	0.00
376.76	9.36
376.95	14.04
377.15	0.00
377.35	81.92
377.54	72.56
377.74	0.00
377.93	30.43
378.13	25.75
378.33	16.38
378.52	0.00
378.72	51.49
378.91	25.75
379.11	21.06
379.31	25.75
379.50	98.30
379.70	25.75
379.89	23.41
380.09	35.11
380.28	58.51
380.48	37.45
380.68	60.85
380.87	7.02
381.07	0.00
381.26	16.38
381.46	0.00
381.65	35.11
381.85	18.72
382.04	79.58
382.24	0.00
382.43	39.79
382.63	0.00
382.83	0.00
383.02	46.81
383.22	2.34
383.41	0.00
383.61	35.11
383.80	0.00
384.00	39.79
384.19	44.47
384.39	95.96
384.58	7.02
384.78	0.00
384.97	30.43
385.17	18.72
385.36	18.72
385.56	72.56
385.75	81.92
385.95	37.45
386.14	32.77
386.34	44.47
386.53	0.00
386.72	49.15
386.92	14.04
387.11	0.00
387.31	16.38
387.50	46.81
387.70	0.00
387.89	0.00
388.09	0.00
388.28	18.72
388.48	98.30
388.67	0.00
388.86	0.00
389.06	25.75
389.25	74.90
389.45	42.13
389.64	0.00
389.84	0.00
390.03	77.24
390.22	7.02
390.42	79.58
390.61	65.54
390.81	25.75
391.00	119.37
391.19	30.43
391.39	53.83
391.58	0.00
391.78	18.72
391.97	42.13
392.16	9.36
392.36	0.00
392.55	23.41
392.75	74.90
392.94	84.26
393.13	0.00
393.33	0.00
393.52	28.09
393.71	16.38
393.91	49.15
394.10	18.72
394.29	21.06
394.49	65.54
394.68	81.92
394.88	30.43
395.07	30.43
395.26	51.49
395.46	72.56
395.65	0.00
395.84	0.00
396.04	25.75
396.23	14.04
396.42	30.43
396.62	0.00
396.81	56.17
397.00	42.13
397.19	53.83
397.39	30.43
397.58	72.56
397.77	11.70
397.97	35.11
398.16	18.72
398.35	0.00
398.55	30.43
398.74	42.13
398.93	63.19
399.12	2.34
399.32	0.00
399.51	39.79
399.70	58.51
399.90	2.34
400.09	0.00
400.28	98.30
400.47	72.56
400.67	0.00
400.86	2.34
401.05	21.06
401.24	2.34
401.44	67.88
401.63	44.47
401.82	32.77
402.01	32.77
402.21	60.85
402.40	0.00
402.59	0.00
402.78	14.04
402.97	110.01
403.17	0.00
403.36	7.02
403.55	0.00
403.74	16.38
403.93	0.00
404.13	0.00
404.32	23.41
404.51	117.03
404.70	0.00
404.89	0.00
405.09	56.17
405.28	67.88
405.47	37.45
405.66	30.43
405.85	39.79
406.05	0.00
406.24	91.28
406.43	0.00
406.62	49.15
406.81	28.09
407.00	0.00
407.20	0.00
407.39	46.81
407.58	30.43
407.77	49.15
407.96	42.13
408.15	9.36
408.34	18.72
408.54	0.00
408.73	145.11
408.92	79.58
409.11	70.22
409.30	105.32
409.49	58.51
409.68	58.51
409.87	32.77
410.07	102.98
410.26	44.47
410.45	18.72
410.64	37.45
410.83	0.00
411.02	0.00
411.21	16.38
411.40	18.72
411.59	23.41
411.78	0.00
411.98	18.72
412.17	0.00
412.36	4.68
412.55	0.00
412.74	21.06
412.93	39.79
413.12	7.02
413.31	51.49
413.50	42.13
413.69	25.75
413.88	79.58
414.07	0.00
414.26	32.77
414.45	0.00
414.64	84.26
414.83	9.36
415.02	86.60
415.22	46.81
415.41	4.68
415.60	0.00
415.79	30.43
415.98	25.75
416.17	117.03
416.36	18.72
416.55	58.51
416.74	28.09
416.93	23.41
417.12	32.77
417.31	72.56
417.50	7.02
417.69	70.22
417.88	77.24
418.07	32.77
418.26	11.70
418.45	0.00
418.64	30.43
418.83	37.45
419.02	58.51
419.21	16.38
419.39	32.77
419.58	30.43
419.77	21.06
419.96	14.04
420.15	42.13
420.34	21.06
420.53	88.94
420.72	0.00
420.91	14.04
421.10	25.75
421.29	72.56
421.48	7.02
421.67	81.92
421.86	42.13
422.05	65.54
422.24	0.00
422.43	63.19
422.61	49.15
422.80	32.77
422.99	51.49
423.18	51.49
423.37	60.85
423.56	58.51
423.75	49.15
423.94	60.85
424.13	9.36
424.32	0.00
424.50	18.72
424.69	72.56
424.88	0.00
425.07	0.00
425.26	9.36
425.45	65.54
425.64	25.75
425.83	0.00
426.01	0.00
426.20	28.09
426.39	0.00
426.58	28.09
426.77	25.75
426.96	42.13
427.15	58.51
427.33	14.04
427.52	28.09
427.71	0.00
427.90	0.00
428.09	56.17
428.28	39.79
428.46	65.54
428.65	46.81
428.84	79.58
429.03	0.00
429.22	77.24
429.40	0.00
429.59	0.00
429.78	51.49
429.97	65.54
430.16	4.68
430.34	25.75
430.53	39.79
430.72	30.43
430.91	0.00
431.10	91.28
431.28	0.00
431.47	18.72
431.66	11.70
431.85	0.00
432.03	0.00
432.22	63.19
432.41	14.04
432.60	67.88
432.79	0.00
432.97	37.45
433.16	0.00
433.35	35.11
433.54	53.83
433.72	49.15
433.91	14.04
434.10	18.72
434.28	67.88
434.47	28.09
434.66	32.77
434.85	51.49
435.03	0.00
435.22	110.01
435.41	23.41
435.59	14.04
435.78	53.83
435.97	30.43
436.16	58.51
436.34	0.00
436.53	72.56
436.72	18.72
436.90	11.70
437.09	21.06
437.28	18.72
437.46	58.51
437.65	67.88
437.84	53.83
438.02	9.36
438.21	65.54
438.40	21.06
438.58	44.47
438.77	9.36
438.96	77.24
439.14	42.13
439.33	0.00
439.52	0.00
439.70	0.00
439.89	9.36
440.08	35.11
440.26	4.68
440.45	72.56
440.63	9.36
440.82	70.22
441.01	0.00
441.19	39.79
441.38	23.41
441.57	51.49
441.75	131.07
441.94	56.17
442.12	105.32
442.31	95.96
442.50	0.00
442.68	21.06
442.87	37.45
443.05	30.43
443.24	0.00
443.43	74.90
443.61	0.00
443.80	37.45
443.98	42.13
444.17	39.79
444.35	2.34
444.54	53.83
444.73	63.19
444.91	79.58
445.10	21.06
445.28	46.81
445.47	81.92
445.65	107.66
445.84	39.79
446.02	74.90
446.21	58.51
446.39	37.45
446.58	60.85
446.77	42.13
446.95	0.00
447.14	84.26
447.32	32.77
447.51	39.79
447.69	16.38
447.88	7.02
448.06	35.11
448.25	46.81
448.43	11.70
448.62	28.09
448.80	16.38
448.99	44.47
449.17	23.41
449.36	79.58
449.54	65.54
449.73	65.54
449.91	18.72
450.10	37.45
450.28	21.06
450.46	18.72
450.65	21.06
450.83	0.00
451.02	63.19
451.20	37.45
451.39	9.36
451.57	30.43
451.76	0.00
451.94	46.81
452.13	44.47
452.31	58.51
452.49	105.32
452.68	28.09
452.86	56.17
453.05	0.00
453.23	25.75
453.42	56.17
453.60	49.15
453.78	0.00
453.97	21.06
454.15	60.85
454.34	0.00
454.52	23.41
454.70	30.43
454.89	63.19
455.07	72.56
455.26	74.90
455.44	0.00
455.62	23.41
455.81	9.36
455.99	30.43
456.17	58.51
456.36	74.90
456.54	37.45
456.73	28.09
456.91	77.24
457.09	42.13
457.28	25.75
457.46	21.06
457.64	0.00
457.83	23.41
458.01	37.45
458.19	60.85
458.38	77.24
458.56	4.68
458.74	4.68
458.93	7.02
459.11	60.85
459.29	23.41
459.48	46.81
459.66	25.75
459.84	65.54
460.03	60.85
460.21	37.45
460.39	32.77
460.57	72.56
460.76	53.83
460.94	0.00
461.12	18.72
461.31	63.19
461.49	42.13
461.67	46.81
461.85	0.00
462.04	56.17
462.22	60.85
462.40	18.72
462.59	2.34
462.77	81.92
462.95	77.24
463.13	93.62
463.32	60.85
463.50	49.15
463.68	46.81
463.86	11.70
464.05	39.79
464.23	72.56
464.41	39.79
464.59	30.43
464.78	0.00
464.96	79.58
465.14	4.68
465.32	44.47
465.50	28.09
465.69	98.30
465.87	46.81
466.05	7.02
466.23	0.00
466.41	39.79
466.60	37.45
466.78	0.00
466.96	44.47
467.14	0.00
467.32	25.75
467.51	147.45
467.69	4.68
467.87	84.26
468.05	42.13
468.23	9.36
468.41	0.00
468.60	32.77
468.78	0.00
468.96	23.41
469.14	79.58
469.32	23.41
469.50	60.85
469.69	30.43
469.87	23.41
470.05	0.00
470.23	53.83
470.41	28.09
470.59	39.79
470.77	37.45
470.95	0.00
471.14	117.03
471.32	49.15
471.50	51.49
471.68	0.00
471.86	77.24
472.04	37.45
472.22	0.00
472.40	23.41
472.58	7.02
472.77	35.11
472.95	0.00
473.13	70.22
473.31	88.94
473.49	0.00
473.67	32.77
473.85	21.06
474.03	7.02
474.21	18.72
474.39	0.00
474.57	23.41
474.75	16.38
474.93	0.00
475.12	114.69
475.30	46.81
475.48	114.69
475.66	84.26
475.84	60.85
476.02	119.37
476.20	37.45
476.38	42.13
476.56	79.58
476.74	2.34
476.92	0.00
477.10	102.98
477.28	74.90
477.46	56.17
477.64	21.06
477.82	16.38
478.00	42.13
478.18	18.72
478.36	56.17
478.54	67.88
478.72	51.49
478.90	11.70
479.08	49.15
479.26	28.09
479.44	11.70
479.62	35.11
479.80	18.72
479.98	0.00
480.16	49.15
480.34	70.22
480.52	51.49
480.70	65.54
480.88	102.98
481.06	21.06
481.24	0.00
481.41	60.85
481.59	93.62
481.77	0.00
481.95	44.47
482.13	77.24
482.31	0.00
482.49	72.56
482.67	37.45
482.85	25.75
483.03	72.56
483.21	23.41
483.39	63.19
483.57	0.00
483.74	56.17
483.92	30.43
484.10	0.00
484.28	14.04
484.46	0.00
484.64	9.36
484.82	49.15
485.00	86.60
485.18	0.00
485.35	126.39
485.53	53.83
485.71	49.15
485.89	42.13
486.07	86.60
486.25	51.49
486.43	0.00
486.61	0.00
486.78	79.58
486.96	0.00
487.14	65.54
487.32	110.01
487.50	11.70
487.68	65.54
487.85	25.75
488.03	39.79
488.21	51.49
488.39	21.06
488.57	58.51
488.75	37.45
488.92	56.17
489.10	0.00
489.28	110.01
489.46	51.49
489.64	25.75
489.81	35.11
489.99	58.51
490.17	0.00
490.35	30.43
490.53	0.00
490.70	149.79
490.88	37.45
491.06	42.13
491.24	7.02
491.41	32.77
491.59	58.51
491.77	21.06
491.95	30.43
492.13	44.47
492.30	23.41
492.48	0.00
492.66	49.15
492.84	65.54
493.01	98.30
493.19	44.47
493.37	0.00
493.54	16.38
493.72	84.26
493.90	74.90
494.08	0.00
494.25	9.36
494.43	100.64
494.61	53.83
494.79	35.11
494.96	32.77
495.14	44.47
495.32	11.70
495.49	63.19
495.67	53.83
495.85	11.70
496.02	16.38
496.20	72.56
496.38	121.71
496.55	14.04
496.73	67.88
496.91	70.22
497.09	56.17
497.26	74.90
497.44	67.88
497.62	11.70
497.79	49.15
497.97	133.41
498.14	88.94
498.32	0.00
498.50	70.22
498.67	102.98
498.85	11.70
499.03	81.92
499.20	56.17
499.38	7.02
499.56	21.06
499.73	65.54
499.91	16.38
500.08	2.34
500.26	35.11
500.44	51.49
500.61	42.13
500.79	11.70
500.97	0.00
501.14	70.22
501.32	14.04
501.49	37.45
501.67	84.26
501.84	32.77
502.02	63.19
502.20	114.69
502.37	53.83
502.55	67.88
502.72	67.88
502.90	9.36
503.07	16.38
503.25	53.83
503.43	46.81
503.60	88.94
503.78	91.28
503.95	14.04
504.13	23.41
504.30	72.56
504.48	14.04
504.65	32.77
504.83	56.17
505.01	42.13
505.18	58.51
505.36	79.58
505.53	35.11
505.71	63.19
505.88	21.06
506.06	74.90
506.23	49.15
506.41	37.45
506.58	65.54
506.76	44.47
506.93	21.06
507.11	53.83
507.28	46.81
507.46	49.15
507.63	51.49
507.81	0.00
507.98	65.54
508.16	42.13
508.33	39.79
508.50	53.83
508.68	25.75
508.85	25.75
509.03	30.43
509.20	74.90
509.38	46.81
509.55	14.04
509.73	0.00
509.90	2.34
510.08	53.83
510.25	58.51
510.42	44.47
510.60	65.54
510.77	110.01
510.95	0.00
511.12	93.62
511.30	53.83
511.47	93.62
511.64	39.79
511.82	0.00
511.99	0.00
512.17	53.83
512.34	0.00
512.51	0.00
512.69	51.49
512.86	51.49
513.04	25.75
513.21	67.88
513.38	72.56
513.56	49.15
513.73	30.43
513.90	35.11
514.08	60.85
514.25	51.49
514.43	86.60
514.60	86.60
514.77	58.51
514.95	110.01
515.12	117.03
515.29	72.56
515.47	67.88
515.64	28.09
515.81	23.41
515.99	44.47
516.16	0.00
516.33	18.72
516.51	51.49
516.68	9.36
516.85	51.49
517.03	65.54
517.20	98.30
517.37	0.00
517.54	44.47
517.72	0.00
517.89	70.22
518.06	44.47
518.24	51.49
518.41	88.94
518.58	37.45
518.75	14.04
518.93	93.62
519.10	0.00
519.27	67.88
519.45	25.75
519.62	37.45
519.79	51.49
519.96	53.83
520.14	119.37
520.31	117.03
520.48	58.51
520.65	32.77
520.83	30.43
521.00	16.38
521.17	0.00
521.34	102.98
521.52	74.90
521.69	114.69
521.86	32.77
522.03	56.17
522.20	79.58
522.38	4.68
522.55	72.56
522.72	88.94
522.89	91.28
523.07	91.28
523.24	25.75
523.41	77.24
523.58	30.43
523.75	16.38
523.92	9.36
524.10	65.54
524.27	0.00
524.44	86.60
524.61	91.28
524.78	37.45
524.96	77.24
525.13	28.09
525.30	126.39
525.47	39.79
525.64	81.92
525.81	70.22
525.98	39.79
526.16	67.88
526.33	77.24
526.50	28.09
526.67	67.88
526.84	21.06
527.01	28.09
527.18	53.83
527.36	0.00
527.53	14.04
527.70	39.79
527.87	74.90
528.04	110.01
528.21	102.98
528.38	81.92
528.55	67.88
528.72	126.39
528.89	0.00
529.07	23.41
529.24	70.22
529.41	93.62
529.58	56.17
529.75	0.00
529.92	4.68
530.09	114.69
530.26	58.51
530.43	9.36
530.60	65.54
530.77	0.00
530.94	86.60
531.11	0.00
531.28	102.98
531.46	88.94
531.63	95.96
531.80	0.00
531.97	25.75
532.14	0.00
532.31	39.79
532.48	42.13
532.65	25.75
532.82	53.83
532.99	88.94
533.16	16.38
533.33	28.09
533.50	14.04
533.67	35.11
533.84	30.43
534.01	154.48
534.18	102.98
534.35	79.58
534.52	93.62
534.69	0.00
534.86	0.00
535.03	14.04
535.20	37.45
535.37	16.38
535.54	110.01
535.71	53.83
535.88	35.11
536.05	79.58
536.22	18.72
536.38	63.19
536.55	23.41
536.72	98.30
536.89	53.83
537.06	2.34
537.23	49.15
537.40	49.15
537.57	28.09
537.74	60.85
537.91	35.11
538.08	56.17
538.25	0.00
538.42	11.70
538.59	51.49
538.75	88.94
538.92	28.09
539.09	28.09
539.26	14.04
539.43	44.47
539.60	14.04
539.77	77.24
539.94	0.00
540.11	37.45
540.28	35.11
540.44	28.09
540.61	30.43
540.78	72.56
540.95	67.88
541.12	25.75
541.29	32.77
541.46	11.70
541.62	112.35
541.79	32.77
541.96	70.22
542.13	65.54
542.30	65.54
542.47	114.69
542.63	30.43
542.80	0.00
542.97	46.81
543.14	44.47
543.31	88.94
543.48	23.41
543.64	63.19
543.81	0.00
543.98	18.72
544.15	77.24
544.32	53.83
544.48	63.19
544.65	18.72
544.82	0.00
544.99	23.41
545.16	77.24
545.32	133.41
545.49	72.56
545.66	18.72
545.83	2.34
546.00	46.81
546.16	42.13
546.33	21.06
546.50	0.00
546.67	39.79
546.83	42.13
547.00	0.00
547.17	0.00
547.34	56.17
547.50	107.66
547.67	88.94
547.84	49.15
548.00	11.70
548.17	0.00
548.34	39.79
548.51	72.56
548.67	84.26
548.84	51.49
549.01	0.00
549.18	14.04
549.34	11.70
549.51	44.47
549.68	42.13
549.84	81.92
550.01	23.41
550.18	14.04
550.34	91.28
550.51	58.51
550.68	74.90
550.84	72.56
551.01	100.64
551.18	166.18
551.34	56.17
551.51	65.54
551.68	81.92
551.84	91.28
552.01	74.90
552.18	72.56
552.34	32.77
552.51	60.85
552.68	86.60
552.84	49.15
553.01	53.83
553.18	0.00
553.34	79.58
553.51	58.51
553.67	37.45
553.84	9.36
554.01	0.00
554.17	135.75
554.34	70.22
554.51	67.88
554.67	39.79
554.84	30.43
555.00	79.58
555.17	107.66
555.33	25.75
555.50	42.13
555.67	0.00
555.83	63.19
556.00	95.96
556.16	14.04
556.33	35.11
556.50	2.34
556.66	32.77
556.83	42.13
556.99	91.28
557.16	46.81
557.32	60.85
557.49	9.36
557.65	35.11
557.82	67.88
557.98	4.68
558.15	67.88
558.32	88.94
558.48	98.30
558.65	42.13
558.81	25.75
558.98	11.70
559.14	0.00
559.31	56.17
559.47	0.00
559.64	46.81
559.80	152.13
559.97	32.77
560.13	58.51
560.30	84.26
560.46	56.17
560.63	46.81
560.79	21.06
560.96	21.06
561.12	72.56
561.29	51.49
561.45	16.38
561.61	56.17
561.78	72.56
561.94	21.06
562.11	86.60
562.27	88.94
562.44	4.68
562.60	79.58
562.77	84.26
562.93	30.43
563.10	16.38
563.26	93.62
563.42	44.47
563.59	28.09
563.75	0.00
563.92	16.38
564.08	74.90
564.24	159.16
564.41	0.00
564.57	18.72
564.74	79.58
564.90	51.49
565.07	23.41
565.23	77.24
565.39	53.83
565.56	114.69
565.72	46.81
565.88	65.54
566.05	42.13
566.21	72.56
566.38	53.83
566.54	0.00
566.70	35.11
566.87	102.98
567.03	102.98
567.19	72.56
567.36	0.00
567.52	21.06
567.68	25.75
567.85	72.56
568.01	70.22
568.17	49.15
568.34	95.96
568.50	72.56
568.66	117.03
568.83	72.56
568.99	0.00
569.15	63.19
569.32	11.70
569.48	126.39
569.64	2.34
569.81	35.11
569.97	4.68
570.13	0.00
570.30	42.13
570.46	74.90
570.62	46.81
570.78	63.19
570.95	81.92
571.11	0.00
571.27	81.92
571.43	74.90
571.60	58.51
571.76	53.83
571.92	35.11
572.09	0.00
572.25	51.49
572.41	16.38
572.57	25.75
572.74	30.43
572.90	74.90
573.06	16.38
573.22	9.36
573.38	51.49
573.55	56.17
573.71	11.70
573.87	25.75
574.03	131.07
574.20	53.83
574.36	100.64
574.52	46.81
574.68	44.47
574.84	49.15
575.01	58.51
575.17	9.36
575.33	42.13
575.49	88.94
575.65	37.45
575.82	79.58
575.98	67.88
576.14	0.00
576.30	0.00
576.46	28.09
576.62	37.45
576.79	70.22
576.95	67.88
577.11	79.58
577.27	25.75
577.43	11.70
577.59	86.60
577.75	32.77
577.92	58.51
578.08	0.00
578.24	21.06
578.40	81.92
578.56	0.00
578.72	7.02
578.88	0.00
579.04	16.38
579.21	35.11
579.37	30.43
579.53	37.45
579.69	35.11
579.85	110.01
580.01	39.79
580.17	7.02
580.33	18.72
580.49	42.13
580.65	107.66
580.82	49.15
580.98	72.56
581.14	79.58
581.30	53.83
581.46	2.34
581.62	56.17
581.78	28.09
581.94	56.17
582.10	44.47
582.26	53.83
582.42	81.92
582.58	63.19
582.74	30.43
582.90	39.79
583.06	49.15
583.22	16.38
583.38	0.00
583.54	0.00
583.70	63.19
583.86	49.15
584.02	0.00
584.18	25.75
584.34	51.49
584.50	0.00
584.66	9.36
584.82	81.92
584.98	0.00
585.14	126.39
585.30	21.06
585.46	0.00
585.62	56.17
585.78	0.00
585.94	86.60
586.10	46.81
586.26	32.77
586.42	49.15
586.58	84.26
586.74	37.45
586.90	56.17
587.06	49.15
587.22	107.66
587.38	37.45
587.54	86.60
587.70	0.00
587.86	0.00
588.02	14.04
588.18	93.62
588.34	25.75
588.49	0.00
588.65	46.81
588.81	18.72
588.97	63.19
589.13	58.51
589.29	98.30
589.45	46.81
589.61	72.56
589.77	86.60
589.93	77.24
590.08	7.02
590.24	79.58
590.40	44.47
590.56	0.00
590.72	14.04
590.88	58.51
591.04	0.00
591.20	4.68
591.35	0.00
591.51	37.45
591.67	84.26
591.83	65.54
591.99	2.34
592.15	39.79
592.31	25.75
592.46	49.15
592.62	44.47
592.78	86.60
592.94	46.81
593.10	7.02
593.26	49.15
593.41	114.69
593.57	0.00
593.73	63.19
593.89	107.66
594.05	2.34
594.20	21.06
594.36	0.00
594.52	74.90
594.68	67.88
594.84	35.11
594.99	23.41
595.15	0.00
595.31	53.83
595.47	65.54
595.62	72.56
595.78	124.05
595.94	0.00
596.10	74.90
596.25	0.00
596.41	0.00
596.57	28.09
596.73	0.00
596.88	56.17
597.04	63.19
597.20	28.09
597.36	32.77
597.51	117.03
597.67	56.17
597.83	88.94
597.99	32.77
598.14	100.64
598.30	0.00
598.46	14.04
598.61	0.00
598.77	42.13
598.93	51.49
599.09	49.15
599.24	70.22
599.40	28.09
599.56	72.56
599.71	107.66
599.87	4.68
600.03	23.41
600.18	65.54
600.34	95.96
600.50	72.56
600.65	53.83
600.81	53.83
600.97	0.00
601.12	49.15
601.28	46.81
601.44	86.60
601.59	79.58
601.75	74.90
601.91	0.00
602.06	35.11
602.22	77.24
602.37	100.64
602.53	46.81
602.69	11.70
602.84	46.81
603.00	0.00
603.16	39.79
603.31	93.62
603.47	77.24
603.62	0.00
603.78	77.24
603.94	154.48
604.09	102.98
604.25	79.58
604.40	107.66
604.56	0.00
604.71	56.17
604.87	63.19
605.03	74.90
605.18	56.17
605.34	0.00
605.49	0.00
605.65	49.15
605.80	56.17
605.96	65.54
606.12	67.88
606.27	21.06
606.43	0.00
606.58	42.13
606.74	0.00
606.89	11.70
607.05	39.79
607.20	49.15
607.36	4.68
607.51	58.51
607.67	112.35
607.82	86.60
607.98	98.30
608.13	25.75
608.29	93.62
608.44	44.47
608.60	105.32
608.75	42.13
608.91	42.13
609.06	49.15
609.22	65.54
609.37	67.88
609.53	37.45
609.68	4.68
609.84	23.41
609.99	0.00
610.15	72.56
610.30	25.75
610.46	21.06
610.61	79.58
610.76	0.00
610.92	81.92
611.07	81.92
611.23	0.00
611.38	37.45
611.54	46.81
611.69	91.28
611.84	53.83
612.00	72.56
612.15	37.45
612.31	44.47
612.46	2.34
612.62	0.00
612.77	72.56
612.92	0.00
613.08	145.11
613.23	121.71
613.39	4.68
613.54	11.70
613.69	35.11
613.85	49.15
614.00	14.04
614.15	39.79
614.31	77.24
614.46	107.66
614.62	9.36
614.77	46.81
614.92	9.36
615.08	74.90
615.23	28.09
615.38	63.19
615.54	46.81
615.69	32.77
615.84	11.70
616.00	16.38
616.15	9.36
616.30	0.00
616.46	105.32
616.61	112.35
616.76	30.43
616.92	37.45
617.07	18.72
617.22	0.00
617.37	46.81
617.53	16.38
617.68	11.70
617.83	30.43
617.99	49.15
618.14	42.13
618.29	44.47
618.45	65.54
618.60	21.06
618.75	105.32
618.90	60.85
619.06	9.36
619.21	63.19
619.36	63.19
619.51	9.36
619.67	2.34
619.82	46.81
619.97	49.15
620.12	30.43
620.28	65.54
620.43	70.22
620.58	32.77
620.73	70.22
620.89	23.41
621.04	67.88
621.19	0.00
621.34	21.06
621.49	42.13
621.65	53.83
621.80	65.54
621.95	21.06
622.10	0.00
622.25	100.64
622.41	30.43
622.56	79.58
622.71	84.26
622.86	46.81
623.01	0.00
623.16	18.72
623.32	28.09
623.47	72.56
623.62	98.30
623.77	107.66
623.92	46.81
624.07	39.79
624.23	42.13
624.38	14.04
624.53	25.75
624.68	18.72
624.83	91.28
624.98	0.00
625.13	56.17
625.29	105.32
625.44	70.22
625.59	79.58
625.74	37.45
625.89	77.24
626.04	7.02
626.19	107.66
626.34	28.09
626.49	79.58
626.65	9.36
626.80	0.00
626.95	14.04
627.10	0.00
627.25	32.77
627.40	84.26
627.55	53.83
627.70	72.56
627.85	42.13
628.00	88.94
628.15	77.24
628.30	56.17
628.45	0.00
628.60	102.98
628.76	126.39
628.91	39.79
629.06	70.22
629.21	0.00
629.36	37.45
629.51	0.00
629.66	0.00
629.81	0.00
629.96	39.79
630.11	117.03
630.26	39.79
630.41	25.75
630.56	56.17
630.71	14.04
630.86	7.02
631.01	42.13
631.16	32.77
631.31	16.38
631.46	16.38
631.61	117.03
631.76	4.68
631.91	21.06
632.06	0.00
632.21	70.22
632.36	58.51
632.51	32.77
632.66	0.00
632.81	25.75
632.96	25.75
633.10	0.00
633.25	2.34
633.40	124.05
633.55	70.22
633.70	105.32
633.85	77.24
634.00	74.90
634.15	0.00
634.30	65.54
634.45	60.85
634.60	11.70
634.75	7.02
634.90	60.85
635.05	93.62
635.19	0.00
635.34	70.22
635.49	32.77
635.64	23.41
635.79	46.81
635.94	72.56
636.09	30.43
636.24	84.26
636.39	107.66
636.53	28.09
636.68	0.00
636.83	11.70
636.98	60.85
637.13	23.41
637.28	32.77
637.43	58.51
637.57	0.00
637.72	0.00
637.87	14.04
638.02	74.90
638.17	44.47
638.32	60.85
638.46	2.34
638.61	46.81
638.76	23.41
638.91	81.92
639.06	39.79
639.20	51.49
639.35	28.09
639.50	42.13
639.65	49.15
639.80	88.94
639.94	16.38
640.09	35.11
640.24	86.60
640.39	0.00
640.54	42.13
640.68	37.45
640.83	112.35
640.98	30.43
641.13	11.70
641.27	4.68
641.42	56.17
641.57	42.13
641.72	49.15
641.86	30.43
642.01	7.02
642.16	100.64
642.31	81.92
642.45	18.72
642.60	84.26
642.75	98.30
642.90	58.51
643.04	35.11
643.19	42.13
643.34	53.83
643.48	46.81
643.63	46.81
643.78	37.45
643.93	70.22
644.07	67.88
644.22	114.69
644.37	53.83
644.51	53.83
644.66	25.75
644.81	60.85
644.95	63.19
645.10	23.41
645.25	0.00
645.39	0.00
645.54	79.58
645.69	39.79
645.83	0.00
645.98	11.70
646.13	46.81
646.27	86.60
646.42	2.34
646.57	63.19
646.71	86.60
646.86	74.90
647.00	4.68
647.15	60.85
647.30	70.22
647.44	46.81
647.59	65.54
647.74	0.00
647.88	37.45
648.03	23.41
648.17	44.47
648.32	100.64
648.47	58.51
648.61	86.60
648.76	70.22
648.90	14.04
649.05	49.15
649.20	23.41
649.34	0.00
649.49	42.13
649.63	42.13
649.78	35.11
649.92	77.24
650.07	46.81
650.21	84.26
650.36	42.13
650.51	37.45
650.65	81.92
650.80	2.34
650.94	0.00
651.09	49.15
651.23	30.43
651.38	67.88
651.52	70.22
651.67	18.72
651.81	95.96
651.96	58.51
652.10	30.43
652.25	56.17
652.39	56.17
652.54	25.75
652.68	98.30
652.83	114.69
652.97	0.00
653.12	60.85
653.26	37.45
653.41	7.02
653.55	51.49
653.70	53.83
653.84	58.51
653.99	53.83
654.13	63.19
654.27	18.72
654.42	0.00
654.56	30.43
654.71	46.81
654.85	0.00
655.00	72.56
655.14	0.00
655.29	67.88
655.43	70.22
655.57	65.54
655.72	0.00
655.86	2.34
656.01	63.19
656.15	0.00
656.30	7.02
656.44	46.81
656.58	4.68
656.73	18.72
656.87	0.00
657.01	7.02
657.16	53.83
657.30	7.02
657.45	0.00
657.59	70.22
657.73	77.24
657.88	58.51
658.02	0.00
658.16	16.38
658.31	135.75
658.45	0.00
658.60	56.17
658.74	42.13
658.88	0.00
659.03	53.83
659.17	39.79
659.31	107.66
659.46	23.41
659.60	42.13
659.74	0.00
659.89	133.41
660.03	51.49
660.17	0.00
660.32	37.45
660.46	58.51
660.60	53.83
660.74	72.56
660.89	74.90
661.03	72.56
661.17	63.19
661.32	56.17
661.46	21.06
661.60	11.70
661.74	42.13
661.89	49.15
662.03	72.56
662.17	53.83
662.31	105.32
662.46	72.56
662.60	91.28
662.74	0.00
662.88	77.24
663.03	7.02
663.17	63.19
663.31	49.15
663.45	53.83
663.60	49.15
663.74	0.00
663.88	51.49
664.02	0.00
664.17	58.51
664.31	42.13
664.45	18.72
664.59	42.13
664.73	51.49
664.88	7.02
665.02	112.35
665.16	67.88
665.30	11.70
665.44	32.77
665.59	23.41
665.73	35.11
665.87	14.04
666.01	79.58
666.15	0.00
666.29	70.22
666.44	65.54
666.58	110.01
666.72	0.00
666.86	60.85
667.00	14.04
667.14	39.79
667.28	7.02
667.43	46.81
667.57	100.64
667.71	14.04
667.85	30.43
667.99	112.35
668.13	18.72
668.27	42.13
668.41	16.38
668.56	65.54
668.70	0.00
668.84	0.00
668.98	0.00
669.12	133.41
669.26	56.17
669.40	42.13
669.54	35.11
669.68	21.06
669.82	93.62
669.96	58.51
670.10	9.36
670.25	0.00
670.39	0.00
670.53	65.54
670.67	14.04
670.81	14.04
670.95	53.83
671.09	21.06
671.23	58.51
671.37	88.94
671.51	32.77
671.65	9.36
671.79	0.00
671.93	0.00
672.07	100.64
672.21	0.00
672.35	95.96
672.49	60.85
672.63	72.56
672.77	70.22
672.91	21.06
673.05	60.85
673.19	7.02
673.33	0.00
673.47	81.92
673.61	42.13
673.75	51.49
673.89	37.45
674.03	37.45
674.17	25.75
674.31	60.85
674.45	46.81
674.59	46.81
674.73	70.22
674.87	46.81
675.01	30.43
675.15	21.06
675.29	58.51
675.43	49.15
675.56	86.60
675.70	16.38
675.84	0.00
675.98	23.41
676.12	0.00
676.26	37.45
676.40	4.68
676.54	0.00
676.68	39.79
676.82	9.36
676.96	4.68
677.10	65.54
677.23	32.77
677.37	0.00
677.51	72.56
677.65	81.92
677.79	79.58
677.93	0.00
678.07	0.00
678.21	0.00
678.34	30.43
678.48	70.22
678.62	0.00
678.76	81.92
678.90	0.00
679.04	21.06
679.18	21.06
679.31	18.72
679.45	2.34
679.59	39.79
679.73	0.00
679.87	44.47
680.00	56.17
680.14	58.51
680.28	21.06
680.42	0.00
680.56	74.90
680.70	9.36
680.83	63.19
680.97	18.72
681.11	37.45
681.25	49.15
681.39	18.72
681.52	53.83
681.66	53.83
681.80	63.19
681.94	18.72
682.07	46.81
682.21	23.41
682.35	60.85
682.49	46.81
682.62	86.60
682.76	23.41
682.90	58.51
683.04	79.58
683.17	32.77
683.31	25.75
683.45	23.41
683.59	11.70
683.72	23.41
683.86	18.72
684.00	0.00
684.13	56.17
684.27	67.88
684.41	2.34
684.55	0.00
684.68	58.51
684.82	9.36
684.96	2.34
685.09	0.00
685.23	79.58
685.37	0.00
685.50	72.56
685.64	58.51
685.78	7.02
685.91	117.03
686.05	56.17
686.19	72.56
686.32	88.94
686.46	135.75
686.60	53.83
686.73	58.51
686.87	51.49
687.01	0.00
687.14	70.22
687.28	2.34
687.42	74.90
687.55	18.72
687.69	65.54
687.82	56.17
687.96	23.41
688.10	35.11
688.23	0.00
688.37	67.88
688.50	53.83
688.64	21.06
688.78	60.85
688.91	23.41
689.05	28.09
689.18	0.00
689.32	39.79
689.46	77.24
689.59	11.70
689.73	117.03
689.86	0.00
690.00	35.11
690.13	98.30
690.27	0.00
690.41	9.36
690.54	98.30
690.68	44.47
690.81	72.56
690.95	42.13
691.08	46.81
691.22	67.88
691.35	23.41
691.49	79.58
691.62	25.75
691.76	93.62
691.89	51.49
692.03	14.04
692.16	39.79
692.30	70.22
692.43	16.38
692.57	0.00
692.70	37.45
692.84	46.81
692.97	32.77
693.11	53.83
693.24	0.00
693.38	25.75
693.51	46.81
693.65	23.41
693.78	30.43
693.92	86.60
694.05	0.00
694.19	0.00
694.32	0.00
694.45	49.15
694.59	25.75
694.72	102.98
694.86	21.06
694.99	51.49
695.13	100.64
695.26	51.49
695.39	0.00
695.53	0.00
695.66	39.79
695.80	30.43
695.93	0.00
696.07	58.51
696.20	11.70
696.33	39.79
696.47	49.15
696.60	88.94
696.73	51.49
696.87	39.79
697.00	46.81
697.14	14.04
697.27	0.00
697.40	28.09
697.54	0.00
697.67	0.00
697.80	0.00
697.94	60.85
698.07	7.02
698.21	88.94
698.34	0.00
698.47	53.83
698.61	0.00
698.74	0.00
698.87	21.06
699.01	156.82
699.14	30.43
699.27	63.19
699.40	74.90
699.54	74.90
699.67	0.00
699.80	23.41
699.94	4.68
700.07	0.00
700.20	0.00
700.34	100.64
700.47	39.79
700.60	39.79
700.73	0.00
700.87	0.00
701.00	11.70
701.13	0.00
701.26	0.00
701.40	28.09
701.53	0.00
701.66	32.77
701.79	14.04
701.93	16.38
702.06	49.15
702.19	67.88
702.32	81.92
702.46	0.00
702.59	42.13
702.72	0.00
702.85	37.45
702.99	0.00
703.12	21.06
703.25	0.00
703.38	44.47
703.51	0.00
703.65	51.49
703.78	21.06
703.91	28.09
704.04	23.41
704.17	51.49
704.31	35.11
704.44	4.68
704.57	0.00
704.70	35.11
704.83	32.77
704.96	46.81
705.10	37.45
705.23	39.79
>>>>>End Processed Spectral Data<<<<<
