SpectraSuite Data File
++++++++++++++++++++++++++++++++++++
Date: Fri Oct 04 12:13:45 GMT-05:00 2013
User: price-jones
Dark Spectrum Present: No
Reference Spectrum Present: No
Number of Sampled Component Spectra: 1
Spectrometers: USB2+H05261
Integration Time (usec): 10000 (USB2+H05261)
Spectra Averaged: 1 (USB2+H05261)
Boxcar Smoothing: 0 (USB2+H05261)
Correct for Electrical Dark: No (USB2+H05261)
Strobe/Lamp Enabled: No (USB2+H05261)
Correct for Detector Non-linearity: No (USB2+H05261)
Correct for Stray Light: No (USB2+H05261)
Number of Pixels in Processed Spectrum: 2048
>>>>>Begin Processed Spectral Data<<<<<
365.73	0.00
365.92	0.00
366.12	0.00
366.32	0.00
366.52	0.00
366.72	0.00
366.91	0.00
367.11	0.00
367.31	0.00
367.51	0.00
367.70	0.00
367.90	0.00
368.10	0.00
368.30	0.00
368.49	0.00
368.69	0.00
368.89	0.00
369.09	0.00
369.28	0.00
369.48	0.00
369.68	0.00
369.87	0.00
370.07	0.00
370.27	0.00
370.47	0.00
370.66	0.00
370.86	0.00
371.06	0.00
371.25	0.00
371.45	0.00
371.65	0.00
371.84	0.00
372.04	0.00
372.24	18.72
372.44	0.00
372.63	0.00
372.83	74.90
373.03	72.56
373.22	4.68
373.42	23.41
373.62	0.00
373.81	44.47
374.01	39.79
374.21	9.36
374.40	0.00
374.60	46.81
374.79	7.02
374.99	25.75
375.19	0.00
375.38	0.00
375.58	74.90
375.78	44.47
375.97	16.38
376.17	84.26
376.37	0.00
376.56	25.75
376.76	86.60
376.95	81.92
377.15	58.51
377.35	28.09
377.54	0.00
377.74	16.38
377.93	46.81
378.13	14.04
378.33	53.83
378.52	37.45
378.72	53.83
378.91	49.15
379.11	0.00
379.31	37.45
379.50	65.54
379.70	14.04
379.89	11.70
380.09	44.47
380.28	0.00
380.48	14.04
380.68	0.00
380.87	7.02
381.07	0.00
381.26	51.49
381.46	84.26
381.65	0.00
381.85	0.00
382.04	35.11
382.24	72.56
382.43	0.00
382.63	28.09
382.83	0.00
383.02	37.45
383.22	4.68
383.41	2.34
383.61	56.17
383.80	0.00
384.00	0.00
384.19	0.00
384.39	0.00
384.58	4.68
384.78	0.00
384.97	25.75
385.17	0.00
385.36	23.41
385.56	0.00
385.75	0.00
385.95	0.00
386.14	4.68
386.34	0.00
386.53	14.04
386.72	51.49
386.92	9.36
387.11	7.02
387.31	53.83
387.50	0.00
387.70	46.81
387.89	18.72
388.09	23.41
388.28	46.81
388.48	39.79
388.67	9.36
388.86	0.00
389.06	67.88
389.25	18.72
389.45	81.92
389.64	30.43
389.84	0.00
390.03	53.83
390.22	65.54
390.42	4.68
390.61	60.85
390.81	18.72
391.00	30.43
391.19	35.11
391.39	35.11
391.58	0.00
391.78	39.79
391.97	39.79
392.16	95.96
392.36	51.49
392.55	58.51
392.75	70.22
392.94	21.06
393.13	0.00
393.33	0.00
393.52	11.70
393.71	100.64
393.91	77.24
394.10	2.34
394.29	46.81
394.49	0.00
394.68	53.83
394.88	35.11
395.07	28.09
395.26	0.00
395.46	0.00
395.65	18.72
395.84	23.41
396.04	46.81
396.23	37.45
396.42	25.75
396.62	0.00
396.81	44.47
397.00	16.38
397.19	42.13
397.39	0.00
397.58	74.90
397.77	0.00
397.97	23.41
398.16	39.79
398.35	18.72
398.55	21.06
398.74	72.56
398.93	0.00
399.12	35.11
399.32	28.09
399.51	9.36
399.70	0.00
399.90	44.47
400.09	42.13
400.28	42.13
400.47	11.70
400.67	42.13
400.86	0.00
401.05	58.51
401.24	37.45
401.44	56.17
401.63	0.00
401.82	65.54
402.01	51.49
402.21	11.70
402.40	16.38
402.59	16.38
402.78	44.47
402.97	0.00
403.17	30.43
403.36	0.00
403.55	72.56
403.74	51.49
403.93	16.38
404.13	51.49
404.32	60.85
404.51	18.72
404.70	0.00
404.89	42.13
405.09	56.17
405.28	0.00
405.47	0.00
405.66	72.56
405.85	0.00
406.05	0.00
406.24	35.11
406.43	0.00
406.62	4.68
406.81	0.00
407.00	0.00
407.20	2.34
407.39	7.02
407.58	30.43
407.77	4.68
407.96	0.00
408.15	42.13
408.34	16.38
408.54	0.00
408.73	79.58
408.92	18.72
409.11	14.04
409.30	0.00
409.49	35.11
409.68	49.15
409.87	35.11
410.07	14.04
410.26	0.00
410.45	0.00
410.64	37.45
410.83	32.77
411.02	25.75
411.21	58.51
411.40	0.00
411.59	0.00
411.78	14.04
411.98	86.60
412.17	53.83
412.36	0.00
412.55	0.00
412.74	84.26
412.93	77.24
413.12	0.00
413.31	100.64
413.50	60.85
413.69	14.04
413.88	63.19
414.07	67.88
414.26	63.19
414.45	77.24
414.64	7.02
414.83	60.85
415.02	0.00
415.22	60.85
415.41	0.00
415.60	70.22
415.79	114.69
415.98	49.15
416.17	28.09
416.36	81.92
416.55	30.43
416.74	135.75
416.93	102.98
417.12	32.77
417.31	0.00
417.50	4.68
417.69	74.90
417.88	32.77
418.07	0.00
418.26	65.54
418.45	44.47
418.64	84.26
418.83	0.00
419.02	11.70
419.21	0.00
419.39	9.36
419.58	0.00
419.77	53.83
419.96	88.94
420.15	30.43
420.34	0.00
420.53	7.02
420.72	7.02
420.91	72.56
421.10	65.54
421.29	49.15
421.48	65.54
421.67	0.00
421.86	0.00
422.05	46.81
422.24	46.81
422.43	23.41
422.61	65.54
422.80	37.45
422.99	0.00
423.18	65.54
423.37	35.11
423.56	11.70
423.75	0.00
423.94	0.00
424.13	67.88
424.32	0.00
424.50	32.77
424.69	60.85
424.88	18.72
425.07	44.47
425.26	91.28
425.45	42.13
425.64	53.83
425.83	0.00
426.01	0.00
426.20	14.04
426.39	58.51
426.58	39.79
426.77	56.17
426.96	53.83
427.15	98.30
427.33	88.94
427.52	112.35
427.71	28.09
427.90	16.38
428.09	95.96
428.28	11.70
428.46	0.00
428.65	18.72
428.84	2.34
429.03	0.00
429.22	0.00
429.40	4.68
429.59	133.41
429.78	81.92
429.97	16.38
430.16	25.75
430.34	105.32
430.53	23.41
430.72	79.58
430.91	77.24
431.10	32.77
431.28	32.77
431.47	51.49
431.66	119.37
431.85	0.00
432.03	2.34
432.22	0.00
432.41	60.85
432.60	0.00
432.79	105.32
432.97	0.00
433.16	28.09
433.35	39.79
433.54	0.00
433.72	46.81
433.91	25.75
434.10	65.54
434.28	51.49
434.47	32.77
434.66	28.09
434.85	51.49
435.03	65.54
435.22	23.41
435.41	0.00
435.59	58.51
435.78	14.04
435.97	0.00
436.16	0.00
436.34	28.09
436.53	98.30
436.72	37.45
436.90	23.41
437.09	0.00
437.28	16.38
437.46	0.00
437.65	0.00
437.84	25.75
438.02	67.88
438.21	0.00
438.40	14.04
438.58	58.51
438.77	4.68
438.96	117.03
439.14	63.19
439.33	98.30
439.52	32.77
439.70	58.51
439.89	105.32
440.08	91.28
440.26	91.28
440.45	42.13
440.63	0.00
440.82	39.79
441.01	63.19
441.19	0.00
441.38	44.47
441.57	0.00
441.75	58.51
441.94	25.75
442.12	0.00
442.31	30.43
442.50	0.00
442.68	35.11
442.87	60.85
443.05	0.00
443.24	28.09
443.43	46.81
443.61	0.00
443.80	37.45
443.98	0.00
444.17	4.68
444.35	60.85
444.54	140.43
444.73	18.72
444.91	32.77
445.10	67.88
445.28	86.60
445.47	74.90
445.65	23.41
445.84	2.34
446.02	44.47
446.21	30.43
446.39	67.88
446.58	56.17
446.77	67.88
446.95	0.00
447.14	25.75
447.32	0.00
447.51	72.56
447.69	25.75
447.88	67.88
448.06	37.45
448.25	35.11
448.43	0.00
448.62	18.72
448.80	58.51
448.99	49.15
449.17	0.00
449.36	79.58
449.54	58.51
449.73	67.88
449.91	77.24
450.10	88.94
450.28	88.94
450.46	0.00
450.65	81.92
450.83	30.43
451.02	133.41
451.20	11.70
451.39	7.02
451.57	14.04
451.76	60.85
451.94	39.79
452.13	51.49
452.31	23.41
452.49	37.45
452.68	53.83
452.86	58.51
453.05	72.56
453.23	49.15
453.42	32.77
453.60	39.79
453.78	4.68
453.97	9.36
454.15	112.35
454.34	42.13
454.52	135.75
454.70	23.41
454.89	98.30
455.07	28.09
455.26	0.00
455.44	49.15
455.62	49.15
455.81	37.45
455.99	39.79
456.17	0.00
456.36	46.81
456.54	63.19
456.73	0.00
456.91	21.06
457.09	51.49
457.28	2.34
457.46	58.51
457.64	9.36
457.83	35.11
458.01	63.19
458.19	95.96
458.38	60.85
458.56	0.00
458.74	28.09
458.93	0.00
459.11	44.47
459.29	30.43
459.48	0.00
459.66	21.06
459.84	42.13
460.03	28.09
460.21	18.72
460.39	42.13
460.57	70.22
460.76	63.19
460.94	65.54
461.12	30.43
461.31	49.15
461.49	0.00
461.67	21.06
461.85	63.19
462.04	84.26
462.22	65.54
462.40	58.51
462.59	21.06
462.77	42.13
462.95	56.17
463.13	23.41
463.32	98.30
463.50	100.64
463.68	67.88
463.86	42.13
464.05	44.47
464.23	35.11
464.41	102.98
464.59	107.66
464.78	30.43
464.96	81.92
465.14	0.00
465.32	30.43
465.50	28.09
465.69	25.75
465.87	63.19
466.05	21.06
466.23	102.98
466.41	35.11
466.60	67.88
466.78	21.06
466.96	0.00
467.14	112.35
467.32	0.00
467.51	37.45
467.69	91.28
467.87	74.90
468.05	49.15
468.23	84.26
468.41	42.13
468.60	32.77
468.78	72.56
468.96	0.00
469.14	44.47
469.32	72.56
469.50	32.77
469.69	23.41
469.87	46.81
470.05	7.02
470.23	7.02
470.41	74.90
470.59	65.54
470.77	0.00
470.95	58.51
471.14	53.83
471.32	42.13
471.50	58.51
471.68	0.00
471.86	60.85
472.04	7.02
472.22	56.17
472.40	0.00
472.58	7.02
472.77	11.70
472.95	67.88
473.13	37.45
473.31	2.34
473.49	0.00
473.67	67.88
473.85	46.81
474.03	30.43
474.21	32.77
474.39	81.92
474.57	23.41
474.75	0.00
474.93	65.54
475.12	30.43
475.30	37.45
475.48	0.00
475.66	74.90
475.84	70.22
476.02	60.85
476.20	60.85
476.38	28.09
476.56	37.45
476.74	44.47
476.92	0.00
477.10	42.13
477.28	51.49
477.46	77.24
477.64	46.81
477.82	4.68
478.00	18.72
478.18	35.11
478.36	0.00
478.54	67.88
478.72	42.13
478.90	70.22
479.08	42.13
479.26	25.75
479.44	0.00
479.62	93.62
479.80	65.54
479.98	77.24
480.16	51.49
480.34	0.00
480.52	28.09
480.70	30.43
480.88	30.43
481.06	51.49
481.24	77.24
481.41	25.75
481.59	25.75
481.77	28.09
481.95	77.24
482.13	4.68
482.31	2.34
482.49	49.15
482.67	28.09
482.85	91.28
483.03	30.43
483.21	77.24
483.39	18.72
483.57	0.00
483.74	0.00
483.92	51.49
484.10	117.03
484.28	30.43
484.46	93.62
484.64	58.51
484.82	58.51
485.00	79.58
485.18	44.47
485.35	11.70
485.53	46.81
485.71	42.13
485.89	81.92
486.07	0.00
486.25	49.15
486.43	46.81
486.61	77.24
486.78	128.73
486.96	56.17
487.14	58.51
487.32	28.09
487.50	0.00
487.68	28.09
487.85	30.43
488.03	56.17
488.21	39.79
488.39	95.96
488.57	23.41
488.75	112.35
488.92	100.64
489.10	102.98
489.28	131.07
489.46	91.28
489.64	84.26
489.81	100.64
489.99	53.83
490.17	70.22
490.35	65.54
490.53	4.68
490.70	95.96
490.88	18.72
491.06	58.51
491.24	117.03
491.41	58.51
491.59	102.98
491.77	56.17
491.95	4.68
492.13	70.22
492.30	77.24
492.48	93.62
492.66	0.00
492.84	0.00
493.01	37.45
493.19	42.13
493.37	98.30
493.54	56.17
493.72	60.85
493.90	16.38
494.08	107.66
494.25	18.72
494.43	7.02
494.61	51.49
494.79	0.00
494.96	67.88
495.14	21.06
495.32	11.70
495.49	49.15
495.67	11.70
495.85	23.41
496.02	23.41
496.20	49.15
496.38	0.00
496.55	65.54
496.73	28.09
496.91	77.24
497.09	93.62
497.26	25.75
497.44	114.69
497.62	74.90
497.79	128.73
497.97	32.77
498.14	25.75
498.32	23.41
498.50	0.00
498.67	42.13
498.85	0.00
499.03	70.22
499.20	11.70
499.38	30.43
499.56	133.41
499.73	91.28
499.91	74.90
500.08	65.54
500.26	18.72
500.44	65.54
500.61	23.41
500.79	35.11
500.97	77.24
501.14	4.68
501.32	60.85
501.49	16.38
501.67	32.77
501.84	67.88
502.02	72.56
502.20	11.70
502.37	56.17
502.55	98.30
502.72	56.17
502.90	53.83
503.07	56.17
503.25	16.38
503.43	23.41
503.60	35.11
503.78	28.09
503.95	44.47
504.13	0.00
504.30	105.32
504.48	2.34
504.65	72.56
504.83	42.13
505.01	126.39
505.18	86.60
505.36	67.88
505.53	21.06
505.71	21.06
505.88	4.68
506.06	42.13
506.23	0.00
506.41	18.72
506.58	39.79
506.76	0.00
506.93	65.54
507.11	70.22
507.28	14.04
507.46	58.51
507.63	16.38
507.81	14.04
507.98	9.36
508.16	35.11
508.33	63.19
508.50	98.30
508.68	35.11
508.85	49.15
509.03	7.02
509.20	32.77
509.38	60.85
509.55	72.56
509.73	102.98
509.90	46.81
510.08	58.51
510.25	46.81
510.42	102.98
510.60	126.39
510.77	44.47
510.95	51.49
511.12	56.17
511.30	30.43
511.47	84.26
511.64	44.47
511.82	21.06
511.99	32.77
512.17	53.83
512.34	0.00
512.51	35.11
512.69	44.47
512.86	44.47
513.04	53.83
513.21	25.75
513.38	30.43
513.56	58.51
513.73	37.45
513.90	93.62
514.08	11.70
514.25	2.34
514.43	21.06
514.60	21.06
514.77	53.83
514.95	18.72
515.12	9.36
515.29	77.24
515.47	86.60
515.64	81.92
515.81	119.37
515.99	93.62
516.16	44.47
516.33	28.09
516.51	39.79
516.68	9.36
516.85	88.94
517.03	46.81
517.20	37.45
517.37	0.00
517.54	35.11
517.72	30.43
517.89	25.75
518.06	4.68
518.24	65.54
518.41	37.45
518.58	37.45
518.75	53.83
518.93	42.13
519.10	124.05
519.27	28.09
519.45	60.85
519.62	49.15
519.79	0.00
519.96	37.45
520.14	79.58
520.31	93.62
520.48	117.03
520.65	37.45
520.83	56.17
521.00	63.19
521.17	44.47
521.34	58.51
521.52	67.88
521.69	0.00
521.86	49.15
522.03	51.49
522.20	93.62
522.38	91.28
522.55	95.96
522.72	60.85
522.89	65.54
523.07	21.06
523.24	0.00
523.41	21.06
523.58	56.17
523.75	9.36
523.92	60.85
524.10	126.39
524.27	72.56
524.44	102.98
524.61	23.41
524.78	32.77
524.96	35.11
525.13	98.30
525.30	39.79
525.47	14.04
525.64	95.96
525.81	28.09
525.98	91.28
526.16	37.45
526.33	25.75
526.50	21.06
526.67	0.00
526.84	7.02
527.01	0.00
527.18	72.56
527.36	95.96
527.53	51.49
527.70	32.77
527.87	70.22
528.04	86.60
528.21	107.66
528.38	88.94
528.55	91.28
528.72	0.00
528.89	79.58
529.07	70.22
529.24	65.54
529.41	46.81
529.58	42.13
529.75	51.49
529.92	44.47
530.09	84.26
530.26	25.75
530.43	0.00
530.60	81.92
530.77	16.38
530.94	161.50
531.11	70.22
531.28	53.83
531.46	65.54
531.63	35.11
531.80	0.00
531.97	18.72
532.14	95.96
532.31	93.62
532.48	65.54
532.65	93.62
532.82	67.88
532.99	44.47
533.16	81.92
533.33	0.00
533.50	46.81
533.67	0.00
533.84	91.28
534.01	105.32
534.18	32.77
534.35	25.75
534.52	4.68
534.69	23.41
534.86	102.98
535.03	110.01
535.20	70.22
535.37	100.64
535.54	9.36
535.71	65.54
535.88	107.66
536.05	49.15
536.22	77.24
536.38	93.62
536.55	39.79
536.72	140.43
536.89	9.36
537.06	63.19
537.23	63.19
537.40	67.88
537.57	84.26
537.74	65.54
537.91	0.00
538.08	42.13
538.25	0.00
538.42	65.54
538.59	84.26
538.75	98.30
538.92	91.28
539.09	30.43
539.26	25.75
539.43	51.49
539.60	0.00
539.77	56.17
539.94	0.00
540.11	49.15
540.28	7.02
540.44	67.88
540.61	39.79
540.78	23.41
540.95	16.38
541.12	65.54
541.29	79.58
541.46	131.07
541.62	53.83
541.79	46.81
541.96	49.15
542.13	74.90
542.30	110.01
542.47	53.83
542.63	16.38
542.80	0.00
542.97	37.45
543.14	0.00
543.31	0.00
543.48	51.49
543.64	65.54
543.81	86.60
543.98	42.13
544.15	32.77
544.32	16.38
544.48	0.00
544.65	0.00
544.82	0.00
544.99	79.58
545.16	0.00
545.32	0.00
545.49	91.28
545.66	11.70
545.83	4.68
546.00	72.56
546.16	74.90
546.33	91.28
546.50	32.77
546.67	93.62
546.83	51.49
547.00	25.75
547.17	49.15
547.34	70.22
547.50	58.51
547.67	77.24
547.84	135.75
548.00	46.81
548.17	39.79
548.34	18.72
548.51	0.00
548.67	79.58
548.84	44.47
549.01	42.13
549.18	67.88
549.34	23.41
549.51	53.83
549.68	0.00
549.84	44.47
550.01	11.70
550.18	60.85
550.34	21.06
550.51	51.49
550.68	0.00
550.84	95.96
551.01	58.51
551.18	95.96
551.34	23.41
551.51	37.45
551.68	14.04
551.84	9.36
552.01	110.01
552.18	53.83
552.34	44.47
552.51	49.15
552.68	9.36
552.84	58.51
553.01	21.06
553.18	81.92
553.34	46.81
553.51	46.81
553.67	37.45
553.84	49.15
554.01	18.72
554.17	49.15
554.34	18.72
554.51	18.72
554.67	4.68
554.84	105.32
555.00	16.38
555.17	51.49
555.33	28.09
555.50	84.26
555.67	126.39
555.83	70.22
556.00	63.19
556.16	58.51
556.33	49.15
556.50	0.00
556.66	23.41
556.83	56.17
556.99	93.62
557.16	49.15
557.32	114.69
557.49	30.43
557.65	67.88
557.82	35.11
557.98	91.28
558.15	21.06
558.32	65.54
558.48	74.90
558.65	0.00
558.81	51.49
558.98	53.83
559.14	53.83
559.31	7.02
559.47	88.94
559.64	46.81
559.80	49.15
559.97	35.11
560.13	32.77
560.30	105.32
560.46	0.00
560.63	107.66
560.79	0.00
560.96	84.26
561.12	39.79
561.29	39.79
561.45	9.36
561.61	30.43
561.78	0.00
561.94	32.77
562.11	67.88
562.27	72.56
562.44	93.62
562.60	9.36
562.77	2.34
562.93	14.04
563.10	23.41
563.26	84.26
563.42	9.36
563.59	0.00
563.75	84.26
563.92	49.15
564.08	84.26
564.24	37.45
564.41	42.13
564.57	60.85
564.74	32.77
564.90	39.79
565.07	53.83
565.23	0.00
565.39	0.00
565.56	88.94
565.72	67.88
565.88	88.94
566.05	79.58
566.21	65.54
566.38	156.82
566.54	145.11
566.70	60.85
566.87	72.56
567.03	2.34
567.19	32.77
567.36	37.45
567.52	11.70
567.68	49.15
567.85	79.58
568.01	60.85
568.17	11.70
568.34	56.17
568.50	81.92
568.66	93.62
568.83	11.70
568.99	79.58
569.15	79.58
569.32	98.30
569.48	0.00
569.64	51.49
569.81	140.43
569.97	0.00
570.13	53.83
570.30	32.77
570.46	0.00
570.62	16.38
570.78	58.51
570.95	28.09
571.11	126.39
571.27	11.70
571.43	23.41
571.60	58.51
571.76	98.30
571.92	0.00
572.09	58.51
572.25	65.54
572.41	63.19
572.57	51.49
572.74	86.60
572.90	0.00
573.06	11.70
573.22	0.00
573.38	58.51
573.55	42.13
573.71	110.01
573.87	65.54
574.03	0.00
574.20	18.72
574.36	18.72
574.52	112.35
574.68	135.75
574.84	0.00
575.01	95.96
575.17	79.58
575.33	58.51
575.49	56.17
575.65	88.94
575.82	25.75
575.98	44.47
576.14	88.94
576.30	28.09
576.46	72.56
576.62	11.70
576.79	23.41
576.95	21.06
577.11	7.02
577.27	35.11
577.43	98.30
577.59	35.11
577.75	79.58
577.92	9.36
578.08	39.79
578.24	30.43
578.40	100.64
578.56	39.79
578.72	49.15
578.88	28.09
579.04	46.81
579.21	0.00
579.37	39.79
579.53	18.72
579.69	81.92
579.85	56.17
580.01	37.45
580.17	30.43
580.33	63.19
580.49	9.36
580.65	0.00
580.82	7.02
580.98	58.51
581.14	81.92
581.30	9.36
581.46	65.54
581.62	51.49
581.78	39.79
581.94	84.26
582.10	0.00
582.26	35.11
582.42	60.85
582.58	135.75
582.74	35.11
582.90	16.38
583.06	30.43
583.22	53.83
583.38	44.47
583.54	67.88
583.70	16.38
583.86	39.79
584.02	53.83
584.18	44.47
584.34	39.79
584.50	72.56
584.66	21.06
584.82	37.45
584.98	81.92
585.14	72.56
585.30	58.51
585.46	49.15
585.62	0.00
585.78	67.88
585.94	51.49
586.10	14.04
586.26	30.43
586.42	105.32
586.58	70.22
586.74	63.19
586.90	56.17
587.06	74.90
587.22	56.17
587.38	0.00
587.54	49.15
587.70	72.56
587.86	128.73
588.02	95.96
588.18	70.22
588.34	0.00
588.49	32.77
588.65	0.00
588.81	124.05
588.97	58.51
589.13	23.41
589.29	98.30
589.45	37.45
589.61	30.43
589.77	86.60
589.93	9.36
590.08	25.75
590.24	86.60
590.40	100.64
590.56	46.81
590.72	42.13
590.88	79.58
591.04	32.77
591.20	88.94
591.35	49.15
591.51	9.36
591.67	72.56
591.83	65.54
591.99	30.43
592.15	46.81
592.31	28.09
592.46	74.90
592.62	0.00
592.78	21.06
592.94	30.43
593.10	4.68
593.26	0.00
593.41	25.75
593.57	58.51
593.73	79.58
593.89	79.58
594.05	11.70
594.20	56.17
594.36	58.51
594.52	16.38
594.68	0.00
594.84	7.02
594.99	16.38
595.15	21.06
595.31	2.34
595.47	107.66
595.62	30.43
595.78	51.49
595.94	74.90
596.10	23.41
596.25	46.81
596.41	16.38
596.57	0.00
596.73	79.58
596.88	58.51
597.04	67.88
597.20	53.83
597.36	70.22
597.51	14.04
597.67	107.66
597.83	51.49
597.99	46.81
598.14	46.81
598.30	91.28
598.46	4.68
598.61	0.00
598.77	0.00
598.93	93.62
599.09	105.32
599.24	32.77
599.40	91.28
599.56	42.13
599.71	93.62
599.87	4.68
600.03	42.13
600.18	77.24
600.34	37.45
600.50	74.90
600.65	0.00
600.81	51.49
600.97	32.77
601.12	14.04
601.28	53.83
601.44	11.70
601.59	37.45
601.75	0.00
601.91	0.00
602.06	0.00
602.22	0.00
602.37	0.00
602.53	112.35
602.69	42.13
602.84	30.43
603.00	25.75
603.16	114.69
603.31	70.22
603.47	0.00
603.62	95.96
603.78	56.17
603.94	51.49
604.09	0.00
604.25	18.72
604.40	67.88
604.56	0.00
604.71	58.51
604.87	70.22
605.03	70.22
605.18	51.49
605.34	21.06
605.49	30.43
605.65	0.00
605.80	23.41
605.96	81.92
606.12	0.00
606.27	112.35
606.43	93.62
606.58	46.81
606.74	74.90
606.89	91.28
607.05	49.15
607.20	72.56
607.36	4.68
607.51	53.83
607.67	56.17
607.82	0.00
607.98	77.24
608.13	0.00
608.29	56.17
608.44	0.00
608.60	49.15
608.75	58.51
608.91	4.68
609.06	0.00
609.22	56.17
609.37	28.09
609.53	46.81
609.68	23.41
609.84	0.00
609.99	30.43
610.15	147.45
610.30	70.22
610.46	60.85
610.61	30.43
610.76	44.47
610.92	51.49
611.07	107.66
611.23	9.36
611.38	4.68
611.54	16.38
611.69	58.51
611.84	42.13
612.00	23.41
612.15	42.13
612.31	74.90
612.46	119.37
612.62	2.34
612.77	72.56
612.92	46.81
613.08	21.06
613.23	63.19
613.39	35.11
613.54	88.94
613.69	11.70
613.85	0.00
614.00	44.47
614.15	37.45
614.31	46.81
614.46	58.51
614.62	105.32
614.77	4.68
614.92	32.77
615.08	77.24
615.23	16.38
615.38	88.94
615.54	28.09
615.69	46.81
615.84	0.00
616.00	0.00
616.15	46.81
616.30	98.30
616.46	84.26
616.61	107.66
616.76	56.17
616.92	32.77
617.07	65.54
617.22	0.00
617.37	65.54
617.53	37.45
617.68	39.79
617.83	42.13
617.99	51.49
618.14	25.75
618.29	95.96
618.45	53.83
618.60	16.38
618.75	84.26
618.90	37.45
619.06	98.30
619.21	14.04
619.36	37.45
619.51	63.19
619.67	37.45
619.82	53.83
619.97	49.15
620.12	56.17
620.28	88.94
620.43	84.26
620.58	37.45
620.73	21.06
620.89	44.47
621.04	79.58
621.19	95.96
621.34	60.85
621.49	30.43
621.65	86.60
621.80	98.30
621.95	98.30
622.10	81.92
622.25	60.85
622.41	95.96
622.56	112.35
622.71	18.72
622.86	4.68
623.01	35.11
623.16	114.69
623.32	135.75
623.47	16.38
623.62	60.85
623.77	0.00
623.92	39.79
624.07	25.75
624.23	7.02
624.38	35.11
624.53	58.51
624.68	0.00
624.83	56.17
624.98	84.26
625.13	58.51
625.29	7.02
625.44	21.06
625.59	51.49
625.74	23.41
625.89	0.00
626.04	18.72
626.19	63.19
626.34	93.62
626.49	74.90
626.65	0.00
626.80	35.11
626.95	70.22
627.10	53.83
627.25	39.79
627.40	0.00
627.55	39.79
627.70	98.30
627.85	126.39
628.00	0.00
628.15	39.79
628.30	16.38
628.45	81.92
628.60	35.11
628.76	18.72
628.91	0.00
629.06	128.73
629.21	0.00
629.36	79.58
629.51	0.00
629.66	88.94
629.81	35.11
629.96	0.00
630.11	0.00
630.26	58.51
630.41	21.06
630.56	23.41
630.71	0.00
630.86	16.38
631.01	42.13
631.16	44.47
631.31	53.83
631.46	0.00
631.61	44.47
631.76	49.15
631.91	42.13
632.06	72.56
632.21	100.64
632.36	25.75
632.51	88.94
632.66	30.43
632.81	88.94
632.96	0.00
633.10	135.75
633.25	74.90
633.40	91.28
633.55	56.17
633.70	16.38
633.85	70.22
634.00	72.56
634.15	0.00
634.30	84.26
634.45	56.17
634.60	9.36
634.75	58.51
634.90	7.02
635.05	58.51
635.19	11.70
635.34	0.00
635.49	100.64
635.64	63.19
635.79	44.47
635.94	37.45
636.09	39.79
636.24	56.17
636.39	4.68
636.53	79.58
636.68	18.72
636.83	0.00
636.98	23.41
637.13	60.85
637.28	88.94
637.43	46.81
637.57	0.00
637.72	18.72
637.87	114.69
638.02	0.00
638.17	23.41
638.32	65.54
638.46	100.64
638.61	65.54
638.76	16.38
638.91	63.19
639.06	4.68
639.20	11.70
639.35	0.00
639.50	7.02
639.65	131.07
639.80	46.81
639.94	39.79
640.09	0.00
640.24	32.77
640.39	46.81
640.54	0.00
640.68	23.41
640.83	16.38
640.98	35.11
641.13	23.41
641.27	4.68
641.42	51.49
641.57	2.34
641.72	0.00
641.86	23.41
642.01	77.24
642.16	74.90
642.31	72.56
642.45	21.06
642.60	2.34
642.75	32.77
642.90	28.09
643.04	72.56
643.19	65.54
643.34	30.43
643.48	30.43
643.63	25.75
643.78	53.83
643.93	51.49
644.07	42.13
644.22	0.00
644.37	70.22
644.51	65.54
644.66	42.13
644.81	9.36
644.95	25.75
645.10	102.98
645.25	112.35
645.39	16.38
645.54	49.15
645.69	63.19
645.83	21.06
645.98	37.45
646.13	0.00
646.27	0.00
646.42	0.00
646.57	53.83
646.71	105.32
646.86	72.56
647.00	95.96
647.15	35.11
647.30	18.72
647.44	0.00
647.59	0.00
647.74	0.00
647.88	0.00
648.03	110.01
648.17	114.69
648.32	63.19
648.47	11.70
648.61	32.77
648.76	23.41
648.90	14.04
649.05	44.47
649.20	84.26
649.34	51.49
649.49	39.79
649.63	23.41
649.78	37.45
649.92	46.81
650.07	95.96
650.21	21.06
650.36	37.45
650.51	0.00
650.65	4.68
650.80	84.26
650.94	0.00
651.09	95.96
651.23	51.49
651.38	0.00
651.52	11.70
651.67	79.58
651.81	51.49
651.96	23.41
652.10	2.34
652.25	14.04
652.39	0.00
652.54	0.00
652.68	21.06
652.83	23.41
652.97	25.75
653.12	44.47
653.26	32.77
653.41	7.02
653.55	23.41
653.70	95.96
653.84	74.90
653.99	0.00
654.13	2.34
654.27	18.72
654.42	0.00
654.56	74.90
654.71	44.47
654.85	32.77
655.00	53.83
655.14	30.43
655.29	23.41
655.43	35.11
655.57	46.81
655.72	53.83
655.86	46.81
656.01	35.11
656.15	81.92
656.30	18.72
656.44	0.00
656.58	23.41
656.73	0.00
656.87	49.15
657.01	35.11
657.16	30.43
657.30	84.26
657.45	0.00
657.59	0.00
657.73	32.77
657.88	37.45
658.02	0.00
658.16	7.02
658.31	77.24
658.45	46.81
658.60	100.64
658.74	0.00
658.88	25.75
659.03	51.49
659.17	7.02
659.31	35.11
659.46	0.00
659.60	0.00
659.74	70.22
659.89	0.00
660.03	9.36
660.17	0.00
660.32	56.17
660.46	53.83
660.60	0.00
660.74	7.02
660.89	0.00
661.03	11.70
661.17	51.49
661.32	23.41
661.46	42.13
661.60	23.41
661.74	28.09
661.89	16.38
662.03	28.09
662.17	2.34
662.31	14.04
662.46	0.00
662.60	70.22
662.74	58.51
662.88	98.30
663.03	30.43
663.17	95.96
663.31	23.41
663.45	32.77
663.60	63.19
663.74	0.00
663.88	91.28
664.02	79.58
664.17	9.36
664.31	63.19
664.45	53.83
664.59	0.00
664.73	42.13
664.88	14.04
665.02	42.13
665.16	39.79
665.30	32.77
665.44	21.06
665.59	70.22
665.73	0.00
665.87	0.00
666.01	100.64
666.15	0.00
666.29	0.00
666.44	70.22
666.58	53.83
666.72	42.13
666.86	16.38
667.00	18.72
667.14	0.00
667.28	0.00
667.43	39.79
667.57	0.00
667.71	0.00
667.85	32.77
667.99	91.28
668.13	46.81
668.27	21.06
668.41	7.02
668.56	0.00
668.70	18.72
668.84	23.41
668.98	84.26
669.12	9.36
669.26	21.06
669.40	21.06
669.54	49.15
669.68	63.19
669.82	14.04
669.96	37.45
670.10	30.43
670.25	44.47
670.39	30.43
670.53	30.43
670.67	67.88
670.81	58.51
670.95	51.49
671.09	46.81
671.23	100.64
671.37	51.49
671.51	14.04
671.65	112.35
671.79	0.00
671.93	0.00
672.07	63.19
672.21	32.77
672.35	49.15
672.49	56.17
672.63	32.77
672.77	93.62
672.91	0.00
673.05	0.00
673.19	72.56
673.33	35.11
673.47	65.54
673.61	0.00
673.75	16.38
673.89	51.49
674.03	42.13
674.17	51.49
674.31	107.66
674.45	53.83
674.59	0.00
674.73	67.88
674.87	23.41
675.01	37.45
675.15	0.00
675.29	30.43
675.43	25.75
675.56	72.56
675.70	30.43
675.84	0.00
675.98	58.51
676.12	46.81
676.26	39.79
676.40	18.72
676.54	0.00
676.68	0.00
676.82	95.96
676.96	65.54
677.10	56.17
677.23	0.00
677.37	56.17
677.51	0.00
677.65	25.75
677.79	35.11
677.93	81.92
678.07	32.77
678.21	74.90
678.34	32.77
678.48	0.00
678.62	35.11
678.76	44.47
678.90	0.00
679.04	37.45
679.18	133.41
679.31	39.79
679.45	0.00
679.59	23.41
679.73	58.51
679.87	30.43
680.00	84.26
680.14	63.19
680.28	51.49
680.42	30.43
680.56	25.75
680.70	0.00
680.83	72.56
680.97	51.49
681.11	4.68
681.25	4.68
681.39	14.04
681.52	30.43
681.66	0.00
681.80	49.15
681.94	63.19
682.07	51.49
682.21	35.11
682.35	28.09
682.49	0.00
682.62	42.13
682.76	46.81
682.90	0.00
683.04	2.34
683.17	51.49
683.31	9.36
683.45	11.70
683.59	23.41
683.72	2.34
683.86	0.00
684.00	0.00
684.13	0.00
684.27	0.00
684.41	46.81
684.55	53.83
684.68	100.64
684.82	60.85
684.96	30.43
685.09	98.30
685.23	46.81
685.37	107.66
685.50	81.92
685.64	100.64
685.78	35.11
685.91	65.54
686.05	11.70
686.19	0.00
686.32	114.69
686.46	0.00
686.60	21.06
686.73	91.28
686.87	49.15
687.01	30.43
687.14	11.70
687.28	37.45
687.42	0.00
687.55	32.77
687.69	42.13
687.82	0.00
687.96	49.15
688.10	0.00
688.23	0.00
688.37	32.77
688.50	63.19
688.64	21.06
688.78	16.38
688.91	72.56
689.05	30.43
689.18	0.00
689.32	60.85
689.46	0.00
689.59	18.72
689.73	0.00
689.86	0.00
690.00	70.22
690.13	42.13
690.27	4.68
690.41	44.47
690.54	9.36
690.68	0.00
690.81	56.17
690.95	51.49
691.08	0.00
691.22	23.41
691.35	0.00
691.49	84.26
691.62	21.06
691.76	32.77
691.89	0.00
692.03	0.00
692.16	35.11
692.30	60.85
692.43	0.00
692.57	63.19
692.70	117.03
692.84	74.90
692.97	44.47
693.11	39.79
693.24	42.13
693.38	107.66
693.51	74.90
693.65	7.02
693.78	30.43
693.92	60.85
694.05	4.68
694.19	4.68
694.32	42.13
694.45	42.13
694.59	0.00
694.72	84.26
694.86	95.96
694.99	0.00
695.13	44.47
695.26	0.00
695.39	65.54
695.53	53.83
695.66	53.83
695.80	0.00
695.93	16.38
696.07	49.15
696.20	21.06
696.33	93.62
696.47	37.45
696.60	18.72
696.73	32.77
696.87	25.75
697.00	77.24
697.14	79.58
697.27	53.83
697.40	23.41
697.54	42.13
697.67	30.43
697.80	74.90
697.94	37.45
698.07	79.58
698.21	53.83
698.34	14.04
698.47	44.47
698.61	63.19
698.74	0.00
698.87	81.92
699.01	21.06
699.14	37.45
699.27	65.54
699.40	14.04
699.54	86.60
699.67	32.77
699.80	2.34
699.94	21.06
700.07	21.06
700.20	72.56
700.34	37.45
700.47	18.72
700.60	32.77
700.73	81.92
700.87	21.06
701.00	77.24
701.13	117.03
701.26	84.26
701.40	32.77
701.53	39.79
701.66	53.83
701.79	0.00
701.93	72.56
702.06	58.51
702.19	67.88
702.32	49.15
702.46	51.49
702.59	0.00
702.72	46.81
702.85	0.00
702.99	65.54
703.12	65.54
703.25	0.00
703.38	30.43
703.51	0.00
703.65	53.83
703.78	0.00
703.91	0.00
704.04	37.45
704.17	16.38
704.31	2.34
704.44	18.72
704.57	98.30
704.70	21.06
704.83	28.09
704.96	49.15
705.10	37.45
705.23	63.19
>>>>>End Processed Spectral Data<<<<<
