SpectraSuite Data File
++++++++++++++++++++++++++++++++++++
Date: Fri Oct 04 12:13:30 GMT-05:00 2013
User: price-jones
Dark Spectrum Present: No
Reference Spectrum Present: No
Number of Sampled Component Spectra: 1
Spectrometers: USB2+H05261
Integration Time (usec): 10000 (USB2+H05261)
Spectra Averaged: 1 (USB2+H05261)
Boxcar Smoothing: 0 (USB2+H05261)
Correct for Electrical Dark: No (USB2+H05261)
Strobe/Lamp Enabled: No (USB2+H05261)
Correct for Detector Non-linearity: No (USB2+H05261)
Correct for Stray Light: No (USB2+H05261)
Number of Pixels in Processed Spectrum: 2048
>>>>>Begin Processed Spectral Data<<<<<
365.73	0.00
365.92	0.00
366.12	0.00
366.32	0.00
366.52	0.00
366.72	0.00
366.91	0.00
367.11	0.00
367.31	0.00
367.51	0.00
367.70	0.00
367.90	0.00
368.10	0.00
368.30	0.00
368.49	0.00
368.69	0.00
368.89	0.00
369.09	0.00
369.28	0.00
369.48	0.00
369.68	0.00
369.87	0.00
370.07	0.00
370.27	0.00
370.47	0.00
370.66	0.00
370.86	0.00
371.06	0.00
371.25	0.00
371.45	0.00
371.65	0.00
371.84	4.68
372.04	30.43
372.24	0.00
372.44	0.00
372.63	0.00
372.83	23.41
373.03	84.26
373.22	0.00
373.42	58.51
373.62	44.47
373.81	35.11
374.01	32.77
374.21	56.17
374.40	0.00
374.60	58.51
374.79	0.00
374.99	2.34
375.19	7.02
375.38	58.51
375.58	11.70
375.78	18.72
375.97	21.06
376.17	84.26
376.37	32.77
376.56	0.00
376.76	32.77
376.95	30.43
377.15	0.00
377.35	4.68
377.54	0.00
377.74	74.90
377.93	18.72
378.13	4.68
378.33	0.00
378.52	0.00
378.72	46.81
378.91	35.11
379.11	18.72
379.31	0.00
379.50	0.00
379.70	18.72
379.89	18.72
380.09	74.90
380.28	9.36
380.48	14.04
380.68	0.00
380.87	28.09
381.07	67.88
381.26	42.13
381.46	58.51
381.65	0.00
381.85	25.75
382.04	9.36
382.24	0.00
382.43	0.00
382.63	2.34
382.83	30.43
383.02	49.15
383.22	65.54
383.41	28.09
383.61	0.00
383.80	23.41
384.00	51.49
384.19	0.00
384.39	14.04
384.58	2.34
384.78	0.00
384.97	2.34
385.17	0.00
385.36	30.43
385.56	46.81
385.75	0.00
385.95	14.04
386.14	42.13
386.34	44.47
386.53	0.00
386.72	30.43
386.92	0.00
387.11	11.70
387.31	56.17
387.50	30.43
387.70	42.13
387.89	95.96
388.09	58.51
388.28	44.47
388.48	53.83
388.67	0.00
388.86	0.00
389.06	53.83
389.25	30.43
389.45	49.15
389.64	39.79
389.84	88.94
390.03	28.09
390.22	14.04
390.42	0.00
390.61	0.00
390.81	0.00
391.00	0.00
391.19	60.85
391.39	0.00
391.58	65.54
391.78	7.02
391.97	72.56
392.16	0.00
392.36	0.00
392.55	0.00
392.75	39.79
392.94	60.85
393.13	14.04
393.33	39.79
393.52	0.00
393.71	14.04
393.91	77.24
394.10	0.00
394.29	93.62
394.49	0.00
394.68	58.51
394.88	28.09
395.07	4.68
395.26	14.04
395.46	0.00
395.65	0.00
395.84	0.00
396.04	23.41
396.23	14.04
396.42	0.00
396.62	0.00
396.81	0.00
397.00	0.00
397.19	56.17
397.39	0.00
397.58	0.00
397.77	58.51
397.97	18.72
398.16	32.77
398.35	46.81
398.55	18.72
398.74	67.88
398.93	28.09
399.12	0.00
399.32	42.13
399.51	56.17
399.70	0.00
399.90	56.17
400.09	0.00
400.28	79.58
400.47	14.04
400.67	0.00
400.86	0.00
401.05	23.41
401.24	65.54
401.44	0.00
401.63	35.11
401.82	0.00
402.01	70.22
402.21	0.00
402.40	0.00
402.59	35.11
402.78	0.00
402.97	72.56
403.17	51.49
403.36	42.13
403.55	0.00
403.74	7.02
403.93	0.00
404.13	0.00
404.32	0.00
404.51	32.77
404.70	0.00
404.89	0.00
405.09	86.60
405.28	9.36
405.47	0.00
405.66	42.13
405.85	7.02
406.05	39.79
406.24	23.41
406.43	35.11
406.62	72.56
406.81	16.38
407.00	46.81
407.20	4.68
407.39	49.15
407.58	0.00
407.77	44.47
407.96	39.79
408.15	39.79
408.34	25.75
408.54	37.45
408.73	0.00
408.92	16.38
409.11	25.75
409.30	0.00
409.49	16.38
409.68	44.47
409.87	4.68
410.07	28.09
410.26	28.09
410.45	0.00
410.64	16.38
410.83	23.41
411.02	51.49
411.21	58.51
411.40	18.72
411.59	4.68
411.78	25.75
411.98	110.01
412.17	51.49
412.36	11.70
412.55	2.34
412.74	0.00
412.93	35.11
413.12	42.13
413.31	25.75
413.50	21.06
413.69	51.49
413.88	0.00
414.07	0.00
414.26	65.54
414.45	67.88
414.64	35.11
414.83	39.79
415.02	77.24
415.22	0.00
415.41	60.85
415.60	70.22
415.79	21.06
415.98	0.00
416.17	65.54
416.36	56.17
416.55	14.04
416.74	23.41
416.93	0.00
417.12	0.00
417.31	44.47
417.50	42.13
417.69	0.00
417.88	0.00
418.07	9.36
418.26	0.00
418.45	0.00
418.64	95.96
418.83	37.45
419.02	18.72
419.21	0.00
419.39	11.70
419.58	42.13
419.77	30.43
419.96	11.70
420.15	23.41
420.34	49.15
420.53	39.79
420.72	44.47
420.91	39.79
421.10	51.49
421.29	37.45
421.48	25.75
421.67	0.00
421.86	25.75
422.05	32.77
422.24	51.49
422.43	63.19
422.61	37.45
422.80	65.54
422.99	39.79
423.18	0.00
423.37	46.81
423.56	0.00
423.75	37.45
423.94	56.17
424.13	63.19
424.32	0.00
424.50	9.36
424.69	37.45
424.88	16.38
425.07	11.70
425.26	91.28
425.45	42.13
425.64	32.77
425.83	79.58
426.01	46.81
426.20	67.88
426.39	105.32
426.58	39.79
426.77	86.60
426.96	0.00
427.15	18.72
427.33	72.56
427.52	46.81
427.71	11.70
427.90	0.00
428.09	0.00
428.28	0.00
428.46	0.00
428.65	23.41
428.84	100.64
429.03	9.36
429.22	0.00
429.40	37.45
429.59	79.58
429.78	0.00
429.97	0.00
430.16	0.00
430.34	0.00
430.53	11.70
430.72	53.83
430.91	32.77
431.10	112.35
431.28	88.94
431.47	0.00
431.66	39.79
431.85	7.02
432.03	63.19
432.22	16.38
432.41	58.51
432.60	65.54
432.79	86.60
432.97	7.02
433.16	0.00
433.35	14.04
433.54	39.79
433.72	30.43
433.91	25.75
434.10	37.45
434.28	7.02
434.47	0.00
434.66	74.90
434.85	58.51
435.03	58.51
435.22	0.00
435.41	7.02
435.59	14.04
435.78	0.00
435.97	7.02
436.16	0.00
436.34	0.00
436.53	63.19
436.72	0.00
436.90	21.06
437.09	14.04
437.28	35.11
437.46	81.92
437.65	32.77
437.84	0.00
438.02	28.09
438.21	105.32
438.40	0.00
438.58	23.41
438.77	46.81
438.96	9.36
439.14	0.00
439.33	0.00
439.52	30.43
439.70	95.96
439.89	65.54
440.08	74.90
440.26	21.06
440.45	79.58
440.63	4.68
440.82	49.15
441.01	0.00
441.19	60.85
441.38	7.02
441.57	25.75
441.75	28.09
441.94	63.19
442.12	25.75
442.31	53.83
442.50	60.85
442.68	14.04
442.87	30.43
443.05	16.38
443.24	84.26
443.43	28.09
443.61	11.70
443.80	9.36
443.98	14.04
444.17	0.00
444.35	7.02
444.54	56.17
444.73	28.09
444.91	7.02
445.10	67.88
445.28	35.11
445.47	42.13
445.65	18.72
445.84	0.00
446.02	70.22
446.21	4.68
446.39	14.04
446.58	28.09
446.77	56.17
446.95	2.34
447.14	4.68
447.32	35.11
447.51	7.02
447.69	91.28
447.88	23.41
448.06	0.00
448.25	46.81
448.43	18.72
448.62	105.32
448.80	77.24
448.99	39.79
449.17	0.00
449.36	0.00
449.54	53.83
449.73	72.56
449.91	30.43
450.10	0.00
450.28	30.43
450.46	16.38
450.65	4.68
450.83	7.02
451.02	0.00
451.20	11.70
451.39	86.60
451.57	35.11
451.76	4.68
451.94	56.17
452.13	11.70
452.31	63.19
452.49	44.47
452.68	0.00
452.86	60.85
453.05	86.60
453.23	0.00
453.42	44.47
453.60	65.54
453.78	0.00
453.97	9.36
454.15	23.41
454.34	60.85
454.52	7.02
454.70	32.77
454.89	0.00
455.07	79.58
455.26	0.00
455.44	0.00
455.62	98.30
455.81	28.09
455.99	14.04
456.17	65.54
456.36	37.45
456.54	65.54
456.73	0.00
456.91	18.72
457.09	21.06
457.28	32.77
457.46	49.15
457.64	18.72
457.83	39.79
458.01	44.47
458.19	63.19
458.38	79.58
458.56	35.11
458.74	0.00
458.93	18.72
459.11	65.54
459.29	44.47
459.48	25.75
459.66	53.83
459.84	67.88
460.03	0.00
460.21	32.77
460.39	0.00
460.57	2.34
460.76	60.85
460.94	0.00
461.12	53.83
461.31	37.45
461.49	81.92
461.67	23.41
461.85	37.45
462.04	53.83
462.22	65.54
462.40	39.79
462.59	21.06
462.77	53.83
462.95	51.49
463.13	0.00
463.32	7.02
463.50	18.72
463.68	0.00
463.86	0.00
464.05	0.00
464.23	56.17
464.41	35.11
464.59	11.70
464.78	32.77
464.96	58.51
465.14	74.90
465.32	42.13
465.50	49.15
465.69	28.09
465.87	63.19
466.05	0.00
466.23	42.13
466.41	28.09
466.60	49.15
466.78	42.13
466.96	25.75
467.14	42.13
467.32	100.64
467.51	53.83
467.69	42.13
467.87	70.22
468.05	0.00
468.23	72.56
468.41	28.09
468.60	0.00
468.78	84.26
468.96	93.62
469.14	18.72
469.32	37.45
469.50	51.49
469.69	0.00
469.87	23.41
470.05	93.62
470.23	30.43
470.41	46.81
470.59	51.49
470.77	0.00
470.95	86.60
471.14	0.00
471.32	51.49
471.50	0.00
471.68	60.85
471.86	117.03
472.04	63.19
472.22	16.38
472.40	0.00
472.58	9.36
472.77	21.06
472.95	63.19
473.13	95.96
473.31	30.43
473.49	46.81
473.67	0.00
473.85	44.47
474.03	102.98
474.21	124.05
474.39	14.04
474.57	51.49
474.75	107.66
474.93	77.24
475.12	4.68
475.30	7.02
475.48	4.68
475.66	86.60
475.84	16.38
476.02	42.13
476.20	35.11
476.38	0.00
476.56	81.92
476.74	0.00
476.92	14.04
477.10	56.17
477.28	0.00
477.46	4.68
477.64	23.41
477.82	9.36
478.00	60.85
478.18	93.62
478.36	56.17
478.54	49.15
478.72	145.11
478.90	42.13
479.08	105.32
479.26	0.00
479.44	28.09
479.62	0.00
479.80	32.77
479.98	0.00
480.16	0.00
480.34	105.32
480.52	42.13
480.70	51.49
480.88	0.00
481.06	4.68
481.24	16.38
481.41	21.06
481.59	67.88
481.77	51.49
481.95	42.13
482.13	39.79
482.31	16.38
482.49	30.43
482.67	72.56
482.85	0.00
483.03	0.00
483.21	0.00
483.39	11.70
483.57	51.49
483.74	35.11
483.92	49.15
484.10	16.38
484.28	53.83
484.46	11.70
484.64	65.54
484.82	0.00
485.00	4.68
485.18	7.02
485.35	51.49
485.53	0.00
485.71	37.45
485.89	18.72
486.07	21.06
486.25	42.13
486.43	72.56
486.61	42.13
486.78	46.81
486.96	30.43
487.14	0.00
487.32	0.00
487.50	58.51
487.68	44.47
487.85	30.43
488.03	44.47
488.21	0.00
488.39	65.54
488.57	39.79
488.75	16.38
488.92	37.45
489.10	28.09
489.28	49.15
489.46	70.22
489.64	37.45
489.81	23.41
489.99	56.17
490.17	58.51
490.35	110.01
490.53	67.88
490.70	51.49
490.88	32.77
491.06	9.36
491.24	0.00
491.41	51.49
491.59	81.92
491.77	0.00
491.95	28.09
492.13	39.79
492.30	32.77
492.48	11.70
492.66	112.35
492.84	0.00
493.01	7.02
493.19	56.17
493.37	98.30
493.54	35.11
493.72	119.37
493.90	42.13
494.08	23.41
494.25	0.00
494.43	53.83
494.61	0.00
494.79	32.77
494.96	7.02
495.14	53.83
495.32	70.22
495.49	25.75
495.67	126.39
495.85	16.38
496.02	37.45
496.20	60.85
496.38	63.19
496.55	53.83
496.73	0.00
496.91	11.70
497.09	7.02
497.26	0.00
497.44	44.47
497.62	0.00
497.79	32.77
497.97	37.45
498.14	91.28
498.32	0.00
498.50	56.17
498.67	0.00
498.85	53.83
499.03	72.56
499.20	18.72
499.38	65.54
499.56	4.68
499.73	72.56
499.91	18.72
500.08	51.49
500.26	32.77
500.44	72.56
500.61	70.22
500.79	77.24
500.97	11.70
501.14	46.81
501.32	39.79
501.49	60.85
501.67	70.22
501.84	56.17
502.02	35.11
502.20	60.85
502.37	37.45
502.55	51.49
502.72	37.45
502.90	0.00
503.07	58.51
503.25	110.01
503.43	35.11
503.60	46.81
503.78	42.13
503.95	37.45
504.13	74.90
504.30	0.00
504.48	98.30
504.65	44.47
504.83	14.04
505.01	11.70
505.18	16.38
505.36	4.68
505.53	51.49
505.71	16.38
505.88	100.64
506.06	72.56
506.23	0.00
506.41	0.00
506.58	49.15
506.76	88.94
506.93	0.00
507.11	79.58
507.28	23.41
507.46	79.58
507.63	63.19
507.81	39.79
507.98	56.17
508.16	0.00
508.33	79.58
508.50	28.09
508.68	0.00
508.85	28.09
509.03	49.15
509.20	35.11
509.38	0.00
509.55	0.00
509.73	0.00
509.90	16.38
510.08	11.70
510.25	14.04
510.42	56.17
510.60	30.43
510.77	39.79
510.95	0.00
511.12	60.85
511.30	51.49
511.47	14.04
511.64	84.26
511.82	0.00
511.99	84.26
512.17	28.09
512.34	18.72
512.51	0.00
512.69	114.69
512.86	105.32
513.04	23.41
513.21	67.88
513.38	42.13
513.56	70.22
513.73	7.02
513.90	30.43
514.08	0.00
514.25	30.43
514.43	7.02
514.60	79.58
514.77	49.15
514.95	39.79
515.12	46.81
515.29	72.56
515.47	74.90
515.64	67.88
515.81	110.01
515.99	67.88
516.16	53.83
516.33	126.39
516.51	79.58
516.68	49.15
516.85	23.41
517.03	0.00
517.20	44.47
517.37	53.83
517.54	39.79
517.72	37.45
517.89	25.75
518.06	93.62
518.24	67.88
518.41	30.43
518.58	121.71
518.75	70.22
518.93	70.22
519.10	44.47
519.27	21.06
519.45	58.51
519.62	58.51
519.79	102.98
519.96	0.00
520.14	81.92
520.31	65.54
520.48	58.51
520.65	21.06
520.83	112.35
521.00	32.77
521.17	74.90
521.34	112.35
521.52	28.09
521.69	49.15
521.86	58.51
522.03	58.51
522.20	53.83
522.38	0.00
522.55	37.45
522.72	60.85
522.89	0.00
523.07	86.60
523.24	67.88
523.41	0.00
523.58	21.06
523.75	63.19
523.92	65.54
524.10	95.96
524.27	14.04
524.44	32.77
524.61	28.09
524.78	51.49
524.96	67.88
525.13	72.56
525.30	44.47
525.47	0.00
525.64	110.01
525.81	63.19
525.98	53.83
526.16	0.00
526.33	51.49
526.50	0.00
526.67	32.77
526.84	102.98
527.01	11.70
527.18	51.49
527.36	70.22
527.53	37.45
527.70	49.15
527.87	2.34
528.04	44.47
528.21	28.09
528.38	30.43
528.55	79.58
528.72	42.13
528.89	86.60
529.07	9.36
529.24	72.56
529.41	117.03
529.58	25.75
529.75	32.77
529.92	30.43
530.09	21.06
530.26	11.70
530.43	23.41
530.60	37.45
530.77	0.00
530.94	9.36
531.11	67.88
531.28	37.45
531.46	46.81
531.63	70.22
531.80	56.17
531.97	0.00
532.14	11.70
532.31	51.49
532.48	16.38
532.65	39.79
532.82	67.88
532.99	42.13
533.16	70.22
533.33	77.24
533.50	88.94
533.67	49.15
533.84	0.00
534.01	58.51
534.18	95.96
534.35	81.92
534.52	7.02
534.69	35.11
534.86	39.79
535.03	11.70
535.20	86.60
535.37	44.47
535.54	74.90
535.71	77.24
535.88	46.81
536.05	65.54
536.22	65.54
536.38	14.04
536.55	56.17
536.72	0.00
536.89	35.11
537.06	74.90
537.23	23.41
537.40	65.54
537.57	63.19
537.74	79.58
537.91	63.19
538.08	95.96
538.25	9.36
538.42	49.15
538.59	53.83
538.75	42.13
538.92	30.43
539.09	25.75
539.26	23.41
539.43	4.68
539.60	100.64
539.77	119.37
539.94	140.43
540.11	77.24
540.28	98.30
540.44	110.01
540.61	88.94
540.78	91.28
540.95	28.09
541.12	88.94
541.29	102.98
541.46	0.00
541.62	74.90
541.79	53.83
541.96	110.01
542.13	67.88
542.30	0.00
542.47	0.00
542.63	72.56
542.80	2.34
542.97	32.77
543.14	11.70
543.31	56.17
543.48	35.11
543.64	67.88
543.81	37.45
543.98	42.13
544.15	60.85
544.32	14.04
544.48	39.79
544.65	138.09
544.82	44.47
544.99	56.17
545.16	67.88
545.32	30.43
545.49	0.00
545.66	23.41
545.83	28.09
546.00	53.83
546.16	28.09
546.33	21.06
546.50	0.00
546.67	74.90
546.83	63.19
547.00	74.90
547.17	98.30
547.34	117.03
547.50	21.06
547.67	0.00
547.84	39.79
548.00	56.17
548.17	91.28
548.34	56.17
548.51	65.54
548.67	30.43
548.84	14.04
549.01	56.17
549.18	100.64
549.34	37.45
549.51	0.00
549.68	44.47
549.84	42.13
550.01	63.19
550.18	117.03
550.34	102.98
550.51	56.17
550.68	37.45
550.84	49.15
551.01	32.77
551.18	23.41
551.34	81.92
551.51	100.64
551.68	0.00
551.84	72.56
552.01	46.81
552.18	0.00
552.34	39.79
552.51	14.04
552.68	46.81
552.84	67.88
553.01	79.58
553.18	0.00
553.34	46.81
553.51	23.41
553.67	49.15
553.84	77.24
554.01	67.88
554.17	0.00
554.34	110.01
554.51	110.01
554.67	0.00
554.84	11.70
555.00	9.36
555.17	81.92
555.33	121.71
555.50	18.72
555.67	168.52
555.83	81.92
556.00	25.75
556.16	65.54
556.33	28.09
556.50	37.45
556.66	58.51
556.83	79.58
556.99	28.09
557.16	32.77
557.32	32.77
557.49	25.75
557.65	53.83
557.82	0.00
557.98	70.22
558.15	65.54
558.32	7.02
558.48	28.09
558.65	53.83
558.81	0.00
558.98	23.41
559.14	25.75
559.31	63.19
559.47	23.41
559.64	14.04
559.80	49.15
559.97	4.68
560.13	63.19
560.30	95.96
560.46	0.00
560.63	107.66
560.79	56.17
560.96	53.83
561.12	21.06
561.29	65.54
561.45	0.00
561.61	35.11
561.78	2.34
561.94	0.00
562.11	46.81
562.27	30.43
562.44	93.62
562.60	16.38
562.77	100.64
562.93	16.38
563.10	7.02
563.26	0.00
563.42	35.11
563.59	67.88
563.75	60.85
563.92	81.92
564.08	102.98
564.24	65.54
564.41	63.19
564.57	51.49
564.74	16.38
564.90	25.75
565.07	95.96
565.23	44.47
565.39	0.00
565.56	16.38
565.72	65.54
565.88	67.88
566.05	58.51
566.21	28.09
566.38	42.13
566.54	30.43
566.70	49.15
566.87	0.00
567.03	32.77
567.19	65.54
567.36	128.73
567.52	56.17
567.68	65.54
567.85	95.96
568.01	11.70
568.17	0.00
568.34	0.00
568.50	30.43
568.66	28.09
568.83	16.38
568.99	0.00
569.15	9.36
569.32	110.01
569.48	58.51
569.64	77.24
569.81	2.34
569.97	49.15
570.13	56.17
570.30	77.24
570.46	58.51
570.62	21.06
570.78	28.09
570.95	2.34
571.11	0.00
571.27	124.05
571.43	102.98
571.60	28.09
571.76	18.72
571.92	16.38
572.09	49.15
572.25	7.02
572.41	42.13
572.57	14.04
572.74	28.09
572.90	65.54
573.06	88.94
573.22	95.96
573.38	74.90
573.55	63.19
573.71	32.77
573.87	46.81
574.03	133.41
574.20	51.49
574.36	86.60
574.52	42.13
574.68	46.81
574.84	67.88
575.01	9.36
575.17	4.68
575.33	70.22
575.49	51.49
575.65	102.98
575.82	53.83
575.98	16.38
576.14	42.13
576.30	77.24
576.46	16.38
576.62	124.05
576.79	156.82
576.95	93.62
577.11	30.43
577.27	51.49
577.43	0.00
577.59	65.54
577.75	9.36
577.92	117.03
578.08	37.45
578.24	74.90
578.40	14.04
578.56	53.83
578.72	42.13
578.88	110.01
579.04	14.04
579.21	58.51
579.37	14.04
579.53	46.81
579.69	46.81
579.85	63.19
580.01	93.62
580.17	91.28
580.33	35.11
580.49	0.00
580.65	42.13
580.82	46.81
580.98	93.62
581.14	98.30
581.30	119.37
581.46	7.02
581.62	88.94
581.78	105.32
581.94	60.85
582.10	121.71
582.26	79.58
582.42	0.00
582.58	100.64
582.74	51.49
582.90	0.00
583.06	42.13
583.22	35.11
583.38	37.45
583.54	105.32
583.70	102.98
583.86	149.79
584.02	84.26
584.18	112.35
584.34	86.60
584.50	311.29
584.66	1668.80
584.82	3922.74
584.98	5193.65
585.14	4369.78
585.30	2743.11
585.46	1802.21
585.62	1135.16
585.78	550.03
585.94	187.24
586.10	79.58
586.26	105.32
586.42	142.77
586.58	72.56
586.74	105.32
586.90	35.11
587.06	91.28
587.22	39.79
587.38	77.24
587.54	84.26
587.70	234.05
587.86	437.68
588.02	477.47
588.18	325.33
588.34	152.13
588.49	138.09
588.65	131.07
588.81	46.81
588.97	44.47
589.13	0.00
589.29	7.02
589.45	42.13
589.61	0.00
589.77	44.47
589.93	60.85
590.08	79.58
590.24	110.01
590.40	0.00
590.56	35.11
590.72	32.77
590.88	23.41
591.04	2.34
591.20	53.83
591.35	77.24
591.51	44.47
591.67	49.15
591.83	30.43
591.99	16.38
592.15	72.56
592.31	25.75
592.46	7.02
592.62	60.85
592.78	49.15
592.94	60.85
593.10	30.43
593.26	51.49
593.41	46.81
593.57	49.15
593.73	86.60
593.89	287.89
594.05	603.86
594.20	653.01
594.36	564.07
594.52	454.06
594.68	311.29
594.84	262.14
594.99	110.01
595.15	65.54
595.31	74.90
595.47	32.77
595.62	65.54
595.78	81.92
595.94	23.41
596.10	126.39
596.25	63.19
596.41	4.68
596.57	124.05
596.73	11.70
596.88	67.88
597.04	168.52
597.20	229.37
597.36	205.97
597.51	140.43
597.67	72.56
597.83	51.49
597.99	9.36
598.14	95.96
598.30	65.54
598.46	42.13
598.61	60.85
598.77	35.11
598.93	7.02
599.09	28.09
599.24	124.05
599.40	39.79
599.56	56.17
599.71	7.02
599.87	4.68
600.03	18.72
600.18	0.00
600.34	11.70
600.50	0.00
600.65	0.00
600.81	0.00
600.97	42.13
601.12	35.11
601.28	0.00
601.44	28.09
601.59	46.81
601.75	67.88
601.91	35.11
602.06	37.45
602.22	0.00
602.37	51.49
602.53	154.48
602.69	250.44
602.84	224.69
603.00	124.05
603.16	107.66
603.31	93.62
603.47	65.54
603.62	0.00
603.78	39.79
603.94	44.47
604.09	9.36
604.25	0.00
604.40	0.00
604.56	0.00
604.71	25.75
604.87	4.68
605.03	81.92
605.18	0.00
605.34	0.00
605.49	16.38
605.65	124.05
605.80	79.58
605.96	142.77
606.12	25.75
606.27	56.17
606.43	102.98
606.58	49.15
606.74	121.71
606.89	299.59
607.05	566.41
607.20	589.82
607.36	428.32
607.51	327.68
607.67	250.44
607.82	170.86
607.98	135.75
608.13	65.54
608.29	93.62
608.44	65.54
608.60	0.00
608.75	32.77
608.91	161.50
609.06	381.51
609.22	823.87
609.37	968.98
609.53	826.21
609.68	615.56
609.84	407.25
609.99	220.01
610.15	100.64
610.30	138.09
610.46	21.06
610.61	2.34
610.76	70.22
610.92	98.30
611.07	44.47
611.23	56.17
611.38	0.00
611.54	11.70
611.69	56.17
611.84	46.81
612.00	44.47
612.15	74.90
612.31	74.90
612.46	72.56
612.62	121.71
612.77	74.90
612.92	0.00
613.08	133.41
613.23	16.38
613.39	28.09
613.54	56.17
613.69	510.24
613.85	987.71
614.00	1380.92
614.15	1528.37
614.31	1163.25
614.46	788.76
614.62	482.15
614.77	318.31
614.92	259.80
615.08	79.58
615.23	42.13
615.38	65.54
615.54	37.45
615.69	93.62
615.84	212.99
616.00	365.12
616.15	388.53
616.30	334.70
616.46	248.10
616.61	182.56
616.76	159.16
616.92	65.54
617.07	28.09
617.22	63.19
617.37	2.34
617.53	65.54
617.68	0.00
617.83	0.00
617.99	60.85
618.14	30.43
618.29	77.24
618.45	37.45
618.60	16.38
618.75	2.34
618.90	0.00
619.06	0.00
619.21	21.06
619.36	25.75
619.51	53.83
619.67	72.56
619.82	72.56
619.97	67.88
620.12	37.45
620.28	86.60
620.43	74.90
620.58	42.13
620.73	28.09
620.89	58.51
621.04	9.36
621.19	88.94
621.34	194.26
621.49	245.76
621.65	252.78
621.80	198.95
621.95	121.71
622.10	84.26
622.25	65.54
622.41	56.17
622.56	67.88
622.71	9.36
622.86	42.13
623.01	65.54
623.16	110.01
623.32	77.24
623.47	16.38
623.62	9.36
623.77	74.90
623.92	70.22
624.07	86.60
624.23	18.72
624.38	0.00
624.53	42.13
624.68	0.00
624.83	9.36
624.98	18.72
625.13	60.85
625.29	81.92
625.44	91.28
625.59	0.00
625.74	86.60
625.89	110.01
626.04	138.09
626.19	472.79
626.34	739.61
626.49	840.25
626.65	517.26
626.80	418.96
626.95	400.23
627.10	227.03
627.25	88.94
627.40	0.00
627.55	51.49
627.70	23.41
627.85	53.83
628.00	110.01
628.15	35.11
628.30	53.83
628.45	63.19
628.60	72.56
628.76	105.32
628.91	53.83
629.06	65.54
629.21	74.90
629.36	53.83
629.51	35.11
629.66	86.60
629.81	65.54
629.96	88.94
630.11	227.03
630.26	222.35
630.41	234.05
630.56	187.24
630.71	91.28
630.86	77.24
631.01	93.62
631.16	7.02
631.31	105.32
631.46	39.79
631.61	51.49
631.76	53.83
631.91	44.47
632.06	37.45
632.21	63.19
632.36	79.58
632.51	70.22
632.66	16.38
632.81	135.75
632.96	292.57
633.10	418.96
633.25	594.50
633.40	425.98
633.55	383.85
633.70	301.93
633.85	147.45
634.00	72.56
634.15	49.15
634.30	102.98
634.45	2.34
634.60	37.45
634.75	70.22
634.90	72.56
635.05	100.64
635.19	56.17
635.34	70.22
635.49	133.41
635.64	81.92
635.79	16.38
635.94	58.51
636.09	117.03
636.24	86.60
636.39	16.38
636.53	35.11
636.68	0.00
636.83	100.64
636.98	67.88
637.13	107.66
637.28	23.41
637.43	49.15
637.57	100.64
637.72	217.67
637.87	671.73
638.02	1034.52
638.17	1034.52
638.32	774.72
638.46	535.98
638.61	301.93
638.76	259.80
638.91	147.45
639.06	81.92
639.20	110.01
639.35	9.36
639.50	0.00
639.65	402.57
639.80	1025.15
639.94	1558.80
640.09	1568.16
640.24	1109.41
640.39	819.19
640.54	711.52
640.68	383.85
640.83	126.39
640.98	98.30
641.13	18.72
641.27	30.43
641.42	63.19
641.57	119.37
641.72	7.02
641.86	60.85
642.01	42.13
642.16	88.94
642.31	0.00
642.45	37.45
642.60	74.90
642.75	86.60
642.90	7.02
643.04	100.64
643.19	37.45
643.34	30.43
643.48	63.19
643.63	0.00
643.78	42.13
643.93	72.56
644.07	0.00
644.22	18.72
644.37	14.04
644.51	70.22
644.66	114.69
644.81	9.36
644.95	42.13
645.10	60.85
645.25	0.00
645.39	32.77
645.54	39.79
645.69	49.15
645.83	117.03
645.98	32.77
646.13	84.26
646.27	72.56
646.42	42.13
646.57	70.22
646.71	32.77
646.86	63.19
647.00	0.00
647.15	14.04
647.30	0.00
647.44	30.43
647.59	93.62
647.74	84.26
647.88	30.43
648.03	44.47
648.17	60.85
648.32	4.68
648.47	37.45
648.61	0.00
648.76	98.30
648.90	79.58
649.05	46.81
649.20	18.72
649.34	21.06
649.49	0.00
649.63	0.00
649.78	58.51
649.92	74.90
650.07	152.13
650.21	435.34
650.36	781.74
650.51	772.38
650.65	732.59
650.80	514.92
650.94	313.63
651.09	205.97
651.23	110.01
651.38	63.19
651.52	18.72
651.67	95.96
651.81	42.13
651.96	2.34
652.10	65.54
652.25	63.19
652.39	28.09
652.54	42.13
652.68	49.15
652.83	220.01
652.97	205.97
653.12	255.12
653.26	332.36
653.41	248.10
653.55	177.88
653.70	81.92
653.84	56.17
653.99	37.45
654.13	0.00
654.27	32.77
654.42	72.56
654.56	21.06
654.71	70.22
654.85	0.00
655.00	0.00
655.14	95.96
655.29	63.19
655.43	7.02
655.57	32.77
655.72	0.00
655.86	44.47
656.01	0.00
656.15	46.81
656.30	9.36
656.44	67.88
656.58	42.13
656.73	16.38
656.87	39.79
657.01	14.04
657.16	56.17
657.30	53.83
657.45	0.00
657.59	70.22
657.73	65.54
657.88	70.22
658.02	70.22
658.16	46.81
658.31	51.49
658.45	25.75
658.60	37.45
658.74	35.11
658.88	9.36
659.03	88.94
659.17	121.71
659.31	58.51
659.46	266.82
659.60	334.70
659.74	444.70
659.89	299.59
660.03	355.76
660.17	184.90
660.32	112.35
660.46	72.56
660.60	37.45
660.74	23.41
660.89	77.24
661.03	28.09
661.17	91.28
661.32	81.92
661.46	28.09
661.60	28.09
661.74	65.54
661.89	72.56
662.03	0.00
662.17	0.00
662.31	35.11
662.46	25.75
662.60	16.38
662.74	32.77
662.88	32.77
663.03	58.51
663.17	53.83
663.31	84.26
663.45	95.96
663.60	84.26
663.74	21.06
663.88	117.03
664.02	42.13
664.17	16.38
664.31	14.04
664.45	42.13
664.59	44.47
664.73	32.77
664.88	0.00
665.02	9.36
665.16	28.09
665.30	25.75
665.44	0.00
665.59	65.54
665.73	56.17
665.87	72.56
666.01	44.47
666.15	0.00
666.29	58.51
666.44	53.83
666.58	16.38
666.72	65.54
666.86	72.56
667.00	49.15
667.14	21.06
667.28	215.33
667.43	479.81
667.57	578.11
667.71	664.71
667.85	585.13
667.99	519.60
668.13	348.74
668.27	241.08
668.41	175.54
668.56	135.75
668.70	105.32
668.84	4.68
668.98	58.51
669.12	56.17
669.26	39.79
669.40	77.24
669.54	14.04
669.68	30.43
669.82	51.49
669.96	46.81
670.10	32.77
670.25	58.51
670.39	0.00
670.53	74.90
670.67	95.96
670.81	42.13
670.95	70.22
671.09	30.43
671.23	135.75
671.37	313.63
671.51	355.76
671.65	400.23
671.79	351.08
671.93	290.23
672.07	201.29
672.21	142.77
672.35	98.30
672.49	58.51
672.63	72.56
672.77	30.43
672.91	18.72
673.05	46.81
673.19	58.51
673.33	58.51
673.47	7.02
673.61	0.00
673.75	4.68
673.89	91.28
674.03	0.00
674.17	46.81
674.31	14.04
674.45	23.41
674.59	11.70
674.73	42.13
674.87	2.34
675.01	21.06
675.15	0.00
675.29	53.83
675.43	32.77
675.56	63.19
675.70	95.96
675.84	65.54
675.98	39.79
676.12	0.00
676.26	81.92
676.40	0.00
676.54	72.56
676.68	110.01
676.82	11.70
676.96	37.45
677.10	72.56
677.23	77.24
677.37	2.34
677.51	91.28
677.65	74.90
677.79	67.88
677.93	81.92
678.07	70.22
678.21	35.11
678.34	0.00
678.48	18.72
678.62	88.94
678.76	74.90
678.90	21.06
679.04	2.34
679.18	23.41
679.31	39.79
679.45	0.00
679.59	126.39
679.73	74.90
679.87	18.72
680.00	0.00
680.14	23.41
680.28	32.77
680.42	23.41
680.56	100.64
680.70	35.11
680.83	67.88
680.97	70.22
681.11	60.85
681.25	39.79
681.39	25.75
681.52	46.81
681.66	16.38
681.80	37.45
681.94	0.00
682.07	46.81
682.21	58.51
682.35	28.09
682.49	28.09
682.62	56.17
682.76	30.43
682.90	42.13
683.04	11.70
683.17	0.00
683.31	0.00
683.45	0.00
683.59	42.13
683.72	2.34
683.86	0.00
684.00	30.43
684.13	9.36
684.27	0.00
684.41	0.00
684.55	35.11
684.68	42.13
684.82	114.69
684.96	110.01
685.09	0.00
685.23	77.24
685.37	0.00
685.50	53.83
685.64	11.70
685.78	7.02
685.91	86.60
686.05	70.22
686.19	51.49
686.32	28.09
686.46	56.17
686.60	32.77
686.73	30.43
686.87	4.68
687.01	46.81
687.14	0.00
687.28	28.09
687.42	0.00
687.55	9.36
687.69	39.79
687.82	11.70
687.96	28.09
688.10	28.09
688.23	46.81
688.37	81.92
688.50	49.15
688.64	63.19
688.78	67.88
688.91	4.68
689.05	0.00
689.18	37.45
689.32	65.54
689.46	7.02
689.59	18.72
689.73	28.09
689.86	14.04
690.00	30.43
690.13	37.45
690.27	21.06
690.41	21.06
690.54	11.70
690.68	0.00
690.81	18.72
690.95	21.06
691.08	79.58
691.22	28.09
691.35	0.00
691.49	0.00
691.62	0.00
691.76	0.00
691.89	21.06
692.03	53.83
692.16	88.94
692.30	28.09
692.43	60.85
692.57	175.54
692.70	330.02
692.84	388.53
692.97	365.12
693.11	201.29
693.24	152.13
693.38	86.60
693.51	95.96
693.65	117.03
693.78	0.00
693.92	65.54
694.05	44.47
694.19	81.92
694.32	44.47
694.45	0.00
694.59	49.15
694.72	84.26
694.86	30.43
694.99	28.09
695.13	114.69
695.26	95.96
695.39	46.81
695.53	14.04
695.66	44.47
695.80	53.83
695.93	18.72
696.07	77.24
696.20	23.41
696.33	95.96
696.47	79.58
696.60	28.09
696.73	30.43
696.87	0.00
697.00	28.09
697.14	25.75
697.27	37.45
697.40	56.17
697.54	30.43
697.67	30.43
697.80	44.47
697.94	0.00
698.07	9.36
698.21	74.90
698.34	63.19
698.47	58.51
698.61	63.19
698.74	39.79
698.87	63.19
699.01	93.62
699.14	21.06
699.27	51.49
699.40	9.36
699.54	30.43
699.67	0.00
699.80	0.00
699.94	0.00
700.07	58.51
700.20	63.19
700.34	74.90
700.47	18.72
700.60	2.34
700.73	51.49
700.87	30.43
701.00	0.00
701.13	44.47
701.26	0.00
701.40	0.00
701.53	51.49
701.66	32.77
701.79	72.56
701.93	35.11
702.06	56.17
702.19	114.69
702.32	74.90
702.46	16.38
702.59	35.11
702.72	100.64
702.85	266.82
702.99	519.60
703.12	550.03
703.25	608.54
703.38	503.22
703.51	468.11
703.65	381.51
703.78	229.37
703.91	173.20
704.04	149.79
704.17	11.70
704.31	44.47
704.44	58.51
704.57	46.81
704.70	21.06
704.83	84.26
704.96	0.00
705.10	44.47
705.23	11.70
>>>>>End Processed Spectral Data<<<<<
