SpectraSuite Data File
++++++++++++++++++++++++++++++++++++
Date: Fri Oct 04 12:13:39 GMT-05:00 2013
User: price-jones
Dark Spectrum Present: No
Reference Spectrum Present: No
Number of Sampled Component Spectra: 1
Spectrometers: USB2+H05261
Integration Time (usec): 10000 (USB2+H05261)
Spectra Averaged: 1 (USB2+H05261)
Boxcar Smoothing: 0 (USB2+H05261)
Correct for Electrical Dark: No (USB2+H05261)
Strobe/Lamp Enabled: No (USB2+H05261)
Correct for Detector Non-linearity: No (USB2+H05261)
Correct for Stray Light: No (USB2+H05261)
Number of Pixels in Processed Spectrum: 2048
>>>>>Begin Processed Spectral Data<<<<<
365.73	0.00
365.92	0.00
366.12	0.00
366.32	0.00
366.52	0.00
366.72	0.00
366.91	0.00
367.11	0.00
367.31	0.00
367.51	0.00
367.70	0.00
367.90	0.00
368.10	0.00
368.30	0.00
368.49	0.00
368.69	0.00
368.89	0.00
369.09	0.00
369.28	0.00
369.48	0.00
369.68	0.00
369.87	0.00
370.07	0.00
370.27	0.00
370.47	0.00
370.66	0.00
370.86	0.00
371.06	0.00
371.25	25.75
371.45	0.00
371.65	0.00
371.84	0.00
372.04	0.00
372.24	0.00
372.44	0.00
372.63	28.09
372.83	0.00
373.03	0.00
373.22	0.00
373.42	32.77
373.62	0.00
373.81	70.22
374.01	51.49
374.21	49.15
374.40	23.41
374.60	39.79
374.79	67.88
374.99	39.79
375.19	67.88
375.38	77.24
375.58	16.38
375.78	23.41
375.97	9.36
376.17	0.00
376.37	39.79
376.56	35.11
376.76	30.43
376.95	91.28
377.15	79.58
377.35	25.75
377.54	30.43
377.74	18.72
377.93	84.26
378.13	39.79
378.33	0.00
378.52	35.11
378.72	21.06
378.91	0.00
379.11	37.45
379.31	0.00
379.50	53.83
379.70	30.43
379.89	0.00
380.09	23.41
380.28	23.41
380.48	77.24
380.68	0.00
380.87	0.00
381.07	42.13
381.26	72.56
381.46	51.49
381.65	74.90
381.85	35.11
382.04	0.00
382.24	0.00
382.43	0.00
382.63	21.06
382.83	65.54
383.02	9.36
383.22	39.79
383.41	11.70
383.61	37.45
383.80	49.15
384.00	77.24
384.19	9.36
384.39	81.92
384.58	11.70
384.78	60.85
384.97	14.04
385.17	63.19
385.36	0.00
385.56	0.00
385.75	11.70
385.95	46.81
386.14	0.00
386.34	58.51
386.53	23.41
386.72	77.24
386.92	18.72
387.11	67.88
387.31	30.43
387.50	63.19
387.70	0.00
387.89	0.00
388.09	0.00
388.28	4.68
388.48	0.00
388.67	28.09
388.86	42.13
389.06	25.75
389.25	0.00
389.45	0.00
389.64	11.70
389.84	63.19
390.03	63.19
390.22	44.47
390.42	0.00
390.61	18.72
390.81	4.68
391.00	0.00
391.19	0.00
391.39	0.00
391.58	0.00
391.78	44.47
391.97	9.36
392.16	53.83
392.36	23.41
392.55	49.15
392.75	28.09
392.94	0.00
393.13	39.79
393.33	16.38
393.52	70.22
393.71	4.68
393.91	0.00
394.10	44.47
394.29	0.00
394.49	9.36
394.68	102.98
394.88	30.43
395.07	21.06
395.26	0.00
395.46	39.79
395.65	23.41
395.84	0.00
396.04	21.06
396.23	30.43
396.42	23.41
396.62	21.06
396.81	53.83
397.00	42.13
397.19	0.00
397.39	16.38
397.58	56.17
397.77	25.75
397.97	46.81
398.16	79.58
398.35	58.51
398.55	77.24
398.74	32.77
398.93	23.41
399.12	0.00
399.32	0.00
399.51	88.94
399.70	37.45
399.90	0.00
400.09	0.00
400.28	18.72
400.47	9.36
400.67	4.68
400.86	21.06
401.05	25.75
401.24	44.47
401.44	67.88
401.63	102.98
401.82	63.19
402.01	46.81
402.21	0.00
402.40	74.90
402.59	32.77
402.78	7.02
402.97	42.13
403.17	81.92
403.36	0.00
403.55	11.70
403.74	28.09
403.93	51.49
404.13	0.00
404.32	9.36
404.51	2.34
404.70	77.24
404.89	0.00
405.09	46.81
405.28	23.41
405.47	0.00
405.66	65.54
405.85	72.56
406.05	0.00
406.24	70.22
406.43	74.90
406.62	39.79
406.81	4.68
407.00	51.49
407.20	44.47
407.39	32.77
407.58	0.00
407.77	32.77
407.96	53.83
408.15	37.45
408.34	2.34
408.54	37.45
408.73	28.09
408.92	0.00
409.11	14.04
409.30	4.68
409.49	63.19
409.68	11.70
409.87	56.17
410.07	58.51
410.26	84.26
410.45	0.00
410.64	58.51
410.83	25.75
411.02	35.11
411.21	65.54
411.40	7.02
411.59	72.56
411.78	7.02
411.98	25.75
412.17	100.64
412.36	44.47
412.55	35.11
412.74	9.36
412.93	110.01
413.12	53.83
413.31	72.56
413.50	7.02
413.69	35.11
413.88	0.00
414.07	35.11
414.26	30.43
414.45	35.11
414.64	51.49
414.83	0.00
415.02	42.13
415.22	0.00
415.41	30.43
415.60	32.77
415.79	102.98
415.98	4.68
416.17	0.00
416.36	74.90
416.55	67.88
416.74	35.11
416.93	23.41
417.12	18.72
417.31	39.79
417.50	16.38
417.69	30.43
417.88	49.15
418.07	30.43
418.26	84.26
418.45	124.05
418.64	56.17
418.83	84.26
419.02	63.19
419.21	88.94
419.39	98.30
419.58	0.00
419.77	0.00
419.96	39.79
420.15	86.60
420.34	77.24
420.53	46.81
420.72	42.13
420.91	2.34
421.10	88.94
421.29	35.11
421.48	37.45
421.67	56.17
421.86	70.22
422.05	93.62
422.24	42.13
422.43	23.41
422.61	0.00
422.80	18.72
422.99	91.28
423.18	37.45
423.37	30.43
423.56	0.00
423.75	32.77
423.94	46.81
424.13	58.51
424.32	23.41
424.50	105.32
424.69	95.96
424.88	0.00
425.07	25.75
425.26	49.15
425.45	2.34
425.64	39.79
425.83	46.81
426.01	30.43
426.20	67.88
426.39	58.51
426.58	28.09
426.77	77.24
426.96	25.75
427.15	63.19
427.33	49.15
427.52	77.24
427.71	77.24
427.90	0.00
428.09	2.34
428.28	67.88
428.46	81.92
428.65	28.09
428.84	63.19
429.03	126.39
429.22	131.07
429.40	11.70
429.59	46.81
429.78	16.38
429.97	37.45
430.16	0.00
430.34	35.11
430.53	35.11
430.72	11.70
430.91	35.11
431.10	30.43
431.28	44.47
431.47	117.03
431.66	37.45
431.85	18.72
432.03	0.00
432.22	0.00
432.41	35.11
432.60	4.68
432.79	102.98
432.97	56.17
433.16	51.49
433.35	23.41
433.54	21.06
433.72	112.35
433.91	53.83
434.10	35.11
434.28	2.34
434.47	107.66
434.66	42.13
434.85	16.38
435.03	11.70
435.22	60.85
435.41	44.47
435.59	0.00
435.78	0.00
435.97	37.45
436.16	74.90
436.34	51.49
436.53	65.54
436.72	23.41
436.90	44.47
437.09	44.47
437.28	60.85
437.46	39.79
437.65	30.43
437.84	0.00
438.02	44.47
438.21	4.68
438.40	102.98
438.58	84.26
438.77	2.34
438.96	11.70
439.14	49.15
439.33	65.54
439.52	37.45
439.70	32.77
439.89	51.49
440.08	74.90
440.26	81.92
440.45	35.11
440.63	86.60
440.82	84.26
441.01	105.32
441.19	0.00
441.38	0.00
441.57	0.00
441.75	35.11
441.94	77.24
442.12	0.00
442.31	72.56
442.50	72.56
442.68	56.17
442.87	88.94
443.05	37.45
443.24	53.83
443.43	18.72
443.61	21.06
443.80	18.72
443.98	60.85
444.17	23.41
444.35	32.77
444.54	88.94
444.73	32.77
444.91	128.73
445.10	4.68
445.28	9.36
445.47	88.94
445.65	25.75
445.84	60.85
446.02	56.17
446.21	88.94
446.39	35.11
446.58	0.00
446.77	91.28
446.95	30.43
447.14	9.36
447.32	58.51
447.51	32.77
447.69	124.05
447.88	35.11
448.06	121.71
448.25	77.24
448.43	30.43
448.62	49.15
448.80	0.00
448.99	18.72
449.17	53.83
449.36	70.22
449.54	23.41
449.73	65.54
449.91	72.56
450.10	30.43
450.28	0.00
450.46	0.00
450.65	32.77
450.83	84.26
451.02	107.66
451.20	9.36
451.39	65.54
451.57	63.19
451.76	93.62
451.94	131.07
452.13	63.19
452.31	56.17
452.49	81.92
452.68	44.47
452.86	95.96
453.05	28.09
453.23	65.54
453.42	70.22
453.60	39.79
453.78	88.94
453.97	32.77
454.15	84.26
454.34	93.62
454.52	114.69
454.70	86.60
454.89	65.54
455.07	131.07
455.26	51.49
455.44	119.37
455.62	44.47
455.81	74.90
455.99	81.92
456.17	56.17
456.36	93.62
456.54	74.90
456.73	56.17
456.91	16.38
457.09	138.09
457.28	93.62
457.46	37.45
457.64	93.62
457.83	0.00
458.01	63.19
458.19	51.49
458.38	39.79
458.56	28.09
458.74	16.38
458.93	23.41
459.11	131.07
459.29	56.17
459.48	91.28
459.66	56.17
459.84	84.26
460.03	16.38
460.21	0.00
460.39	56.17
460.57	70.22
460.76	39.79
460.94	81.92
461.12	110.01
461.31	65.54
461.49	0.00
461.67	39.79
461.85	91.28
462.04	95.96
462.22	39.79
462.40	14.04
462.59	88.94
462.77	112.35
462.95	21.06
463.13	60.85
463.32	46.81
463.50	0.00
463.68	102.98
463.86	156.82
464.05	46.81
464.23	124.05
464.41	16.38
464.59	67.88
464.78	21.06
464.96	107.66
465.14	49.15
465.32	49.15
465.50	32.77
465.69	30.43
465.87	30.43
466.05	0.00
466.23	14.04
466.41	0.00
466.60	37.45
466.78	2.34
466.96	128.73
467.14	16.38
467.32	81.92
467.51	0.00
467.69	88.94
467.87	42.13
468.05	86.60
468.23	81.92
468.41	63.19
468.60	16.38
468.78	105.32
468.96	0.00
469.14	30.43
469.32	16.38
469.50	9.36
469.69	39.79
469.87	44.47
470.05	46.81
470.23	0.00
470.41	42.13
470.59	30.43
470.77	65.54
470.95	58.51
471.14	0.00
471.32	23.41
471.50	23.41
471.68	70.22
471.86	0.00
472.04	16.38
472.22	30.43
472.40	32.77
472.58	30.43
472.77	0.00
472.95	0.00
473.13	88.94
473.31	0.00
473.49	39.79
473.67	79.58
473.85	77.24
474.03	56.17
474.21	39.79
474.39	93.62
474.57	51.49
474.75	42.13
474.93	28.09
475.12	102.98
475.30	32.77
475.48	65.54
475.66	46.81
475.84	65.54
476.02	39.79
476.20	42.13
476.38	51.49
476.56	133.41
476.74	67.88
476.92	53.83
477.10	53.83
477.28	21.06
477.46	37.45
477.64	0.00
477.82	44.47
478.00	0.00
478.18	107.66
478.36	112.35
478.54	91.28
478.72	77.24
478.90	102.98
479.08	28.09
479.26	105.32
479.44	30.43
479.62	39.79
479.80	70.22
479.98	0.00
480.16	91.28
480.34	32.77
480.52	77.24
480.70	56.17
480.88	49.15
481.06	79.58
481.24	39.79
481.41	25.75
481.59	42.13
481.77	117.03
481.95	56.17
482.13	65.54
482.31	74.90
482.49	107.66
482.67	58.51
482.85	70.22
483.03	65.54
483.21	93.62
483.39	0.00
483.57	7.02
483.74	58.51
483.92	42.13
484.10	32.77
484.28	4.68
484.46	56.17
484.64	70.22
484.82	74.90
485.00	42.13
485.18	88.94
485.35	4.68
485.53	30.43
485.71	77.24
485.89	35.11
486.07	131.07
486.25	49.15
486.43	86.60
486.61	37.45
486.78	105.32
486.96	110.01
487.14	23.41
487.32	28.09
487.50	98.30
487.68	60.85
487.85	110.01
488.03	86.60
488.21	91.28
488.39	112.35
488.57	60.85
488.75	81.92
488.92	46.81
489.10	51.49
489.28	95.96
489.46	58.51
489.64	124.05
489.81	39.79
489.99	28.09
490.17	93.62
490.35	42.13
490.53	112.35
490.70	145.11
490.88	124.05
491.06	140.43
491.24	21.06
491.41	77.24
491.59	105.32
491.77	53.83
491.95	39.79
492.13	32.77
492.30	88.94
492.48	84.26
492.66	91.28
492.84	107.66
493.01	53.83
493.19	23.41
493.37	14.04
493.54	119.37
493.72	105.32
493.90	44.47
494.08	95.96
494.25	88.94
494.43	32.77
494.61	49.15
494.79	102.98
494.96	105.32
495.14	16.38
495.32	32.77
495.49	79.58
495.67	93.62
495.85	107.66
496.02	72.56
496.20	119.37
496.38	117.03
496.55	84.26
496.73	37.45
496.91	88.94
497.09	65.54
497.26	74.90
497.44	140.43
497.62	58.51
497.79	70.22
497.97	21.06
498.14	4.68
498.32	58.51
498.50	131.07
498.67	88.94
498.85	105.32
499.03	51.49
499.20	84.26
499.38	58.51
499.56	51.49
499.73	77.24
499.91	114.69
500.08	28.09
500.26	56.17
500.44	131.07
500.61	67.88
500.79	86.60
500.97	25.75
501.14	88.94
501.32	91.28
501.49	86.60
501.67	65.54
501.84	105.32
502.02	30.43
502.20	107.66
502.37	39.79
502.55	49.15
502.72	67.88
502.90	56.17
503.07	49.15
503.25	119.37
503.43	131.07
503.60	70.22
503.78	44.47
503.95	124.05
504.13	70.22
504.30	93.62
504.48	37.45
504.65	63.19
504.83	51.49
505.01	107.66
505.18	70.22
505.36	72.56
505.53	112.35
505.71	14.04
505.88	53.83
506.06	58.51
506.23	84.26
506.41	93.62
506.58	72.56
506.76	70.22
506.93	51.49
507.11	84.26
507.28	149.79
507.46	0.00
507.63	9.36
507.81	42.13
507.98	98.30
508.16	18.72
508.33	72.56
508.50	107.66
508.68	67.88
508.85	23.41
509.03	65.54
509.20	93.62
509.38	86.60
509.55	105.32
509.73	56.17
509.90	35.11
510.08	112.35
510.25	65.54
510.42	114.69
510.60	110.01
510.77	105.32
510.95	0.00
511.12	126.39
511.30	124.05
511.47	142.77
511.64	63.19
511.82	105.32
511.99	135.75
512.17	84.26
512.34	65.54
512.51	56.17
512.69	32.77
512.86	98.30
513.04	102.98
513.21	133.41
513.38	67.88
513.56	100.64
513.73	191.92
513.90	98.30
514.08	100.64
514.25	56.17
514.43	119.37
514.60	74.90
514.77	32.77
514.95	107.66
515.12	51.49
515.29	93.62
515.47	65.54
515.64	53.83
515.81	93.62
515.99	102.98
516.16	105.32
516.33	149.79
516.51	159.16
516.68	72.56
516.85	117.03
517.03	65.54
517.20	0.00
517.37	35.11
517.54	9.36
517.72	53.83
517.89	32.77
518.06	84.26
518.24	56.17
518.41	74.90
518.58	98.30
518.75	81.92
518.93	60.85
519.10	63.19
519.27	79.58
519.45	91.28
519.62	39.79
519.79	159.16
519.96	107.66
520.14	67.88
520.31	53.83
520.48	128.73
520.65	100.64
520.83	107.66
521.00	74.90
521.17	79.58
521.34	112.35
521.52	23.41
521.69	91.28
521.86	44.47
522.03	100.64
522.20	67.88
522.38	51.49
522.55	126.39
522.72	46.81
522.89	124.05
523.07	23.41
523.24	93.62
523.41	56.17
523.58	39.79
523.75	126.39
523.92	145.11
524.10	65.54
524.27	124.05
524.44	84.26
524.61	105.32
524.78	44.47
524.96	145.11
525.13	79.58
525.30	159.16
525.47	159.16
525.64	140.43
525.81	86.60
525.98	65.54
526.16	63.19
526.33	107.66
526.50	67.88
526.67	70.22
526.84	56.17
527.01	56.17
527.18	112.35
527.36	84.26
527.53	49.15
527.70	135.75
527.87	100.64
528.04	147.45
528.21	84.26
528.38	60.85
528.55	121.71
528.72	21.06
528.89	60.85
529.07	88.94
529.24	67.88
529.41	126.39
529.58	65.54
529.75	124.05
529.92	14.04
530.09	93.62
530.26	65.54
530.43	98.30
530.60	95.96
530.77	77.24
530.94	95.96
531.11	147.45
531.28	159.16
531.46	0.00
531.63	74.90
531.80	70.22
531.97	77.24
532.14	189.58
532.31	102.98
532.48	53.83
532.65	30.43
532.82	56.17
532.99	79.58
533.16	77.24
533.33	65.54
533.50	135.75
533.67	65.54
533.84	28.09
534.01	93.62
534.18	128.73
534.35	56.17
534.52	133.41
534.69	37.45
534.86	100.64
535.03	100.64
535.20	74.90
535.37	49.15
535.54	138.09
535.71	72.56
535.88	114.69
536.05	124.05
536.22	93.62
536.38	117.03
536.55	77.24
536.72	46.81
536.89	79.58
537.06	42.13
537.23	67.88
537.40	39.79
537.57	110.01
537.74	126.39
537.91	58.51
538.08	70.22
538.25	100.64
538.42	88.94
538.59	173.20
538.75	42.13
538.92	44.47
539.09	53.83
539.26	138.09
539.43	81.92
539.60	53.83
539.77	21.06
539.94	93.62
540.11	25.75
540.28	93.62
540.44	91.28
540.61	77.24
540.78	102.98
540.95	51.49
541.12	84.26
541.29	60.85
541.46	35.11
541.62	18.72
541.79	63.19
541.96	42.13
542.13	30.43
542.30	65.54
542.47	119.37
542.63	102.98
542.80	51.49
542.97	30.43
543.14	44.47
543.31	63.19
543.48	105.32
543.64	70.22
543.81	86.60
543.98	28.09
544.15	53.83
544.32	58.51
544.48	88.94
544.65	0.00
544.82	60.85
544.99	91.28
545.16	81.92
545.32	140.43
545.49	88.94
545.66	0.00
545.83	63.19
546.00	91.28
546.16	102.98
546.33	53.83
546.50	58.51
546.67	95.96
546.83	119.37
547.00	65.54
547.17	105.32
547.34	95.96
547.50	114.69
547.67	65.54
547.84	95.96
548.00	11.70
548.17	77.24
548.34	79.58
548.51	39.79
548.67	9.36
548.84	70.22
549.01	102.98
549.18	131.07
549.34	145.11
549.51	70.22
549.68	102.98
549.84	56.17
550.01	46.81
550.18	25.75
550.34	117.03
550.51	93.62
550.68	51.49
550.84	114.69
551.01	100.64
551.18	121.71
551.34	81.92
551.51	100.64
551.68	49.15
551.84	121.71
552.01	88.94
552.18	74.90
552.34	32.77
552.51	102.98
552.68	107.66
552.84	112.35
553.01	121.71
553.18	154.48
553.34	95.96
553.51	114.69
553.67	168.52
553.84	35.11
554.01	56.17
554.17	86.60
554.34	63.19
554.51	81.92
554.67	79.58
554.84	42.13
555.00	37.45
555.17	138.09
555.33	30.43
555.50	14.04
555.67	81.92
555.83	35.11
556.00	67.88
556.16	88.94
556.33	81.92
556.50	98.30
556.66	112.35
556.83	30.43
556.99	18.72
557.16	28.09
557.32	149.79
557.49	121.71
557.65	79.58
557.82	77.24
557.98	37.45
558.15	30.43
558.32	88.94
558.48	95.96
558.65	44.47
558.81	42.13
558.98	46.81
559.14	25.75
559.31	81.92
559.47	79.58
559.64	63.19
559.80	117.03
559.97	138.09
560.13	63.19
560.30	79.58
560.46	74.90
560.63	93.62
560.79	86.60
560.96	105.32
561.12	60.85
561.29	79.58
561.45	105.32
561.61	110.01
561.78	112.35
561.94	67.88
562.11	70.22
562.27	37.45
562.44	102.98
562.60	133.41
562.77	28.09
562.93	60.85
563.10	53.83
563.26	30.43
563.42	121.71
563.59	70.22
563.75	86.60
563.92	117.03
564.08	81.92
564.24	86.60
564.41	124.05
564.57	105.32
564.74	131.07
564.90	11.70
565.07	102.98
565.23	25.75
565.39	23.41
565.56	91.28
565.72	44.47
565.88	58.51
566.05	79.58
566.21	70.22
566.38	168.52
566.54	42.13
566.70	77.24
566.87	63.19
567.03	21.06
567.19	107.66
567.36	84.26
567.52	154.48
567.68	25.75
567.85	25.75
568.01	79.58
568.17	9.36
568.34	32.77
568.50	28.09
568.66	107.66
568.83	112.35
568.99	98.30
569.15	81.92
569.32	114.69
569.48	70.22
569.64	77.24
569.81	88.94
569.97	142.77
570.13	79.58
570.30	11.70
570.46	58.51
570.62	156.82
570.78	100.64
570.95	49.15
571.11	32.77
571.27	88.94
571.43	37.45
571.60	98.30
571.76	102.98
571.92	37.45
572.09	42.13
572.25	51.49
572.41	93.62
572.57	51.49
572.74	147.45
572.90	93.62
573.06	124.05
573.22	124.05
573.38	65.54
573.55	49.15
573.71	124.05
573.87	93.62
574.03	49.15
574.20	70.22
574.36	149.79
574.52	124.05
574.68	128.73
574.84	81.92
575.01	60.85
575.17	131.07
575.33	44.47
575.49	74.90
575.65	102.98
575.82	35.11
575.98	107.66
576.14	23.41
576.30	21.06
576.46	102.98
576.62	63.19
576.79	42.13
576.95	112.35
577.11	77.24
577.27	77.24
577.43	180.22
577.59	98.30
577.75	14.04
577.92	124.05
578.08	77.24
578.24	72.56
578.40	100.64
578.56	121.71
578.72	49.15
578.88	107.66
579.04	110.01
579.21	63.19
579.37	77.24
579.53	128.73
579.69	60.85
579.85	67.88
580.01	114.69
580.17	65.54
580.33	46.81
580.49	88.94
580.65	67.88
580.82	128.73
580.98	72.56
581.14	56.17
581.30	56.17
581.46	0.00
581.62	74.90
581.78	145.11
581.94	42.13
582.10	30.43
582.26	112.35
582.42	65.54
582.58	39.79
582.74	91.28
582.90	18.72
583.06	91.28
583.22	14.04
583.38	23.41
583.54	58.51
583.70	112.35
583.86	35.11
584.02	72.56
584.18	60.85
584.34	63.19
584.50	65.54
584.66	114.69
584.82	11.70
584.98	84.26
585.14	46.81
585.30	114.69
585.46	37.45
585.62	91.28
585.78	60.85
585.94	124.05
586.10	79.58
586.26	42.13
586.42	18.72
586.58	84.26
586.74	58.51
586.90	77.24
587.06	131.07
587.22	0.00
587.38	88.94
587.54	84.26
587.70	138.09
587.86	49.15
588.02	81.92
588.18	121.71
588.34	37.45
588.49	44.47
588.65	42.13
588.81	77.24
588.97	79.58
589.13	98.30
589.29	88.94
589.45	11.70
589.61	25.75
589.77	14.04
589.93	56.17
590.08	81.92
590.24	21.06
590.40	42.13
590.56	58.51
590.72	131.07
590.88	53.83
591.04	53.83
591.20	67.88
591.35	105.32
591.51	84.26
591.67	105.32
591.83	81.92
591.99	105.32
592.15	9.36
592.31	65.54
592.46	147.45
592.62	49.15
592.78	110.01
592.94	107.66
593.10	0.00
593.26	100.64
593.41	74.90
593.57	0.00
593.73	14.04
593.89	23.41
594.05	56.17
594.20	105.32
594.36	0.00
594.52	0.00
594.68	51.49
594.84	72.56
594.99	86.60
595.15	70.22
595.31	72.56
595.47	56.17
595.62	39.79
595.78	65.54
595.94	79.58
596.10	35.11
596.25	79.58
596.41	95.96
596.57	30.43
596.73	140.43
596.88	147.45
597.04	49.15
597.20	84.26
597.36	56.17
597.51	58.51
597.67	37.45
597.83	63.19
597.99	110.01
598.14	37.45
598.30	32.77
598.46	121.71
598.61	86.60
598.77	37.45
598.93	79.58
599.09	112.35
599.24	72.56
599.40	102.98
599.56	79.58
599.71	121.71
599.87	126.39
600.03	98.30
600.18	58.51
600.34	63.19
600.50	112.35
600.65	74.90
600.81	79.58
600.97	79.58
601.12	84.26
601.28	84.26
601.44	112.35
601.59	84.26
601.75	63.19
601.91	126.39
602.06	149.79
602.22	32.77
602.37	9.36
602.53	58.51
602.69	98.30
602.84	63.19
603.00	53.83
603.16	77.24
603.31	23.41
603.47	60.85
603.62	46.81
603.78	30.43
603.94	112.35
604.09	121.71
604.25	163.84
604.40	121.71
604.56	2.34
604.71	30.43
604.87	81.92
605.03	93.62
605.18	46.81
605.34	63.19
605.49	86.60
605.65	98.30
605.80	23.41
605.96	79.58
606.12	60.85
606.27	0.00
606.43	65.54
606.58	51.49
606.74	107.66
606.89	63.19
607.05	44.47
607.20	133.41
607.36	79.58
607.51	56.17
607.67	7.02
607.82	74.90
607.98	84.26
608.13	65.54
608.29	14.04
608.44	84.26
608.60	16.38
608.75	0.00
608.91	46.81
609.06	56.17
609.22	91.28
609.37	91.28
609.53	39.79
609.68	58.51
609.84	49.15
609.99	32.77
610.15	95.96
610.30	107.66
610.46	138.09
610.61	0.00
610.76	67.88
610.92	44.47
611.07	77.24
611.23	56.17
611.38	70.22
611.54	49.15
611.69	65.54
611.84	126.39
612.00	74.90
612.15	138.09
612.31	49.15
612.46	84.26
612.62	114.69
612.77	32.77
612.92	25.75
613.08	63.19
613.23	51.49
613.39	100.64
613.54	72.56
613.69	11.70
613.85	49.15
614.00	51.49
614.15	56.17
614.31	105.32
614.46	65.54
614.62	67.88
614.77	74.90
614.92	42.13
615.08	98.30
615.23	121.71
615.38	56.17
615.54	49.15
615.69	91.28
615.84	112.35
616.00	28.09
616.15	56.17
616.30	142.77
616.46	93.62
616.61	86.60
616.76	11.70
616.92	88.94
617.07	42.13
617.22	32.77
617.37	46.81
617.53	88.94
617.68	67.88
617.83	84.26
617.99	25.75
618.14	114.69
618.29	67.88
618.45	72.56
618.60	102.98
618.75	0.00
618.90	44.47
619.06	42.13
619.21	0.00
619.36	63.19
619.51	11.70
619.67	18.72
619.82	86.60
619.97	46.81
620.12	81.92
620.28	35.11
620.43	149.79
620.58	102.98
620.73	63.19
620.89	39.79
621.04	74.90
621.19	56.17
621.34	58.51
621.49	37.45
621.65	0.00
621.80	23.41
621.95	4.68
622.10	88.94
622.25	140.43
622.41	63.19
622.56	72.56
622.71	102.98
622.86	100.64
623.01	37.45
623.16	98.30
623.32	63.19
623.47	72.56
623.62	88.94
623.77	2.34
623.92	9.36
624.07	56.17
624.23	70.22
624.38	98.30
624.53	14.04
624.68	44.47
624.83	93.62
624.98	56.17
625.13	2.34
625.29	81.92
625.44	14.04
625.59	100.64
625.74	53.83
625.89	49.15
626.04	30.43
626.19	77.24
626.34	84.26
626.49	93.62
626.65	37.45
626.80	44.47
626.95	37.45
627.10	18.72
627.25	74.90
627.40	63.19
627.55	100.64
627.70	51.49
627.85	18.72
628.00	9.36
628.15	114.69
628.30	77.24
628.45	124.05
628.60	88.94
628.76	63.19
628.91	60.85
629.06	72.56
629.21	86.60
629.36	14.04
629.51	30.43
629.66	112.35
629.81	70.22
629.96	72.56
630.11	7.02
630.26	53.83
630.41	114.69
630.56	46.81
630.71	81.92
630.86	88.94
631.01	44.47
631.16	100.64
631.31	32.77
631.46	60.85
631.61	117.03
631.76	121.71
631.91	67.88
632.06	30.43
632.21	56.17
632.36	119.37
632.51	0.00
632.66	49.15
632.81	72.56
632.96	84.26
633.10	93.62
633.25	56.17
633.40	88.94
633.55	117.03
633.70	21.06
633.85	79.58
634.00	58.51
634.15	0.00
634.30	67.88
634.45	56.17
634.60	110.01
634.75	44.47
634.90	44.47
635.05	112.35
635.19	44.47
635.34	91.28
635.49	23.41
635.64	18.72
635.79	42.13
635.94	105.32
636.09	84.26
636.24	0.00
636.39	42.13
636.53	88.94
636.68	49.15
636.83	91.28
636.98	93.62
637.13	53.83
637.28	42.13
637.43	42.13
637.57	42.13
637.72	14.04
637.87	37.45
638.02	138.09
638.17	39.79
638.32	37.45
638.46	23.41
638.61	65.54
638.76	35.11
638.91	88.94
639.06	105.32
639.20	67.88
639.35	51.49
639.50	60.85
639.65	21.06
639.80	65.54
639.94	58.51
640.09	53.83
640.24	23.41
640.39	63.19
640.54	84.26
640.68	42.13
640.83	56.17
640.98	7.02
641.13	63.19
641.27	91.28
641.42	39.79
641.57	42.13
641.72	0.00
641.86	81.92
642.01	166.18
642.16	70.22
642.31	60.85
642.45	0.00
642.60	126.39
642.75	30.43
642.90	145.11
643.04	67.88
643.19	86.60
643.34	9.36
643.48	56.17
643.63	63.19
643.78	77.24
643.93	79.58
644.07	110.01
644.22	105.32
644.37	32.77
644.51	46.81
644.66	154.48
644.81	65.54
644.95	84.26
645.10	46.81
645.25	16.38
645.39	102.98
645.54	70.22
645.69	117.03
645.83	14.04
645.98	88.94
646.13	0.00
646.27	100.64
646.42	81.92
646.57	110.01
646.71	77.24
646.86	65.54
647.00	112.35
647.15	4.68
647.30	56.17
647.44	88.94
647.59	14.04
647.74	37.45
647.88	81.92
648.03	124.05
648.17	21.06
648.32	30.43
648.47	0.00
648.61	53.83
648.76	23.41
648.90	81.92
649.05	42.13
649.20	42.13
649.34	102.98
649.49	60.85
649.63	58.51
649.78	53.83
649.92	42.13
650.07	79.58
650.21	37.45
650.36	28.09
650.51	0.00
650.65	16.38
650.80	53.83
650.94	53.83
651.09	53.83
651.23	32.77
651.38	28.09
651.52	56.17
651.67	35.11
651.81	16.38
651.96	25.75
652.10	28.09
652.25	58.51
652.39	51.49
652.54	114.69
652.68	42.13
652.83	58.51
652.97	28.09
653.12	72.56
653.26	72.56
653.41	44.47
653.55	88.94
653.70	49.15
653.84	112.35
653.99	39.79
654.13	138.09
654.27	28.09
654.42	77.24
654.56	35.11
654.71	44.47
654.85	56.17
655.00	93.62
655.14	77.24
655.29	74.90
655.43	72.56
655.57	86.60
655.72	0.00
655.86	77.24
656.01	102.98
656.15	70.22
656.30	67.88
656.44	65.54
656.58	2.34
656.73	56.17
656.87	77.24
657.01	42.13
657.16	0.00
657.30	14.04
657.45	88.94
657.59	25.75
657.73	93.62
657.88	65.54
658.02	77.24
658.16	4.68
658.31	95.96
658.45	46.81
658.60	65.54
658.74	88.94
658.88	37.45
659.03	37.45
659.17	14.04
659.31	25.75
659.46	11.70
659.60	46.81
659.74	100.64
659.89	126.39
660.03	35.11
660.17	81.92
660.32	77.24
660.46	42.13
660.60	18.72
660.74	84.26
660.89	25.75
661.03	14.04
661.17	42.13
661.32	7.02
661.46	44.47
661.60	74.90
661.74	23.41
661.89	0.00
662.03	21.06
662.17	91.28
662.31	58.51
662.46	81.92
662.60	42.13
662.74	138.09
662.88	0.00
663.03	60.85
663.17	128.73
663.31	37.45
663.45	46.81
663.60	95.96
663.74	25.75
663.88	72.56
664.02	0.00
664.17	79.58
664.31	23.41
664.45	0.00
664.59	0.00
664.73	46.81
664.88	72.56
665.02	42.13
665.16	4.68
665.30	91.28
665.44	42.13
665.59	42.13
665.73	51.49
665.87	7.02
666.01	37.45
666.15	37.45
666.29	0.00
666.44	121.71
666.58	0.00
666.72	49.15
666.86	39.79
667.00	56.17
667.14	14.04
667.28	65.54
667.43	65.54
667.57	9.36
667.71	95.96
667.85	60.85
667.99	23.41
668.13	42.13
668.27	18.72
668.41	23.41
668.56	0.00
668.70	7.02
668.84	98.30
668.98	0.00
669.12	42.13
669.26	56.17
669.40	98.30
669.54	51.49
669.68	93.62
669.82	56.17
669.96	65.54
670.10	53.83
670.25	107.66
670.39	67.88
670.53	53.83
670.67	23.41
670.81	18.72
670.95	14.04
671.09	0.00
671.23	18.72
671.37	58.51
671.51	32.77
671.65	49.15
671.79	2.34
671.93	79.58
672.07	30.43
672.21	42.13
672.35	86.60
672.49	37.45
672.63	42.13
672.77	126.39
672.91	42.13
673.05	0.00
673.19	58.51
673.33	0.00
673.47	16.38
673.61	39.79
673.75	84.26
673.89	95.96
674.03	77.24
674.17	114.69
674.31	81.92
674.45	65.54
674.59	0.00
674.73	42.13
674.87	25.75
675.01	53.83
675.15	53.83
675.29	65.54
675.43	49.15
675.56	77.24
675.70	35.11
675.84	107.66
675.98	74.90
676.12	28.09
676.26	70.22
676.40	86.60
676.54	0.00
676.68	72.56
676.82	56.17
676.96	56.17
677.10	0.00
677.23	16.38
677.37	9.36
677.51	112.35
677.65	37.45
677.79	65.54
677.93	0.00
678.07	67.88
678.21	65.54
678.34	0.00
678.48	37.45
678.62	44.47
678.76	49.15
678.90	9.36
679.04	49.15
679.18	0.00
679.31	0.00
679.45	11.70
679.59	63.19
679.73	21.06
679.87	4.68
680.00	91.28
680.14	81.92
680.28	49.15
680.42	37.45
680.56	4.68
680.70	84.26
680.83	42.13
680.97	65.54
681.11	65.54
681.25	9.36
681.39	0.00
681.52	93.62
681.66	25.75
681.80	93.62
681.94	91.28
682.07	0.00
682.21	18.72
682.35	42.13
682.49	49.15
682.62	25.75
682.76	0.00
682.90	23.41
683.04	28.09
683.17	0.00
683.31	65.54
683.45	28.09
683.59	16.38
683.72	81.92
683.86	0.00
684.00	7.02
684.13	39.79
684.27	88.94
684.41	35.11
684.55	0.00
684.68	102.98
684.82	72.56
684.96	60.85
685.09	60.85
685.23	79.58
685.37	9.36
685.50	0.00
685.64	0.00
685.78	60.85
685.91	39.79
686.05	74.90
686.19	49.15
686.32	23.41
686.46	161.50
686.60	9.36
686.73	28.09
686.87	152.13
687.01	16.38
687.14	0.00
687.28	60.85
687.42	0.00
687.55	18.72
687.69	0.00
687.82	49.15
687.96	23.41
688.10	67.88
688.23	16.38
688.37	84.26
688.50	37.45
688.64	18.72
688.78	28.09
688.91	0.00
689.05	60.85
689.18	42.13
689.32	93.62
689.46	51.49
689.59	117.03
689.73	0.00
689.86	84.26
690.00	42.13
690.13	4.68
690.27	25.75
690.41	110.01
690.54	32.77
690.68	70.22
690.81	46.81
690.95	25.75
691.08	35.11
691.22	46.81
691.35	70.22
691.49	53.83
691.62	58.51
691.76	119.37
691.89	49.15
692.03	0.00
692.16	28.09
692.30	0.00
692.43	51.49
692.57	56.17
692.70	0.00
692.84	37.45
692.97	53.83
693.11	39.79
693.24	39.79
693.38	18.72
693.51	2.34
693.65	0.00
693.78	28.09
693.92	51.49
694.05	23.41
694.19	51.49
694.32	46.81
694.45	0.00
694.59	16.38
694.72	42.13
694.86	72.56
694.99	30.43
695.13	7.02
695.26	0.00
695.39	42.13
695.53	28.09
695.66	0.00
695.80	0.00
695.93	0.00
696.07	14.04
696.20	67.88
696.33	0.00
696.47	0.00
696.60	14.04
696.73	42.13
696.87	16.38
697.00	44.47
697.14	70.22
697.27	35.11
697.40	58.51
697.54	58.51
697.67	0.00
697.80	28.09
697.94	32.77
698.07	81.92
698.21	0.00
698.34	32.77
698.47	28.09
698.61	0.00
698.74	39.79
698.87	23.41
699.01	0.00
699.14	56.17
699.27	60.85
699.40	23.41
699.54	0.00
699.67	4.68
699.80	9.36
699.94	0.00
700.07	0.00
700.20	0.00
700.34	35.11
700.47	9.36
700.60	23.41
700.73	0.00
700.87	42.13
701.00	42.13
701.13	53.83
701.26	0.00
701.40	7.02
701.53	102.98
701.66	14.04
701.79	60.85
701.93	0.00
702.06	67.88
702.19	0.00
702.32	49.15
702.46	18.72
702.59	42.13
702.72	0.00
702.85	0.00
702.99	0.00
703.12	42.13
703.25	63.19
703.38	0.00
703.51	14.04
703.65	121.71
703.78	49.15
703.91	49.15
704.04	0.00
704.17	102.98
704.31	9.36
704.44	0.00
704.57	14.04
704.70	0.00
704.83	16.38
704.96	0.00
705.10	81.92
705.23	39.79
>>>>>End Processed Spectral Data<<<<<
