SpectraSuite Data File
++++++++++++++++++++++++++++++++++++
Date: Fri Oct 04 12:13:40 GMT-05:00 2013
User: price-jones
Dark Spectrum Present: No
Reference Spectrum Present: No
Number of Sampled Component Spectra: 1
Spectrometers: USB2+H05261
Integration Time (usec): 10000 (USB2+H05261)
Spectra Averaged: 1 (USB2+H05261)
Boxcar Smoothing: 0 (USB2+H05261)
Correct for Electrical Dark: No (USB2+H05261)
Strobe/Lamp Enabled: No (USB2+H05261)
Correct for Detector Non-linearity: No (USB2+H05261)
Correct for Stray Light: No (USB2+H05261)
Number of Pixels in Processed Spectrum: 2048
>>>>>Begin Processed Spectral Data<<<<<
365.73	0.00
365.92	0.00
366.12	0.00
366.32	0.00
366.52	0.00
366.72	0.00
366.91	0.00
367.11	0.00
367.31	0.00
367.51	0.00
367.70	0.00
367.90	0.00
368.10	0.00
368.30	0.00
368.49	0.00
368.69	0.00
368.89	0.00
369.09	0.00
369.28	0.00
369.48	0.00
369.68	0.00
369.87	0.00
370.07	0.00
370.27	0.00
370.47	0.00
370.66	0.00
370.86	0.00
371.06	0.00
371.25	0.00
371.45	4.68
371.65	0.00
371.84	0.00
372.04	58.51
372.24	7.02
372.44	25.75
372.63	0.00
372.83	9.36
373.03	63.19
373.22	53.83
373.42	16.38
373.62	77.24
373.81	72.56
374.01	32.77
374.21	56.17
374.40	91.28
374.60	0.00
374.79	58.51
374.99	9.36
375.19	53.83
375.38	51.49
375.58	44.47
375.78	84.26
375.97	65.54
376.17	28.09
376.37	56.17
376.56	0.00
376.76	0.00
376.95	11.70
377.15	51.49
377.35	42.13
377.54	42.13
377.74	44.47
377.93	77.24
378.13	25.75
378.33	98.30
378.52	30.43
378.72	4.68
378.91	0.00
379.11	7.02
379.31	28.09
379.50	25.75
379.70	25.75
379.89	7.02
380.09	0.00
380.28	0.00
380.48	65.54
380.68	9.36
380.87	0.00
381.07	25.75
381.26	58.51
381.46	0.00
381.65	32.77
381.85	0.00
382.04	2.34
382.24	7.02
382.43	44.47
382.63	60.85
382.83	0.00
383.02	0.00
383.22	44.47
383.41	7.02
383.61	0.00
383.80	32.77
384.00	56.17
384.19	51.49
384.39	42.13
384.58	0.00
384.78	0.00
384.97	72.56
385.17	0.00
385.36	0.00
385.56	21.06
385.75	18.72
385.95	2.34
386.14	0.00
386.34	21.06
386.53	63.19
386.72	70.22
386.92	18.72
387.11	56.17
387.31	39.79
387.50	32.77
387.70	44.47
387.89	16.38
388.09	28.09
388.28	16.38
388.48	114.69
388.67	0.00
388.86	74.90
389.06	44.47
389.25	67.88
389.45	60.85
389.64	39.79
389.84	0.00
390.03	0.00
390.22	16.38
390.42	46.81
390.61	0.00
390.81	32.77
391.00	72.56
391.19	32.77
391.39	0.00
391.58	0.00
391.78	0.00
391.97	35.11
392.16	98.30
392.36	2.34
392.55	72.56
392.75	23.41
392.94	53.83
393.13	0.00
393.33	0.00
393.52	2.34
393.71	21.06
393.91	81.92
394.10	21.06
394.29	0.00
394.49	35.11
394.68	7.02
394.88	7.02
395.07	11.70
395.26	60.85
395.46	18.72
395.65	46.81
395.84	39.79
396.04	9.36
396.23	46.81
396.42	0.00
396.62	39.79
396.81	32.77
397.00	72.56
397.19	51.49
397.39	28.09
397.58	74.90
397.77	0.00
397.97	25.75
398.16	63.19
398.35	7.02
398.55	11.70
398.74	0.00
398.93	44.47
399.12	63.19
399.32	0.00
399.51	112.35
399.70	37.45
399.90	53.83
400.09	14.04
400.28	42.13
400.47	63.19
400.67	14.04
400.86	0.00
401.05	2.34
401.24	91.28
401.44	49.15
401.63	58.51
401.82	32.77
402.01	53.83
402.21	67.88
402.40	72.56
402.59	2.34
402.78	18.72
402.97	42.13
403.17	74.90
403.36	9.36
403.55	30.43
403.74	37.45
403.93	0.00
404.13	98.30
404.32	42.13
404.51	42.13
404.70	77.24
404.89	0.00
405.09	56.17
405.28	23.41
405.47	0.00
405.66	0.00
405.85	0.00
406.05	39.79
406.24	58.51
406.43	0.00
406.62	56.17
406.81	44.47
407.00	51.49
407.20	0.00
407.39	0.00
407.58	16.38
407.77	70.22
407.96	46.81
408.15	0.00
408.34	4.68
408.54	11.70
408.73	9.36
408.92	49.15
409.11	70.22
409.30	35.11
409.49	53.83
409.68	0.00
409.87	32.77
410.07	37.45
410.26	18.72
410.45	4.68
410.64	67.88
410.83	60.85
411.02	21.06
411.21	74.90
411.40	63.19
411.59	65.54
411.78	25.75
411.98	39.79
412.17	37.45
412.36	44.47
412.55	39.79
412.74	46.81
412.93	74.90
413.12	0.00
413.31	30.43
413.50	60.85
413.69	0.00
413.88	51.49
414.07	11.70
414.26	32.77
414.45	46.81
414.64	46.81
414.83	9.36
415.02	0.00
415.22	23.41
415.41	46.81
415.60	63.19
415.79	39.79
415.98	4.68
416.17	72.56
416.36	63.19
416.55	72.56
416.74	51.49
416.93	7.02
417.12	46.81
417.31	30.43
417.50	35.11
417.69	30.43
417.88	4.68
418.07	60.85
418.26	70.22
418.45	60.85
418.64	145.11
418.83	23.41
419.02	77.24
419.21	72.56
419.39	16.38
419.58	84.26
419.77	53.83
419.96	58.51
420.15	70.22
420.34	21.06
420.53	14.04
420.72	81.92
420.91	21.06
421.10	35.11
421.29	95.96
421.48	0.00
421.67	70.22
421.86	30.43
422.05	0.00
422.24	105.32
422.43	86.60
422.61	51.49
422.80	32.77
422.99	56.17
423.18	63.19
423.37	23.41
423.56	107.66
423.75	56.17
423.94	32.77
424.13	0.00
424.32	98.30
424.50	119.37
424.69	28.09
424.88	98.30
425.07	23.41
425.26	0.00
425.45	30.43
425.64	32.77
425.83	18.72
426.01	28.09
426.20	23.41
426.39	49.15
426.58	44.47
426.77	0.00
426.96	70.22
427.15	49.15
427.33	39.79
427.52	30.43
427.71	21.06
427.90	51.49
428.09	79.58
428.28	119.37
428.46	46.81
428.65	39.79
428.84	65.54
429.03	16.38
429.22	28.09
429.40	81.92
429.59	56.17
429.78	32.77
429.97	39.79
430.16	126.39
430.34	0.00
430.53	35.11
430.72	14.04
430.91	86.60
431.10	51.49
431.28	91.28
431.47	65.54
431.66	0.00
431.85	63.19
432.03	11.70
432.22	16.38
432.41	21.06
432.60	72.56
432.79	0.00
432.97	51.49
433.16	74.90
433.35	0.00
433.54	74.90
433.72	35.11
433.91	51.49
434.10	14.04
434.28	98.30
434.47	65.54
434.66	58.51
434.85	53.83
435.03	0.00
435.22	30.43
435.41	0.00
435.59	79.58
435.78	56.17
435.97	44.47
436.16	0.00
436.34	58.51
436.53	0.00
436.72	107.66
436.90	14.04
437.09	81.92
437.28	88.94
437.46	44.47
437.65	23.41
437.84	121.71
438.02	16.38
438.21	14.04
438.40	95.96
438.58	84.26
438.77	39.79
438.96	0.00
439.14	0.00
439.33	21.06
439.52	39.79
439.70	60.85
439.89	65.54
440.08	44.47
440.26	14.04
440.45	102.98
440.63	51.49
440.82	4.68
441.01	0.00
441.19	70.22
441.38	114.69
441.57	4.68
441.75	21.06
441.94	53.83
442.12	86.60
442.31	102.98
442.50	18.72
442.68	32.77
442.87	0.00
443.05	9.36
443.24	88.94
443.43	25.75
443.61	63.19
443.80	39.79
443.98	37.45
444.17	30.43
444.35	77.24
444.54	119.37
444.73	49.15
444.91	84.26
445.10	7.02
445.28	81.92
445.47	74.90
445.65	30.43
445.84	128.73
446.02	88.94
446.21	44.47
446.39	56.17
446.58	63.19
446.77	0.00
446.95	28.09
447.14	21.06
447.32	0.00
447.51	21.06
447.69	58.51
447.88	30.43
448.06	28.09
448.25	72.56
448.43	2.34
448.62	4.68
448.80	70.22
448.99	91.28
449.17	49.15
449.36	25.75
449.54	9.36
449.73	100.64
449.91	72.56
450.10	138.09
450.28	74.90
450.46	133.41
450.65	32.77
450.83	0.00
451.02	114.69
451.20	49.15
451.39	44.47
451.57	84.26
451.76	135.75
451.94	14.04
452.13	16.38
452.31	70.22
452.49	119.37
452.68	0.00
452.86	88.94
453.05	37.45
453.23	112.35
453.42	4.68
453.60	16.38
453.78	4.68
453.97	56.17
454.15	77.24
454.34	79.58
454.52	77.24
454.70	35.11
454.89	91.28
455.07	42.13
455.26	49.15
455.44	0.00
455.62	23.41
455.81	58.51
455.99	88.94
456.17	35.11
456.36	72.56
456.54	74.90
456.73	72.56
456.91	81.92
457.09	65.54
457.28	51.49
457.46	28.09
457.64	49.15
457.83	21.06
458.01	124.05
458.19	35.11
458.38	79.58
458.56	39.79
458.74	60.85
458.93	74.90
459.11	28.09
459.29	142.77
459.48	60.85
459.66	102.98
459.84	79.58
460.03	72.56
460.21	28.09
460.39	42.13
460.57	49.15
460.76	79.58
460.94	72.56
461.12	23.41
461.31	81.92
461.49	35.11
461.67	44.47
461.85	74.90
462.04	60.85
462.22	39.79
462.40	0.00
462.59	51.49
462.77	119.37
462.95	79.58
463.13	44.47
463.32	11.70
463.50	11.70
463.68	114.69
463.86	23.41
464.05	0.00
464.23	4.68
464.41	67.88
464.59	2.34
464.78	37.45
464.96	95.96
465.14	53.83
465.32	14.04
465.50	65.54
465.69	70.22
465.87	11.70
466.05	32.77
466.23	93.62
466.41	70.22
466.60	91.28
466.78	28.09
466.96	42.13
467.14	46.81
467.32	37.45
467.51	72.56
467.69	49.15
467.87	72.56
468.05	119.37
468.23	18.72
468.41	51.49
468.60	11.70
468.78	14.04
468.96	70.22
469.14	163.84
469.32	126.39
469.50	32.77
469.69	0.00
469.87	65.54
470.05	84.26
470.23	142.77
470.41	53.83
470.59	67.88
470.77	100.64
470.95	60.85
471.14	93.62
471.32	42.13
471.50	98.30
471.68	60.85
471.86	63.19
472.04	58.51
472.22	88.94
472.40	37.45
472.58	46.81
472.77	0.00
472.95	49.15
473.13	65.54
473.31	81.92
473.49	16.38
473.67	35.11
473.85	63.19
474.03	4.68
474.21	39.79
474.39	16.38
474.57	79.58
474.75	0.00
474.93	74.90
475.12	67.88
475.30	32.77
475.48	95.96
475.66	11.70
475.84	39.79
476.02	79.58
476.20	46.81
476.38	98.30
476.56	18.72
476.74	79.58
476.92	67.88
477.10	28.09
477.28	65.54
477.46	93.62
477.64	25.75
477.82	18.72
478.00	58.51
478.18	67.88
478.36	23.41
478.54	37.45
478.72	7.02
478.90	42.13
479.08	35.11
479.26	56.17
479.44	102.98
479.62	56.17
479.80	16.38
479.98	70.22
480.16	84.26
480.34	28.09
480.52	86.60
480.70	88.94
480.88	23.41
481.06	98.30
481.24	74.90
481.41	74.90
481.59	121.71
481.77	88.94
481.95	44.47
482.13	81.92
482.31	49.15
482.49	112.35
482.67	112.35
482.85	124.05
483.03	65.54
483.21	91.28
483.39	147.45
483.57	46.81
483.74	32.77
483.92	91.28
484.10	84.26
484.28	135.75
484.46	4.68
484.64	65.54
484.82	93.62
485.00	11.70
485.18	131.07
485.35	74.90
485.53	79.58
485.71	28.09
485.89	60.85
486.07	70.22
486.25	37.45
486.43	39.79
486.61	107.66
486.78	81.92
486.96	124.05
487.14	56.17
487.32	35.11
487.50	84.26
487.68	74.90
487.85	65.54
488.03	70.22
488.21	30.43
488.39	51.49
488.57	35.11
488.75	74.90
488.92	88.94
489.10	112.35
489.28	56.17
489.46	72.56
489.64	51.49
489.81	81.92
489.99	131.07
490.17	124.05
490.35	100.64
490.53	0.00
490.70	102.98
490.88	0.00
491.06	128.73
491.24	35.11
491.41	100.64
491.59	98.30
491.77	84.26
491.95	110.01
492.13	18.72
492.30	100.64
492.48	74.90
492.66	49.15
492.84	81.92
493.01	119.37
493.19	58.51
493.37	100.64
493.54	28.09
493.72	117.03
493.90	46.81
494.08	84.26
494.25	86.60
494.43	9.36
494.61	25.75
494.79	51.49
494.96	105.32
495.14	98.30
495.32	58.51
495.49	67.88
495.67	58.51
495.85	110.01
496.02	88.94
496.20	44.47
496.38	25.75
496.55	0.00
496.73	102.98
496.91	88.94
497.09	117.03
497.26	93.62
497.44	93.62
497.62	114.69
497.79	56.17
497.97	81.92
498.14	88.94
498.32	56.17
498.50	114.69
498.67	124.05
498.85	81.92
499.03	88.94
499.20	135.75
499.38	72.56
499.56	70.22
499.73	98.30
499.91	84.26
500.08	72.56
500.26	53.83
500.44	46.81
500.61	28.09
500.79	138.09
500.97	32.77
501.14	135.75
501.32	98.30
501.49	110.01
501.67	93.62
501.84	88.94
502.02	112.35
502.20	58.51
502.37	95.96
502.55	142.77
502.72	37.45
502.90	65.54
503.07	51.49
503.25	81.92
503.43	23.41
503.60	63.19
503.78	100.64
503.95	44.47
504.13	37.45
504.30	124.05
504.48	147.45
504.65	60.85
504.83	44.47
505.01	88.94
505.18	23.41
505.36	121.71
505.53	79.58
505.71	32.77
505.88	110.01
506.06	93.62
506.23	117.03
506.41	135.75
506.58	88.94
506.76	74.90
506.93	56.17
507.11	88.94
507.28	77.24
507.46	79.58
507.63	74.90
507.81	93.62
507.98	70.22
508.16	112.35
508.33	114.69
508.50	81.92
508.68	58.51
508.85	79.58
509.03	84.26
509.20	32.77
509.38	114.69
509.55	81.92
509.73	124.05
509.90	30.43
510.08	53.83
510.25	133.41
510.42	95.96
510.60	119.37
510.77	58.51
510.95	79.58
511.12	53.83
511.30	81.92
511.47	37.45
511.64	182.56
511.82	60.85
511.99	0.00
512.17	44.47
512.34	42.13
512.51	112.35
512.69	133.41
512.86	152.13
513.04	37.45
513.21	128.73
513.38	67.88
513.56	126.39
513.73	128.73
513.90	11.70
514.08	51.49
514.25	56.17
514.43	30.43
514.60	126.39
514.77	105.32
514.95	149.79
515.12	191.92
515.29	81.92
515.47	32.77
515.64	79.58
515.81	79.58
515.99	84.26
516.16	21.06
516.33	102.98
516.51	53.83
516.68	105.32
516.85	25.75
517.03	74.90
517.20	63.19
517.37	74.90
517.54	74.90
517.72	114.69
517.89	70.22
518.06	39.79
518.24	46.81
518.41	84.26
518.58	58.51
518.75	42.13
518.93	58.51
519.10	79.58
519.27	37.45
519.45	131.07
519.62	51.49
519.79	74.90
519.96	159.16
520.14	86.60
520.31	39.79
520.48	95.96
520.65	58.51
520.83	159.16
521.00	86.60
521.17	91.28
521.34	81.92
521.52	28.09
521.69	58.51
521.86	56.17
522.03	95.96
522.20	100.64
522.38	37.45
522.55	100.64
522.72	30.43
522.89	49.15
523.07	42.13
523.24	58.51
523.41	107.66
523.58	86.60
523.75	49.15
523.92	79.58
524.10	110.01
524.27	112.35
524.44	121.71
524.61	154.48
524.78	63.19
524.96	105.32
525.13	110.01
525.30	140.43
525.47	105.32
525.64	138.09
525.81	67.88
525.98	91.28
526.16	84.26
526.33	145.11
526.50	88.94
526.67	72.56
526.84	72.56
527.01	53.83
527.18	49.15
527.36	121.71
527.53	161.50
527.70	121.71
527.87	131.07
528.04	74.90
528.21	28.09
528.38	98.30
528.55	133.41
528.72	102.98
528.89	44.47
529.07	44.47
529.24	84.26
529.41	72.56
529.58	81.92
529.75	46.81
529.92	100.64
530.09	42.13
530.26	119.37
530.43	74.90
530.60	117.03
530.77	67.88
530.94	56.17
531.11	81.92
531.28	77.24
531.46	110.01
531.63	88.94
531.80	53.83
531.97	67.88
532.14	49.15
532.31	4.68
532.48	56.17
532.65	88.94
532.82	72.56
532.99	180.22
533.16	30.43
533.33	49.15
533.50	42.13
533.67	35.11
533.84	32.77
534.01	88.94
534.18	70.22
534.35	107.66
534.52	37.45
534.69	56.17
534.86	18.72
535.03	35.11
535.20	16.38
535.37	105.32
535.54	117.03
535.71	145.11
535.88	88.94
536.05	133.41
536.22	147.45
536.38	100.64
536.55	4.68
536.72	84.26
536.89	49.15
537.06	65.54
537.23	4.68
537.40	182.56
537.57	105.32
537.74	142.77
537.91	74.90
538.08	77.24
538.25	91.28
538.42	44.47
538.59	32.77
538.75	49.15
538.92	91.28
539.09	44.47
539.26	88.94
539.43	110.01
539.60	88.94
539.77	37.45
539.94	58.51
540.11	140.43
540.28	30.43
540.44	142.77
540.61	110.01
540.78	105.32
540.95	72.56
541.12	131.07
541.29	81.92
541.46	65.54
541.62	119.37
541.79	77.24
541.96	18.72
542.13	53.83
542.30	140.43
542.47	133.41
542.63	117.03
542.80	28.09
542.97	154.48
543.14	46.81
543.31	112.35
543.48	98.30
543.64	128.73
543.81	63.19
543.98	18.72
544.15	107.66
544.32	77.24
544.48	88.94
544.65	39.79
544.82	126.39
544.99	93.62
545.16	77.24
545.32	30.43
545.49	121.71
545.66	147.45
545.83	46.81
546.00	63.19
546.16	117.03
546.33	79.58
546.50	74.90
546.67	72.56
546.83	51.49
547.00	100.64
547.17	39.79
547.34	156.82
547.50	121.71
547.67	58.51
547.84	119.37
548.00	84.26
548.17	110.01
548.34	58.51
548.51	86.60
548.67	51.49
548.84	70.22
549.01	70.22
549.18	88.94
549.34	105.32
549.51	140.43
549.68	154.48
549.84	46.81
550.01	56.17
550.18	189.58
550.34	126.39
550.51	91.28
550.68	86.60
550.84	126.39
551.01	44.47
551.18	63.19
551.34	56.17
551.51	98.30
551.68	28.09
551.84	0.00
552.01	0.00
552.18	72.56
552.34	84.26
552.51	70.22
552.68	93.62
552.84	63.19
553.01	51.49
553.18	46.81
553.34	142.77
553.51	117.03
553.67	79.58
553.84	81.92
554.01	102.98
554.17	51.49
554.34	98.30
554.51	0.00
554.67	49.15
554.84	60.85
555.00	49.15
555.17	121.71
555.33	32.77
555.50	102.98
555.67	107.66
555.83	159.16
556.00	93.62
556.16	145.11
556.33	74.90
556.50	107.66
556.66	28.09
556.83	53.83
556.99	56.17
557.16	135.75
557.32	102.98
557.49	9.36
557.65	30.43
557.82	86.60
557.98	79.58
558.15	30.43
558.32	93.62
558.48	126.39
558.65	95.96
558.81	77.24
558.98	107.66
559.14	37.45
559.31	98.30
559.47	37.45
559.64	32.77
559.80	138.09
559.97	91.28
560.13	175.54
560.30	56.17
560.46	51.49
560.63	72.56
560.79	79.58
560.96	81.92
561.12	98.30
561.29	107.66
561.45	102.98
561.61	114.69
561.78	140.43
561.94	131.07
562.11	42.13
562.27	70.22
562.44	93.62
562.60	102.98
562.77	51.49
562.93	74.90
563.10	51.49
563.26	49.15
563.42	93.62
563.59	98.30
563.75	70.22
563.92	102.98
564.08	110.01
564.24	56.17
564.41	65.54
564.57	32.77
564.74	91.28
564.90	70.22
565.07	18.72
565.23	81.92
565.39	58.51
565.56	93.62
565.72	145.11
565.88	51.49
566.05	124.05
566.21	72.56
566.38	91.28
566.54	4.68
566.70	60.85
566.87	0.00
567.03	56.17
567.19	81.92
567.36	107.66
567.52	145.11
567.68	91.28
567.85	63.19
568.01	56.17
568.17	60.85
568.34	53.83
568.50	58.51
568.66	72.56
568.83	86.60
568.99	53.83
569.15	140.43
569.32	2.34
569.48	88.94
569.64	119.37
569.81	74.90
569.97	114.69
570.13	72.56
570.30	67.88
570.46	102.98
570.62	98.30
570.78	117.03
570.95	72.56
571.11	35.11
571.27	128.73
571.43	102.98
571.60	124.05
571.76	93.62
571.92	63.19
572.09	131.07
572.25	60.85
572.41	88.94
572.57	72.56
572.74	131.07
572.90	156.82
573.06	86.60
573.22	114.69
573.38	107.66
573.55	42.13
573.71	91.28
573.87	88.94
574.03	131.07
574.20	81.92
574.36	81.92
574.52	46.81
574.68	105.32
574.84	37.45
575.01	88.94
575.17	102.98
575.33	133.41
575.49	102.98
575.65	81.92
575.82	51.49
575.98	72.56
576.14	110.01
576.30	53.83
576.46	65.54
576.62	100.64
576.79	81.92
576.95	110.01
577.11	51.49
577.27	58.51
577.43	16.38
577.59	81.92
577.75	105.32
577.92	42.13
578.08	98.30
578.24	133.41
578.40	110.01
578.56	121.71
578.72	102.98
578.88	72.56
579.04	102.98
579.21	77.24
579.37	77.24
579.53	107.66
579.69	95.96
579.85	42.13
580.01	147.45
580.17	79.58
580.33	102.98
580.49	56.17
580.65	117.03
580.82	121.71
580.98	25.75
581.14	51.49
581.30	84.26
581.46	114.69
581.62	110.01
581.78	51.49
581.94	149.79
582.10	67.88
582.26	86.60
582.42	84.26
582.58	23.41
582.74	114.69
582.90	35.11
583.06	72.56
583.22	93.62
583.38	93.62
583.54	110.01
583.70	37.45
583.86	112.35
584.02	112.35
584.18	51.49
584.34	63.19
584.50	107.66
584.66	117.03
584.82	163.84
584.98	187.24
585.14	72.56
585.30	51.49
585.46	105.32
585.62	128.73
585.78	53.83
585.94	39.79
586.10	58.51
586.26	98.30
586.42	88.94
586.58	14.04
586.74	39.79
586.90	93.62
587.06	37.45
587.22	88.94
587.38	37.45
587.54	60.85
587.70	86.60
587.86	46.81
588.02	60.85
588.18	70.22
588.34	0.00
588.49	53.83
588.65	42.13
588.81	56.17
588.97	84.26
589.13	117.03
589.29	100.64
589.45	58.51
589.61	105.32
589.77	58.51
589.93	114.69
590.08	60.85
590.24	65.54
590.40	67.88
590.56	138.09
590.72	70.22
590.88	21.06
591.04	102.98
591.20	42.13
591.35	53.83
591.51	117.03
591.67	46.81
591.83	152.13
591.99	93.62
592.15	117.03
592.31	18.72
592.46	72.56
592.62	81.92
592.78	65.54
592.94	91.28
593.10	107.66
593.26	74.90
593.41	51.49
593.57	74.90
593.73	28.09
593.89	25.75
594.05	126.39
594.20	88.94
594.36	126.39
594.52	72.56
594.68	81.92
594.84	135.75
594.99	67.88
595.15	81.92
595.31	14.04
595.47	67.88
595.62	86.60
595.78	124.05
595.94	0.00
596.10	35.11
596.25	79.58
596.41	105.32
596.57	37.45
596.73	102.98
596.88	84.26
597.04	70.22
597.20	93.62
597.36	7.02
597.51	110.01
597.67	18.72
597.83	98.30
597.99	30.43
598.14	21.06
598.30	44.47
598.46	102.98
598.61	65.54
598.77	42.13
598.93	67.88
599.09	79.58
599.24	49.15
599.40	21.06
599.56	70.22
599.71	91.28
599.87	58.51
600.03	42.13
600.18	53.83
600.34	100.64
600.50	30.43
600.65	88.94
600.81	98.30
600.97	98.30
601.12	35.11
601.28	25.75
601.44	72.56
601.59	60.85
601.75	86.60
601.91	74.90
602.06	133.41
602.22	112.35
602.37	39.79
602.53	53.83
602.69	0.00
602.84	79.58
603.00	53.83
603.16	23.41
603.31	4.68
603.47	145.11
603.62	42.13
603.78	56.17
603.94	67.88
604.09	117.03
604.25	77.24
604.40	93.62
604.56	74.90
604.71	0.00
604.87	93.62
605.03	72.56
605.18	51.49
605.34	98.30
605.49	100.64
605.65	110.01
605.80	128.73
605.96	128.73
606.12	149.79
606.27	70.22
606.43	102.98
606.58	56.17
606.74	39.79
606.89	49.15
607.05	110.01
607.20	107.66
607.36	133.41
607.51	102.98
607.67	84.26
607.82	9.36
607.98	74.90
608.13	81.92
608.29	51.49
608.44	72.56
608.60	65.54
608.75	51.49
608.91	159.16
609.06	23.41
609.22	91.28
609.37	84.26
609.53	70.22
609.68	140.43
609.84	53.83
609.99	65.54
610.15	56.17
610.30	67.88
610.46	67.88
610.61	35.11
610.76	93.62
610.92	14.04
611.07	51.49
611.23	37.45
611.38	67.88
611.54	84.26
611.69	147.45
611.84	46.81
612.00	102.98
612.15	72.56
612.31	114.69
612.46	67.88
612.62	79.58
612.77	49.15
612.92	98.30
613.08	0.00
613.23	58.51
613.39	79.58
613.54	65.54
613.69	46.81
613.85	95.96
614.00	44.47
614.15	70.22
614.31	35.11
614.46	14.04
614.62	126.39
614.77	51.49
614.92	72.56
615.08	51.49
615.23	25.75
615.38	107.66
615.54	86.60
615.69	107.66
615.84	65.54
616.00	56.17
616.15	51.49
616.30	37.45
616.46	65.54
616.61	121.71
616.76	81.92
616.92	35.11
617.07	58.51
617.22	44.47
617.37	86.60
617.53	114.69
617.68	53.83
617.83	30.43
617.99	46.81
618.14	72.56
618.29	74.90
618.45	56.17
618.60	16.38
618.75	2.34
618.90	72.56
619.06	63.19
619.21	84.26
619.36	98.30
619.51	128.73
619.67	39.79
619.82	102.98
619.97	77.24
620.12	0.00
620.28	67.88
620.43	88.94
620.58	0.00
620.73	102.98
620.89	32.77
621.04	0.00
621.19	100.64
621.34	84.26
621.49	107.66
621.65	133.41
621.80	46.81
621.95	51.49
622.10	46.81
622.25	32.77
622.41	42.13
622.56	105.32
622.71	37.45
622.86	0.00
623.01	49.15
623.16	30.43
623.32	88.94
623.47	88.94
623.62	18.72
623.77	2.34
623.92	65.54
624.07	30.43
624.23	70.22
624.38	70.22
624.53	117.03
624.68	84.26
624.83	35.11
624.98	72.56
625.13	42.13
625.29	117.03
625.44	86.60
625.59	23.41
625.74	0.00
625.89	37.45
626.04	2.34
626.19	21.06
626.34	63.19
626.49	70.22
626.65	102.98
626.80	63.19
626.95	44.47
627.10	53.83
627.25	79.58
627.40	2.34
627.55	32.77
627.70	9.36
627.85	35.11
628.00	42.13
628.15	86.60
628.30	49.15
628.45	63.19
628.60	86.60
628.76	74.90
628.91	58.51
629.06	98.30
629.21	2.34
629.36	46.81
629.51	74.90
629.66	77.24
629.81	65.54
629.96	18.72
630.11	0.00
630.26	112.35
630.41	4.68
630.56	16.38
630.71	35.11
630.86	63.19
631.01	117.03
631.16	16.38
631.31	16.38
631.46	51.49
631.61	14.04
631.76	32.77
631.91	91.28
632.06	119.37
632.21	86.60
632.36	16.38
632.51	49.15
632.66	32.77
632.81	77.24
632.96	44.47
633.10	79.58
633.25	72.56
633.40	102.98
633.55	126.39
633.70	56.17
633.85	44.47
634.00	63.19
634.15	0.00
634.30	49.15
634.45	74.90
634.60	44.47
634.75	95.96
634.90	32.77
635.05	88.94
635.19	63.19
635.34	25.75
635.49	79.58
635.64	63.19
635.79	53.83
635.94	88.94
636.09	23.41
636.24	0.00
636.39	25.75
636.53	114.69
636.68	100.64
636.83	35.11
636.98	86.60
637.13	88.94
637.28	18.72
637.43	91.28
637.57	35.11
637.72	56.17
637.87	18.72
638.02	0.00
638.17	49.15
638.32	56.17
638.46	74.90
638.61	65.54
638.76	21.06
638.91	88.94
639.06	133.41
639.20	42.13
639.35	114.69
639.50	53.83
639.65	56.17
639.80	63.19
639.94	110.01
640.09	42.13
640.24	46.81
640.39	126.39
640.54	95.96
640.68	114.69
640.83	53.83
640.98	86.60
641.13	60.85
641.27	49.15
641.42	81.92
641.57	42.13
641.72	102.98
641.86	42.13
642.01	0.00
642.16	46.81
642.31	0.00
642.45	58.51
642.60	65.54
642.75	91.28
642.90	25.75
643.04	53.83
643.19	28.09
643.34	88.94
643.48	14.04
643.63	114.69
643.78	49.15
643.93	44.47
644.07	65.54
644.22	28.09
644.37	95.96
644.51	112.35
644.66	56.17
644.81	114.69
644.95	93.62
645.10	0.00
645.25	44.47
645.39	30.43
645.54	63.19
645.69	51.49
645.83	100.64
645.98	88.94
646.13	112.35
646.27	14.04
646.42	7.02
646.57	16.38
646.71	100.64
646.86	0.00
647.00	77.24
647.15	23.41
647.30	14.04
647.44	79.58
647.59	95.96
647.74	79.58
647.88	102.98
648.03	44.47
648.17	72.56
648.32	49.15
648.47	37.45
648.61	39.79
648.76	72.56
648.90	44.47
649.05	65.54
649.20	112.35
649.34	65.54
649.49	14.04
649.63	51.49
649.78	88.94
649.92	51.49
650.07	58.51
650.21	35.11
650.36	107.66
650.51	11.70
650.65	46.81
650.80	58.51
650.94	0.00
651.09	56.17
651.23	77.24
651.38	4.68
651.52	16.38
651.67	30.43
651.81	28.09
651.96	23.41
652.10	51.49
652.25	70.22
652.39	110.01
652.54	100.64
652.68	2.34
652.83	0.00
652.97	30.43
653.12	60.85
653.26	28.09
653.41	77.24
653.55	91.28
653.70	0.00
653.84	32.77
653.99	37.45
654.13	88.94
654.27	74.90
654.42	65.54
654.56	53.83
654.71	46.81
654.85	63.19
655.00	63.19
655.14	72.56
655.29	16.38
655.43	2.34
655.57	49.15
655.72	49.15
655.86	46.81
656.01	51.49
656.15	56.17
656.30	0.00
656.44	28.09
656.58	23.41
656.73	51.49
656.87	84.26
657.01	0.00
657.16	74.90
657.30	51.49
657.45	11.70
657.59	117.03
657.73	39.79
657.88	28.09
658.02	11.70
658.16	0.00
658.31	21.06
658.45	18.72
658.60	58.51
658.74	102.98
658.88	88.94
659.03	49.15
659.17	35.11
659.31	44.47
659.46	67.88
659.60	28.09
659.74	0.00
659.89	21.06
660.03	23.41
660.17	65.54
660.32	51.49
660.46	51.49
660.60	91.28
660.74	4.68
660.89	58.51
661.03	21.06
661.17	77.24
661.32	70.22
661.46	23.41
661.60	14.04
661.74	63.19
661.89	56.17
662.03	88.94
662.17	95.96
662.31	46.81
662.46	39.79
662.60	18.72
662.74	14.04
662.88	16.38
663.03	58.51
663.17	42.13
663.31	107.66
663.45	98.30
663.60	32.77
663.74	70.22
663.88	74.90
664.02	32.77
664.17	0.00
664.31	60.85
664.45	18.72
664.59	23.41
664.73	23.41
664.88	133.41
665.02	63.19
665.16	88.94
665.30	110.01
665.44	53.83
665.59	32.77
665.73	0.00
665.87	46.81
666.01	21.06
666.15	39.79
666.29	7.02
666.44	65.54
666.58	0.00
666.72	77.24
666.86	70.22
667.00	53.83
667.14	0.00
667.28	100.64
667.43	28.09
667.57	42.13
667.71	0.00
667.85	95.96
667.99	77.24
668.13	121.71
668.27	63.19
668.41	21.06
668.56	42.13
668.70	79.58
668.84	23.41
668.98	37.45
669.12	14.04
669.26	88.94
669.40	91.28
669.54	79.58
669.68	42.13
669.82	63.19
669.96	114.69
670.10	84.26
670.25	70.22
670.39	72.56
670.53	70.22
670.67	126.39
670.81	28.09
670.95	51.49
671.09	67.88
671.23	23.41
671.37	9.36
671.51	0.00
671.65	46.81
671.79	60.85
671.93	18.72
672.07	67.88
672.21	42.13
672.35	72.56
672.49	37.45
672.63	28.09
672.77	98.30
672.91	77.24
673.05	53.83
673.19	44.47
673.33	98.30
673.47	79.58
673.61	74.90
673.75	0.00
673.89	70.22
674.03	105.32
674.17	4.68
674.31	81.92
674.45	32.77
674.59	51.49
674.73	60.85
674.87	49.15
675.01	0.00
675.15	72.56
675.29	70.22
675.43	74.90
675.56	102.98
675.70	53.83
675.84	67.88
675.98	119.37
676.12	44.47
676.26	58.51
676.40	39.79
676.54	7.02
676.68	74.90
676.82	37.45
676.96	16.38
677.10	14.04
677.23	7.02
677.37	86.60
677.51	0.00
677.65	46.81
677.79	105.32
677.93	0.00
678.07	0.00
678.21	35.11
678.34	2.34
678.48	119.37
678.62	30.43
678.76	51.49
678.90	44.47
679.04	56.17
679.18	28.09
679.31	74.90
679.45	88.94
679.59	51.49
679.73	16.38
679.87	91.28
680.00	53.83
680.14	0.00
680.28	30.43
680.42	18.72
680.56	91.28
680.70	58.51
680.83	30.43
680.97	32.77
681.11	63.19
681.25	32.77
681.39	74.90
681.52	56.17
681.66	102.98
681.80	67.88
681.94	28.09
682.07	42.13
682.21	0.00
682.35	133.41
682.49	42.13
682.62	2.34
682.76	70.22
682.90	98.30
683.04	32.77
683.17	91.28
683.31	44.47
683.45	51.49
683.59	0.00
683.72	58.51
683.86	91.28
684.00	95.96
684.13	32.77
684.27	42.13
684.41	42.13
684.55	46.81
684.68	2.34
684.82	0.00
684.96	0.00
685.09	9.36
685.23	11.70
685.37	9.36
685.50	63.19
685.64	11.70
685.78	72.56
685.91	11.70
686.05	77.24
686.19	93.62
686.32	28.09
686.46	0.00
686.60	18.72
686.73	72.56
686.87	65.54
687.01	30.43
687.14	0.00
687.28	28.09
687.42	37.45
687.55	58.51
687.69	63.19
687.82	25.75
687.96	25.75
688.10	25.75
688.23	21.06
688.37	0.00
688.50	95.96
688.64	0.00
688.78	32.77
688.91	93.62
689.05	67.88
689.18	16.38
689.32	7.02
689.46	95.96
689.59	77.24
689.73	44.47
689.86	25.75
690.00	0.00
690.13	58.51
690.27	70.22
690.41	67.88
690.54	4.68
690.68	65.54
690.81	0.00
690.95	0.00
691.08	18.72
691.22	28.09
691.35	95.96
691.49	16.38
691.62	70.22
691.76	0.00
691.89	18.72
692.03	81.92
692.16	84.26
692.30	32.77
692.43	49.15
692.57	70.22
692.70	23.41
692.84	0.00
692.97	28.09
693.11	110.01
693.24	0.00
693.38	9.36
693.51	0.00
693.65	0.00
693.78	72.56
693.92	65.54
694.05	77.24
694.19	74.90
694.32	0.00
694.45	0.00
694.59	0.00
694.72	37.45
694.86	35.11
694.99	7.02
695.13	9.36
695.26	56.17
695.39	60.85
695.53	58.51
695.66	30.43
695.80	53.83
695.93	81.92
696.07	0.00
696.20	84.26
696.33	4.68
696.47	110.01
696.60	86.60
696.73	0.00
696.87	0.00
697.00	30.43
697.14	18.72
697.27	91.28
697.40	114.69
697.54	44.47
697.67	16.38
697.80	0.00
697.94	81.92
698.07	58.51
698.21	56.17
698.34	58.51
698.47	60.85
698.61	98.30
698.74	21.06
698.87	67.88
699.01	7.02
699.14	112.35
699.27	28.09
699.40	124.05
699.54	16.38
699.67	63.19
699.80	9.36
699.94	0.00
700.07	11.70
700.20	32.77
700.34	112.35
700.47	25.75
700.60	0.00
700.73	44.47
700.87	21.06
701.00	98.30
701.13	65.54
701.26	65.54
701.40	28.09
701.53	9.36
701.66	0.00
701.79	21.06
701.93	0.00
702.06	30.43
702.19	0.00
702.32	58.51
702.46	39.79
702.59	21.06
702.72	7.02
702.85	0.00
702.99	42.13
703.12	7.02
703.25	60.85
703.38	0.00
703.51	51.49
703.65	0.00
703.78	0.00
703.91	42.13
704.04	0.00
704.17	49.15
704.31	18.72
704.44	9.36
704.57	0.00
704.70	21.06
704.83	39.79
704.96	25.75
705.10	32.77
705.23	18.72
>>>>>End Processed Spectral Data<<<<<
