SpectraSuite Data File
++++++++++++++++++++++++++++++++++++
Date: Fri Oct 04 12:13:27 GMT-05:00 2013
User: price-jones
Dark Spectrum Present: No
Reference Spectrum Present: No
Number of Sampled Component Spectra: 1
Spectrometers: USB2+H05261
Integration Time (usec): 10000 (USB2+H05261)
Spectra Averaged: 1 (USB2+H05261)
Boxcar Smoothing: 0 (USB2+H05261)
Correct for Electrical Dark: No (USB2+H05261)
Strobe/Lamp Enabled: No (USB2+H05261)
Correct for Detector Non-linearity: No (USB2+H05261)
Correct for Stray Light: No (USB2+H05261)
Number of Pixels in Processed Spectrum: 2048
>>>>>Begin Processed Spectral Data<<<<<
365.73	0.00
365.92	0.00
366.12	0.00
366.32	0.00
366.52	0.00
366.72	0.00
366.91	0.00
367.11	0.00
367.31	0.00
367.51	0.00
367.70	0.00
367.90	0.00
368.10	0.00
368.30	0.00
368.49	0.00
368.69	0.00
368.89	0.00
369.09	0.00
369.28	0.00
369.48	0.00
369.68	0.00
369.87	0.00
370.07	0.00
370.27	0.00
370.47	0.00
370.66	4.68
370.86	0.00
371.06	0.00
371.25	49.15
371.45	0.00
371.65	0.00
371.84	4.68
372.04	0.00
372.24	0.00
372.44	0.00
372.63	79.58
372.83	0.00
373.03	23.41
373.22	37.45
373.42	0.00
373.62	7.02
373.81	49.15
374.01	86.60
374.21	0.00
374.40	35.11
374.60	30.43
374.79	70.22
374.99	88.94
375.19	32.77
375.38	49.15
375.58	0.00
375.78	23.41
375.97	42.13
376.17	39.79
376.37	32.77
376.56	0.00
376.76	0.00
376.95	16.38
377.15	58.51
377.35	32.77
377.54	7.02
377.74	25.75
377.93	4.68
378.13	2.34
378.33	0.00
378.52	0.00
378.72	0.00
378.91	14.04
379.11	21.06
379.31	21.06
379.50	0.00
379.70	110.01
379.89	28.09
380.09	21.06
380.28	46.81
380.48	35.11
380.68	30.43
380.87	25.75
381.07	7.02
381.26	0.00
381.46	30.43
381.65	2.34
381.85	49.15
382.04	0.00
382.24	9.36
382.43	0.00
382.63	37.45
382.83	9.36
383.02	0.00
383.22	67.88
383.41	46.81
383.61	28.09
383.80	16.38
384.00	39.79
384.19	0.00
384.39	21.06
384.58	0.00
384.78	53.83
384.97	30.43
385.17	35.11
385.36	0.00
385.56	0.00
385.75	7.02
385.95	147.45
386.14	56.17
386.34	16.38
386.53	16.38
386.72	4.68
386.92	0.00
387.11	72.56
387.31	18.72
387.50	0.00
387.70	119.37
387.89	46.81
388.09	60.85
388.28	9.36
388.48	23.41
388.67	0.00
388.86	0.00
389.06	58.51
389.25	16.38
389.45	0.00
389.64	53.83
389.84	16.38
390.03	0.00
390.22	0.00
390.42	11.70
390.61	0.00
390.81	14.04
391.00	0.00
391.19	46.81
391.39	32.77
391.58	0.00
391.78	0.00
391.97	25.75
392.16	49.15
392.36	32.77
392.55	4.68
392.75	65.54
392.94	42.13
393.13	44.47
393.33	74.90
393.52	16.38
393.71	117.03
393.91	72.56
394.10	0.00
394.29	63.19
394.49	14.04
394.68	21.06
394.88	16.38
395.07	18.72
395.26	4.68
395.46	56.17
395.65	9.36
395.84	0.00
396.04	32.77
396.23	44.47
396.42	91.28
396.62	63.19
396.81	72.56
397.00	28.09
397.19	0.00
397.39	56.17
397.58	53.83
397.77	56.17
397.97	42.13
398.16	7.02
398.35	21.06
398.55	0.00
398.74	56.17
398.93	79.58
399.12	23.41
399.32	39.79
399.51	42.13
399.70	11.70
399.90	21.06
400.09	84.26
400.28	0.00
400.47	0.00
400.67	23.41
400.86	0.00
401.05	37.45
401.24	65.54
401.44	35.11
401.63	81.92
401.82	0.00
402.01	4.68
402.21	0.00
402.40	14.04
402.59	18.72
402.78	32.77
402.97	0.00
403.17	0.00
403.36	35.11
403.55	72.56
403.74	0.00
403.93	0.00
404.13	0.00
404.32	9.36
404.51	0.00
404.70	23.41
404.89	30.43
405.09	2.34
405.28	14.04
405.47	0.00
405.66	9.36
405.85	0.00
406.05	4.68
406.24	25.75
406.43	0.00
406.62	0.00
406.81	28.09
407.00	145.11
407.20	56.17
407.39	32.77
407.58	2.34
407.77	0.00
407.96	4.68
408.15	0.00
408.34	0.00
408.54	74.90
408.73	56.17
408.92	44.47
409.11	23.41
409.30	18.72
409.49	0.00
409.68	21.06
409.87	16.38
410.07	63.19
410.26	107.66
410.45	11.70
410.64	0.00
410.83	16.38
411.02	0.00
411.21	0.00
411.40	72.56
411.59	0.00
411.78	51.49
411.98	95.96
412.17	39.79
412.36	124.05
412.55	9.36
412.74	37.45
412.93	25.75
413.12	25.75
413.31	28.09
413.50	58.51
413.69	0.00
413.88	60.85
414.07	25.75
414.26	23.41
414.45	42.13
414.64	4.68
414.83	23.41
415.02	0.00
415.22	58.51
415.41	32.77
415.60	7.02
415.79	0.00
415.98	7.02
416.17	2.34
416.36	79.58
416.55	0.00
416.74	2.34
416.93	23.41
417.12	9.36
417.31	37.45
417.50	44.47
417.69	16.38
417.88	58.51
418.07	102.98
418.26	35.11
418.45	79.58
418.64	58.51
418.83	35.11
419.02	93.62
419.21	49.15
419.39	21.06
419.58	58.51
419.77	0.00
419.96	14.04
420.15	63.19
420.34	0.00
420.53	0.00
420.72	46.81
420.91	7.02
421.10	98.30
421.29	32.77
421.48	46.81
421.67	18.72
421.86	51.49
422.05	11.70
422.24	28.09
422.43	25.75
422.61	0.00
422.80	32.77
422.99	16.38
423.18	0.00
423.37	30.43
423.56	30.43
423.75	25.75
423.94	18.72
424.13	46.81
424.32	63.19
424.50	0.00
424.69	53.83
424.88	49.15
425.07	0.00
425.26	9.36
425.45	37.45
425.64	88.94
425.83	51.49
426.01	28.09
426.20	11.70
426.39	56.17
426.58	70.22
426.77	98.30
426.96	23.41
427.15	63.19
427.33	98.30
427.52	0.00
427.71	44.47
427.90	60.85
428.09	18.72
428.28	7.02
428.46	16.38
428.65	60.85
428.84	0.00
429.03	51.49
429.22	56.17
429.40	0.00
429.59	91.28
429.78	51.49
429.97	49.15
430.16	9.36
430.34	112.35
430.53	49.15
430.72	79.58
430.91	16.38
431.10	0.00
431.28	44.47
431.47	0.00
431.66	58.51
431.85	67.88
432.03	39.79
432.22	7.02
432.41	42.13
432.60	46.81
432.79	58.51
432.97	98.30
433.16	0.00
433.35	0.00
433.54	39.79
433.72	0.00
433.91	42.13
434.10	0.00
434.28	16.38
434.47	16.38
434.66	77.24
434.85	0.00
435.03	0.00
435.22	67.88
435.41	0.00
435.59	65.54
435.78	74.90
435.97	98.30
436.16	30.43
436.34	2.34
436.53	23.41
436.72	81.92
436.90	28.09
437.09	42.13
437.28	42.13
437.46	18.72
437.65	23.41
437.84	0.00
438.02	0.00
438.21	23.41
438.40	0.00
438.58	16.38
438.77	67.88
438.96	49.15
439.14	4.68
439.33	65.54
439.52	0.00
439.70	42.13
439.89	0.00
440.08	63.19
440.26	0.00
440.45	84.26
440.63	63.19
440.82	16.38
441.01	102.98
441.19	2.34
441.38	0.00
441.57	63.19
441.75	0.00
441.94	0.00
442.12	81.92
442.31	18.72
442.50	42.13
442.68	51.49
442.87	0.00
443.05	30.43
443.24	0.00
443.43	0.00
443.61	37.45
443.80	25.75
443.98	49.15
444.17	35.11
444.35	49.15
444.54	0.00
444.73	51.49
444.91	79.58
445.10	0.00
445.28	70.22
445.47	14.04
445.65	35.11
445.84	60.85
446.02	77.24
446.21	74.90
446.39	0.00
446.58	0.00
446.77	0.00
446.95	0.00
447.14	35.11
447.32	35.11
447.51	39.79
447.69	100.64
447.88	32.77
448.06	0.00
448.25	39.79
448.43	25.75
448.62	9.36
448.80	51.49
448.99	49.15
449.17	0.00
449.36	79.58
449.54	0.00
449.73	0.00
449.91	53.83
450.10	21.06
450.28	0.00
450.46	37.45
450.65	0.00
450.83	39.79
451.02	30.43
451.20	0.00
451.39	0.00
451.57	18.72
451.76	37.45
451.94	102.98
452.13	18.72
452.31	0.00
452.49	0.00
452.68	0.00
452.86	65.54
453.05	60.85
453.23	42.13
453.42	0.00
453.60	4.68
453.78	37.45
453.97	11.70
454.15	32.77
454.34	28.09
454.52	0.00
454.70	35.11
454.89	16.38
455.07	0.00
455.26	4.68
455.44	53.83
455.62	0.00
455.81	39.79
455.99	53.83
456.17	28.09
456.36	56.17
456.54	88.94
456.73	2.34
456.91	0.00
457.09	58.51
457.28	70.22
457.46	44.47
457.64	49.15
457.83	14.04
458.01	53.83
458.19	32.77
458.38	11.70
458.56	30.43
458.74	86.60
458.93	23.41
459.11	37.45
459.29	56.17
459.48	39.79
459.66	56.17
459.84	44.47
460.03	58.51
460.21	0.00
460.39	0.00
460.57	28.09
460.76	53.83
460.94	49.15
461.12	56.17
461.31	51.49
461.49	0.00
461.67	9.36
461.85	56.17
462.04	14.04
462.22	91.28
462.40	42.13
462.59	49.15
462.77	0.00
462.95	72.56
463.13	28.09
463.32	42.13
463.50	49.15
463.68	56.17
463.86	56.17
464.05	21.06
464.23	49.15
464.41	0.00
464.59	51.49
464.78	49.15
464.96	98.30
465.14	44.47
465.32	28.09
465.50	32.77
465.69	42.13
465.87	7.02
466.05	16.38
466.23	7.02
466.41	37.45
466.60	25.75
466.78	37.45
466.96	28.09
467.14	9.36
467.32	46.81
467.51	51.49
467.69	114.69
467.87	107.66
468.05	67.88
468.23	42.13
468.41	11.70
468.60	0.00
468.78	28.09
468.96	14.04
469.14	4.68
469.32	39.79
469.50	42.13
469.69	77.24
469.87	0.00
470.05	0.00
470.23	95.96
470.41	56.17
470.59	77.24
470.77	98.30
470.95	14.04
471.14	65.54
471.32	72.56
471.50	86.60
471.68	44.47
471.86	88.94
472.04	93.62
472.22	37.45
472.40	28.09
472.58	0.00
472.77	30.43
472.95	0.00
473.13	0.00
473.31	58.51
473.49	46.81
473.67	30.43
473.85	72.56
474.03	9.36
474.21	135.75
474.39	67.88
474.57	25.75
474.75	56.17
474.93	86.60
475.12	42.13
475.30	49.15
475.48	0.00
475.66	0.00
475.84	72.56
476.02	14.04
476.20	0.00
476.38	0.00
476.56	117.03
476.74	0.00
476.92	65.54
477.10	0.00
477.28	21.06
477.46	0.00
477.64	44.47
477.82	81.92
478.00	14.04
478.18	14.04
478.36	39.79
478.54	102.98
478.72	63.19
478.90	67.88
479.08	0.00
479.26	44.47
479.44	70.22
479.62	4.68
479.80	107.66
479.98	35.11
480.16	2.34
480.34	0.00
480.52	25.75
480.70	39.79
480.88	7.02
481.06	91.28
481.24	70.22
481.41	79.58
481.59	25.75
481.77	53.83
481.95	2.34
482.13	23.41
482.31	56.17
482.49	30.43
482.67	23.41
482.85	44.47
483.03	95.96
483.21	70.22
483.39	11.70
483.57	0.00
483.74	49.15
483.92	30.43
484.10	51.49
484.28	0.00
484.46	18.72
484.64	51.49
484.82	49.15
485.00	56.17
485.18	63.19
485.35	44.47
485.53	53.83
485.71	35.11
485.89	51.49
486.07	0.00
486.25	98.30
486.43	35.11
486.61	11.70
486.78	21.06
486.96	0.00
487.14	42.13
487.32	0.00
487.50	21.06
487.68	49.15
487.85	44.47
488.03	0.00
488.21	11.70
488.39	58.51
488.57	35.11
488.75	44.47
488.92	35.11
489.10	42.13
489.28	0.00
489.46	0.00
489.64	65.54
489.81	74.90
489.99	30.43
490.17	28.09
490.35	0.00
490.53	79.58
490.70	0.00
490.88	84.26
491.06	0.00
491.24	67.88
491.41	77.24
491.59	56.17
491.77	44.47
491.95	0.00
492.13	42.13
492.30	16.38
492.48	9.36
492.66	42.13
492.84	53.83
493.01	11.70
493.19	2.34
493.37	46.81
493.54	21.06
493.72	32.77
493.90	32.77
494.08	46.81
494.25	72.56
494.43	67.88
494.61	0.00
494.79	2.34
494.96	63.19
495.14	37.45
495.32	63.19
495.49	56.17
495.67	25.75
495.85	49.15
496.02	32.77
496.20	39.79
496.38	0.00
496.55	63.19
496.73	86.60
496.91	49.15
497.09	30.43
497.26	46.81
497.44	60.85
497.62	9.36
497.79	51.49
497.97	60.85
498.14	44.47
498.32	9.36
498.50	14.04
498.67	70.22
498.85	25.75
499.03	0.00
499.20	37.45
499.38	0.00
499.56	46.81
499.73	25.75
499.91	37.45
500.08	60.85
500.26	0.00
500.44	0.00
500.61	51.49
500.79	0.00
500.97	49.15
501.14	39.79
501.32	95.96
501.49	7.02
501.67	74.90
501.84	74.90
502.02	42.13
502.20	53.83
502.37	11.70
502.55	84.26
502.72	84.26
502.90	23.41
503.07	32.77
503.25	56.17
503.43	42.13
503.60	100.64
503.78	58.51
503.95	65.54
504.13	70.22
504.30	77.24
504.48	0.00
504.65	32.77
504.83	77.24
505.01	9.36
505.18	11.70
505.36	11.70
505.53	74.90
505.71	14.04
505.88	42.13
506.06	37.45
506.23	42.13
506.41	18.72
506.58	9.36
506.76	39.79
506.93	77.24
507.11	58.51
507.28	0.00
507.46	44.47
507.63	67.88
507.81	142.77
507.98	86.60
508.16	51.49
508.33	42.13
508.50	18.72
508.68	42.13
508.85	53.83
509.03	0.00
509.20	126.39
509.38	77.24
509.55	117.03
509.73	67.88
509.90	65.54
510.08	46.81
510.25	56.17
510.42	79.58
510.60	60.85
510.77	77.24
510.95	98.30
511.12	79.58
511.30	58.51
511.47	93.62
511.64	42.13
511.82	9.36
511.99	117.03
512.17	11.70
512.34	0.00
512.51	65.54
512.69	16.38
512.86	30.43
513.04	88.94
513.21	28.09
513.38	88.94
513.56	35.11
513.73	44.47
513.90	2.34
514.08	21.06
514.25	9.36
514.43	0.00
514.60	58.51
514.77	65.54
514.95	0.00
515.12	32.77
515.29	95.96
515.47	35.11
515.64	77.24
515.81	14.04
515.99	84.26
516.16	25.75
516.33	77.24
516.51	32.77
516.68	25.75
516.85	77.24
517.03	67.88
517.20	14.04
517.37	145.11
517.54	23.41
517.72	39.79
517.89	67.88
518.06	65.54
518.24	70.22
518.41	51.49
518.58	0.00
518.75	44.47
518.93	16.38
519.10	67.88
519.27	0.00
519.45	0.00
519.62	14.04
519.79	56.17
519.96	56.17
520.14	0.00
520.31	9.36
520.48	25.75
520.65	124.05
520.83	11.70
521.00	0.00
521.17	53.83
521.34	32.77
521.52	18.72
521.69	28.09
521.86	60.85
522.03	51.49
522.20	77.24
522.38	25.75
522.55	0.00
522.72	32.77
522.89	49.15
523.07	60.85
523.24	53.83
523.41	32.77
523.58	0.00
523.75	14.04
523.92	67.88
524.10	49.15
524.27	65.54
524.44	16.38
524.61	35.11
524.78	88.94
524.96	0.00
525.13	74.90
525.30	53.83
525.47	74.90
525.64	39.79
525.81	49.15
525.98	65.54
526.16	86.60
526.33	53.83
526.50	4.68
526.67	18.72
526.84	49.15
527.01	56.17
527.18	60.85
527.36	42.13
527.53	60.85
527.70	53.83
527.87	25.75
528.04	28.09
528.21	28.09
528.38	0.00
528.55	39.79
528.72	0.00
528.89	63.19
529.07	25.75
529.24	32.77
529.41	51.49
529.58	60.85
529.75	0.00
529.92	35.11
530.09	9.36
530.26	0.00
530.43	42.13
530.60	77.24
530.77	0.00
530.94	44.47
531.11	32.77
531.28	42.13
531.46	39.79
531.63	35.11
531.80	16.38
531.97	0.00
532.14	0.00
532.31	0.00
532.48	0.00
532.65	74.90
532.82	28.09
532.99	42.13
533.16	0.00
533.33	39.79
533.50	28.09
533.67	65.54
533.84	105.32
534.01	32.77
534.18	32.77
534.35	88.94
534.52	51.49
534.69	30.43
534.86	46.81
535.03	0.00
535.20	70.22
535.37	42.13
535.54	65.54
535.71	42.13
535.88	0.00
536.05	0.00
536.22	53.83
536.38	28.09
536.55	112.35
536.72	74.90
536.89	58.51
537.06	72.56
537.23	105.32
537.40	86.60
537.57	70.22
537.74	9.36
537.91	112.35
538.08	7.02
538.25	0.00
538.42	58.51
538.59	49.15
538.75	49.15
538.92	79.58
539.09	0.00
539.26	16.38
539.43	39.79
539.60	135.75
539.77	241.08
539.94	259.80
540.11	159.16
540.28	53.83
540.44	126.39
540.61	39.79
540.78	28.09
540.95	91.28
541.12	60.85
541.29	46.81
541.46	0.00
541.62	39.79
541.79	7.02
541.96	23.41
542.13	74.90
542.30	2.34
542.47	56.17
542.63	9.36
542.80	4.68
542.97	28.09
543.14	49.15
543.31	88.94
543.48	39.79
543.64	21.06
543.81	14.04
543.98	0.00
544.15	39.79
544.32	98.30
544.48	65.54
544.65	7.02
544.82	11.70
544.99	67.88
545.16	18.72
545.32	72.56
545.49	7.02
545.66	56.17
545.83	42.13
546.00	84.26
546.16	25.75
546.33	79.58
546.50	0.00
546.67	56.17
546.83	0.00
547.00	25.75
547.17	67.88
547.34	9.36
547.50	25.75
547.67	95.96
547.84	16.38
548.00	0.00
548.17	0.00
548.34	30.43
548.51	11.70
548.67	28.09
548.84	7.02
549.01	67.88
549.18	30.43
549.34	0.00
549.51	23.41
549.68	44.47
549.84	65.54
550.01	91.28
550.18	2.34
550.34	121.71
550.51	0.00
550.68	42.13
550.84	14.04
551.01	0.00
551.18	63.19
551.34	0.00
551.51	9.36
551.68	14.04
551.84	23.41
552.01	0.00
552.18	51.49
552.34	44.47
552.51	30.43
552.68	70.22
552.84	0.00
553.01	4.68
553.18	42.13
553.34	49.15
553.51	77.24
553.67	63.19
553.84	0.00
554.01	53.83
554.17	32.77
554.34	14.04
554.51	74.90
554.67	32.77
554.84	53.83
555.00	88.94
555.17	0.00
555.33	53.83
555.50	39.79
555.67	124.05
555.83	74.90
556.00	67.88
556.16	0.00
556.33	124.05
556.50	56.17
556.66	23.41
556.83	42.13
556.99	0.00
557.16	65.54
557.32	37.45
557.49	21.06
557.65	42.13
557.82	7.02
557.98	0.00
558.15	4.68
558.32	30.43
558.48	42.13
558.65	70.22
558.81	39.79
558.98	102.98
559.14	21.06
559.31	44.47
559.47	9.36
559.64	53.83
559.80	16.38
559.97	2.34
560.13	18.72
560.30	91.28
560.46	37.45
560.63	37.45
560.79	77.24
560.96	35.11
561.12	4.68
561.29	60.85
561.45	65.54
561.61	84.26
561.78	37.45
561.94	88.94
562.11	30.43
562.27	16.38
562.44	65.54
562.60	112.35
562.77	21.06
562.93	18.72
563.10	0.00
563.26	56.17
563.42	58.51
563.59	30.43
563.75	0.00
563.92	91.28
564.08	30.43
564.24	0.00
564.41	0.00
564.57	14.04
564.74	9.36
564.90	77.24
565.07	0.00
565.23	0.00
565.39	0.00
565.56	56.17
565.72	28.09
565.88	21.06
566.05	35.11
566.21	46.81
566.38	42.13
566.54	81.92
566.70	25.75
566.87	53.83
567.03	56.17
567.19	0.00
567.36	0.00
567.52	18.72
567.68	63.19
567.85	0.00
568.01	23.41
568.17	98.30
568.34	0.00
568.50	63.19
568.66	14.04
568.83	16.38
568.99	30.43
569.15	46.81
569.32	0.00
569.48	0.00
569.64	0.00
569.81	28.09
569.97	23.41
570.13	60.85
570.30	51.49
570.46	91.28
570.62	28.09
570.78	0.00
570.95	16.38
571.11	35.11
571.27	0.00
571.43	0.00
571.60	79.58
571.76	32.77
571.92	0.00
572.09	77.24
572.25	28.09
572.41	49.15
572.57	49.15
572.74	44.47
572.90	25.75
573.06	11.70
573.22	51.49
573.38	84.26
573.55	9.36
573.71	11.70
573.87	7.02
574.03	0.00
574.20	98.30
574.36	86.60
574.52	93.62
574.68	84.26
574.84	2.34
575.01	49.15
575.17	14.04
575.33	14.04
575.49	53.83
575.65	30.43
575.82	70.22
575.98	91.28
576.14	142.77
576.30	58.51
576.46	77.24
576.62	112.35
576.79	58.51
576.95	128.73
577.11	35.11
577.27	46.81
577.43	51.49
577.59	35.11
577.75	0.00
577.92	18.72
578.08	11.70
578.24	9.36
578.40	28.09
578.56	58.51
578.72	18.72
578.88	53.83
579.04	65.54
579.21	100.64
579.37	70.22
579.53	46.81
579.69	11.70
579.85	0.00
580.01	95.96
580.17	11.70
580.33	49.15
580.49	65.54
580.65	42.13
580.82	39.79
580.98	0.00
581.14	63.19
581.30	53.83
581.46	86.60
581.62	53.83
581.78	100.64
581.94	51.49
582.10	86.60
582.26	25.75
582.42	86.60
582.58	58.51
582.74	60.85
582.90	58.51
583.06	100.64
583.22	77.24
583.38	28.09
583.54	95.96
583.70	56.17
583.86	79.58
584.02	70.22
584.18	95.96
584.34	159.16
584.50	308.95
584.66	2312.45
584.82	6136.88
584.98	9420.66
585.14	8805.10
585.30	5371.53
585.46	3045.04
585.62	1954.35
585.78	945.58
585.94	402.57
586.10	154.48
586.26	133.41
586.42	110.01
586.58	105.32
586.74	100.64
586.90	77.24
587.06	0.00
587.22	88.94
587.38	93.62
587.54	145.11
587.70	423.64
587.86	617.90
588.02	777.06
588.18	550.03
588.34	327.68
588.49	205.97
588.65	93.62
588.81	42.13
588.97	117.03
589.13	11.70
589.29	35.11
589.45	114.69
589.61	72.56
589.77	49.15
589.93	77.24
590.08	93.62
590.24	30.43
590.40	46.81
590.56	112.35
590.72	51.49
590.88	142.77
591.04	102.98
591.20	21.06
591.35	49.15
591.51	18.72
591.67	0.00
591.83	42.13
591.99	9.36
592.15	72.56
592.31	65.54
592.46	79.58
592.62	39.79
592.78	28.09
592.94	32.77
593.10	42.13
593.26	63.19
593.41	65.54
593.57	53.83
593.73	79.58
593.89	320.65
594.05	894.08
594.20	1242.82
594.36	1275.59
594.52	779.40
594.68	451.72
594.84	322.99
594.99	149.79
595.15	51.49
595.31	4.68
595.47	49.15
595.62	0.00
595.78	51.49
595.94	72.56
596.10	18.72
596.25	56.17
596.41	74.90
596.57	102.98
596.73	51.49
596.88	98.30
597.04	191.92
597.20	198.95
597.36	311.29
597.51	224.69
597.67	196.60
597.83	182.56
597.99	180.22
598.14	119.37
598.30	121.71
598.46	102.98
598.61	4.68
598.77	74.90
598.93	93.62
599.09	72.56
599.24	70.22
599.40	0.00
599.56	18.72
599.71	70.22
599.87	16.38
600.03	74.90
600.18	98.30
600.34	0.00
600.50	53.83
600.65	65.54
600.81	95.96
600.97	23.41
601.12	39.79
601.28	16.38
601.44	2.34
601.59	95.96
601.75	25.75
601.91	74.90
602.06	35.11
602.22	63.19
602.37	37.45
602.53	161.50
602.69	332.36
602.84	397.89
603.00	271.50
603.16	177.88
603.31	208.31
603.47	86.60
603.62	74.90
603.78	35.11
603.94	93.62
604.09	67.88
604.25	81.92
604.40	53.83
604.56	9.36
604.71	0.00
604.87	81.92
605.03	0.00
605.18	81.92
605.34	51.49
605.49	42.13
605.65	51.49
605.80	0.00
605.96	30.43
606.12	21.06
606.27	39.79
606.43	49.15
606.58	98.30
606.74	149.79
606.89	430.66
607.05	781.74
607.20	1109.41
607.36	861.32
607.51	648.33
607.67	404.91
607.82	283.20
607.98	187.24
608.13	163.84
608.29	60.85
608.44	16.38
608.60	86.60
608.75	105.32
608.91	138.09
609.06	571.09
609.22	1291.98
609.37	1753.06
609.53	1636.03
609.68	1041.54
609.84	671.73
609.99	472.79
610.15	276.18
610.30	121.71
610.46	58.51
610.61	70.22
610.76	84.26
610.92	79.58
611.07	81.92
611.23	84.26
611.38	88.94
611.54	100.64
611.69	53.83
611.84	42.13
612.00	88.94
612.15	0.00
612.31	77.24
612.46	46.81
612.62	77.24
612.77	67.88
612.92	23.41
613.08	91.28
613.23	49.15
613.39	154.48
613.54	114.69
613.69	531.30
613.85	1551.78
614.00	2506.71
614.15	2832.05
614.31	2033.93
614.46	1331.76
614.62	910.47
614.77	589.82
614.92	262.14
615.08	100.64
615.23	23.41
615.38	140.43
615.54	105.32
615.69	163.84
615.84	353.42
616.00	566.41
616.15	751.31
616.30	617.90
616.46	428.32
616.61	292.57
616.76	229.37
616.92	102.98
617.07	32.77
617.22	63.19
617.37	49.15
617.53	0.00
617.68	60.85
617.83	16.38
617.99	105.32
618.14	58.51
618.29	131.07
618.45	91.28
618.60	46.81
618.75	81.92
618.90	60.85
619.06	86.60
619.21	0.00
619.36	30.43
619.51	77.24
619.67	35.11
619.82	79.58
619.97	49.15
620.12	0.00
620.28	0.00
620.43	11.70
620.58	0.00
620.73	32.77
620.89	16.38
621.04	0.00
621.19	238.73
621.34	379.17
621.49	414.27
621.65	367.46
621.80	297.25
621.95	203.63
622.10	121.71
622.25	88.94
622.41	72.56
622.56	95.96
622.71	44.47
622.86	44.47
623.01	60.85
623.16	11.70
623.32	30.43
623.47	37.45
623.62	60.85
623.77	21.06
623.92	2.34
624.07	95.96
624.23	51.49
624.38	84.26
624.53	53.83
624.68	53.83
624.83	18.72
624.98	23.41
625.13	86.60
625.29	63.19
625.44	51.49
625.59	9.36
625.74	25.75
625.89	77.24
626.04	308.95
626.19	667.05
626.34	1277.93
626.49	1490.92
626.65	1139.84
626.80	753.65
626.95	531.30
627.10	362.78
627.25	175.54
627.40	74.90
627.55	74.90
627.70	32.77
627.85	74.90
628.00	0.00
628.15	0.00
628.30	53.83
628.45	74.90
628.60	72.56
628.76	16.38
628.91	51.49
629.06	49.15
629.21	0.00
629.36	56.17
629.51	23.41
629.66	25.75
629.81	0.00
629.96	138.09
630.11	215.33
630.26	390.87
630.41	313.63
630.56	280.86
630.71	189.58
630.86	173.20
631.01	70.22
631.16	84.26
631.31	88.94
631.46	70.22
631.61	65.54
631.76	21.06
631.91	56.17
632.06	44.47
632.21	37.45
632.36	53.83
632.51	53.83
632.66	56.17
632.81	128.73
632.96	477.47
633.10	725.57
633.25	1095.37
633.40	800.46
633.55	613.22
633.70	376.83
633.85	294.91
634.00	154.48
634.15	70.22
634.30	44.47
634.45	74.90
634.60	70.22
634.75	37.45
634.90	23.41
635.05	42.13
635.19	30.43
635.34	42.13
635.49	25.75
635.64	0.00
635.79	23.41
635.94	79.58
636.09	110.01
636.24	9.36
636.39	18.72
636.53	88.94
636.68	28.09
636.83	37.45
636.98	67.88
637.13	65.54
637.28	0.00
637.43	121.71
637.57	63.19
637.72	386.19
637.87	994.73
638.02	1626.67
638.17	1717.95
638.32	1430.07
638.46	952.60
638.61	667.05
638.76	416.62
638.91	187.24
639.06	100.64
639.20	65.54
639.35	173.20
639.50	142.77
639.65	512.58
639.80	1647.74
639.94	2511.39
640.09	3073.12
640.24	2375.64
640.39	1582.20
640.54	1057.92
640.68	620.24
640.83	290.23
640.98	147.45
641.13	102.98
641.27	32.77
641.42	0.00
641.57	53.83
641.72	98.30
641.86	65.54
642.01	67.88
642.16	74.90
642.31	44.47
642.45	74.90
642.60	60.85
642.75	21.06
642.90	28.09
643.04	35.11
643.19	60.85
643.34	42.13
643.48	60.85
643.63	65.54
643.78	86.60
643.93	11.70
644.07	65.54
644.22	84.26
644.37	0.00
644.51	39.79
644.66	9.36
644.81	56.17
644.95	58.51
645.10	0.00
645.25	0.00
645.39	28.09
645.54	9.36
645.69	42.13
645.83	14.04
645.98	81.92
646.13	65.54
646.27	44.47
646.42	42.13
646.57	9.36
646.71	58.51
646.86	0.00
647.00	65.54
647.15	39.79
647.30	79.58
647.44	21.06
647.59	0.00
647.74	49.15
647.88	0.00
648.03	14.04
648.17	35.11
648.32	0.00
648.47	30.43
648.61	46.81
648.76	51.49
648.90	28.09
649.05	49.15
649.20	0.00
649.34	37.45
649.49	44.47
649.63	81.92
649.78	11.70
649.92	39.79
650.07	220.01
650.21	751.31
650.36	1184.31
650.51	1542.41
650.65	1280.27
650.80	901.11
650.94	575.77
651.09	376.83
651.23	212.99
651.38	79.58
651.52	110.01
651.67	81.92
651.81	37.45
651.96	77.24
652.10	60.85
652.25	0.00
652.39	23.41
652.54	46.81
652.68	63.19
652.83	271.50
652.97	376.83
653.12	617.90
653.26	475.13
653.41	433.00
653.55	220.01
653.70	149.79
653.84	126.39
653.99	60.85
654.13	35.11
654.27	79.58
654.42	4.68
654.56	46.81
654.71	110.01
654.85	32.77
655.00	21.06
655.14	0.00
655.29	77.24
655.43	39.79
655.57	23.41
655.72	58.51
655.86	25.75
656.01	70.22
656.15	98.30
656.30	0.00
656.44	7.02
656.58	0.00
656.73	88.94
656.87	7.02
657.01	51.49
657.16	18.72
657.30	0.00
657.45	7.02
657.59	37.45
657.73	9.36
657.88	72.56
658.02	124.05
658.16	56.17
658.31	0.00
658.45	18.72
658.60	30.43
658.74	30.43
658.88	0.00
659.03	58.51
659.17	42.13
659.31	156.82
659.46	311.29
659.60	543.00
659.74	777.06
659.89	730.25
660.03	535.98
660.17	332.36
660.32	152.13
660.46	159.16
660.60	60.85
660.74	46.81
660.89	51.49
661.03	58.51
661.17	49.15
661.32	28.09
661.46	25.75
661.60	0.00
661.74	35.11
661.89	23.41
662.03	70.22
662.17	11.70
662.31	30.43
662.46	0.00
662.60	0.00
662.74	32.77
662.88	77.24
663.03	4.68
663.17	133.41
663.31	67.88
663.45	44.47
663.60	7.02
663.74	58.51
663.88	32.77
664.02	110.01
664.17	37.45
664.31	32.77
664.45	32.77
664.59	23.41
664.73	9.36
664.88	39.79
665.02	0.00
665.16	0.00
665.30	100.64
665.44	74.90
665.59	117.03
665.73	107.66
665.87	112.35
666.01	7.02
666.15	0.00
666.29	23.41
666.44	100.64
666.58	39.79
666.72	110.01
666.86	67.88
667.00	0.00
667.14	51.49
667.28	262.14
667.43	603.86
667.57	994.73
667.71	1355.17
667.85	1083.67
667.99	915.15
668.13	543.00
668.27	259.80
668.41	110.01
668.56	114.69
668.70	46.81
668.84	77.24
668.98	23.41
669.12	0.00
669.26	42.13
669.40	28.09
669.54	18.72
669.68	18.72
669.82	25.75
669.96	4.68
670.10	79.58
670.25	9.36
670.39	14.04
670.53	79.58
670.67	79.58
670.81	70.22
670.95	60.85
671.09	65.54
671.23	224.69
671.37	458.74
671.51	716.20
671.65	868.34
671.79	674.07
671.93	454.06
672.07	330.02
672.21	152.13
672.35	145.11
672.49	42.13
672.63	105.32
672.77	0.00
672.91	32.77
673.05	28.09
673.19	79.58
673.33	67.88
673.47	9.36
673.61	58.51
673.75	72.56
673.89	25.75
674.03	28.09
674.17	49.15
674.31	46.81
674.45	65.54
674.59	51.49
674.73	25.75
674.87	63.19
675.01	133.41
675.15	0.00
675.29	128.73
675.43	39.79
675.56	0.00
675.70	37.45
675.84	0.00
675.98	0.00
676.12	35.11
676.26	9.36
676.40	25.75
676.54	63.19
676.68	70.22
676.82	39.79
676.96	51.49
677.10	30.43
677.23	16.38
677.37	0.00
677.51	65.54
677.65	100.64
677.79	51.49
677.93	65.54
678.07	23.41
678.21	72.56
678.34	25.75
678.48	98.30
678.62	0.00
678.76	16.38
678.90	37.45
679.04	46.81
679.18	37.45
679.31	53.83
679.45	46.81
679.59	11.70
679.73	0.00
679.87	60.85
680.00	63.19
680.14	0.00
680.28	30.43
680.42	88.94
680.56	9.36
680.70	0.00
680.83	86.60
680.97	95.96
681.11	84.26
681.25	23.41
681.39	21.06
681.52	0.00
681.66	56.17
681.80	44.47
681.94	0.00
682.07	0.00
682.21	4.68
682.35	44.47
682.49	51.49
682.62	114.69
682.76	9.36
682.90	37.45
683.04	23.41
683.17	46.81
683.31	0.00
683.45	4.68
683.59	44.47
683.72	60.85
683.86	84.26
684.00	84.26
684.13	88.94
684.27	37.45
684.41	25.75
684.55	4.68
684.68	0.00
684.82	117.03
684.96	28.09
685.09	14.04
685.23	37.45
685.37	86.60
685.50	53.83
685.64	49.15
685.78	28.09
685.91	0.00
686.05	81.92
686.19	114.69
686.32	44.47
686.46	0.00
686.60	35.11
686.73	84.26
686.87	72.56
687.01	70.22
687.14	51.49
687.28	18.72
687.42	86.60
687.55	0.00
687.69	56.17
687.82	0.00
687.96	4.68
688.10	72.56
688.23	16.38
688.37	0.00
688.50	53.83
688.64	84.26
688.78	0.00
688.91	0.00
689.05	42.13
689.18	79.58
689.32	11.70
689.46	0.00
689.59	110.01
689.73	16.38
689.86	0.00
690.00	65.54
690.13	14.04
690.27	16.38
690.41	0.00
690.54	0.00
690.68	100.64
690.81	58.51
690.95	88.94
691.08	7.02
691.22	9.36
691.35	37.45
691.49	9.36
691.62	70.22
691.76	51.49
691.89	0.00
692.03	23.41
692.16	0.00
692.30	147.45
692.43	30.43
692.57	210.65
692.70	482.15
692.84	564.07
692.97	519.60
693.11	365.12
693.24	245.76
693.38	191.92
693.51	121.71
693.65	119.37
693.78	58.51
693.92	42.13
694.05	23.41
694.19	60.85
694.32	0.00
694.45	0.00
694.59	0.00
694.72	4.68
694.86	65.54
694.99	44.47
695.13	4.68
695.26	11.70
695.39	0.00
695.53	28.09
695.66	0.00
695.80	56.17
695.93	72.56
696.07	79.58
696.20	53.83
696.33	65.54
696.47	110.01
696.60	98.30
696.73	25.75
696.87	32.77
697.00	18.72
697.14	28.09
697.27	28.09
697.40	107.66
697.54	98.30
697.67	56.17
697.80	11.70
697.94	9.36
698.07	0.00
698.21	0.00
698.34	35.11
698.47	0.00
698.61	0.00
698.74	11.70
698.87	86.60
699.01	0.00
699.14	0.00
699.27	86.60
699.40	81.92
699.54	2.34
699.67	65.54
699.80	18.72
699.94	114.69
700.07	112.35
700.20	11.70
700.34	28.09
700.47	0.00
700.60	56.17
700.73	35.11
700.87	7.02
701.00	49.15
701.13	67.88
701.26	21.06
701.40	49.15
701.53	35.11
701.66	25.75
701.79	14.04
701.93	0.00
702.06	88.94
702.19	4.68
702.32	63.19
702.46	121.71
702.59	67.88
702.72	110.01
702.85	376.83
702.99	683.44
703.12	952.60
703.25	1088.35
703.38	931.53
703.51	767.70
703.65	603.86
703.78	425.98
703.91	318.31
704.04	203.63
704.17	140.43
704.31	53.83
704.44	84.26
704.57	9.36
704.70	32.77
704.83	9.36
704.96	18.72
705.10	0.00
705.23	49.15
>>>>>End Processed Spectral Data<<<<<
