SpectraSuite Data File
++++++++++++++++++++++++++++++++++++
Date: Fri Oct 04 12:13:26 GMT-05:00 2013
User: price-jones
Dark Spectrum Present: No
Reference Spectrum Present: No
Number of Sampled Component Spectra: 1
Spectrometers: USB2+H05261
Integration Time (usec): 10000 (USB2+H05261)
Spectra Averaged: 1 (USB2+H05261)
Boxcar Smoothing: 0 (USB2+H05261)
Correct for Electrical Dark: No (USB2+H05261)
Strobe/Lamp Enabled: No (USB2+H05261)
Correct for Detector Non-linearity: No (USB2+H05261)
Correct for Stray Light: No (USB2+H05261)
Number of Pixels in Processed Spectrum: 2048
>>>>>Begin Processed Spectral Data<<<<<
365.73	0.00
365.92	0.00
366.12	0.00
366.32	0.00
366.52	0.00
366.72	0.00
366.91	0.00
367.11	0.00
367.31	0.00
367.51	0.00
367.70	0.00
367.90	0.00
368.10	0.00
368.30	0.00
368.49	0.00
368.69	0.00
368.89	0.00
369.09	0.00
369.28	0.00
369.48	0.00
369.68	0.00
369.87	0.00
370.07	0.00
370.27	0.00
370.47	0.00
370.66	0.00
370.86	0.00
371.06	28.09
371.25	0.00
371.45	0.00
371.65	0.00
371.84	0.00
372.04	0.00
372.24	0.00
372.44	0.00
372.63	11.70
372.83	2.34
373.03	0.00
373.22	4.68
373.42	4.68
373.62	0.00
373.81	0.00
374.01	23.41
374.21	53.83
374.40	81.92
374.60	25.75
374.79	0.00
374.99	72.56
375.19	9.36
375.38	0.00
375.58	0.00
375.78	42.13
375.97	81.92
376.17	0.00
376.37	23.41
376.56	56.17
376.76	11.70
376.95	16.38
377.15	11.70
377.35	28.09
377.54	58.51
377.74	7.02
377.93	39.79
378.13	0.00
378.33	37.45
378.52	18.72
378.72	14.04
378.91	16.38
379.11	32.77
379.31	0.00
379.50	0.00
379.70	0.00
379.89	2.34
380.09	0.00
380.28	11.70
380.48	53.83
380.68	0.00
380.87	18.72
381.07	44.47
381.26	0.00
381.46	84.26
381.65	0.00
381.85	18.72
382.04	7.02
382.24	14.04
382.43	0.00
382.63	0.00
382.83	7.02
383.02	0.00
383.22	63.19
383.41	0.00
383.61	0.00
383.80	0.00
384.00	70.22
384.19	25.75
384.39	49.15
384.58	0.00
384.78	0.00
384.97	0.00
385.17	18.72
385.36	11.70
385.56	4.68
385.75	4.68
385.95	30.43
386.14	2.34
386.34	100.64
386.53	0.00
386.72	11.70
386.92	2.34
387.11	4.68
387.31	79.58
387.50	0.00
387.70	0.00
387.89	0.00
388.09	16.38
388.28	30.43
388.48	21.06
388.67	0.00
388.86	0.00
389.06	32.77
389.25	49.15
389.45	56.17
389.64	42.13
389.84	14.04
390.03	0.00
390.22	37.45
390.42	72.56
390.61	37.45
390.81	4.68
391.00	49.15
391.19	14.04
391.39	117.03
391.58	0.00
391.78	30.43
391.97	9.36
392.16	42.13
392.36	30.43
392.55	65.54
392.75	49.15
392.94	37.45
393.13	0.00
393.33	0.00
393.52	53.83
393.71	2.34
393.91	30.43
394.10	72.56
394.29	0.00
394.49	11.70
394.68	4.68
394.88	9.36
395.07	28.09
395.26	49.15
395.46	0.00
395.65	0.00
395.84	0.00
396.04	21.06
396.23	0.00
396.42	32.77
396.62	0.00
396.81	21.06
397.00	0.00
397.19	2.34
397.39	46.81
397.58	28.09
397.77	0.00
397.97	0.00
398.16	30.43
398.35	0.00
398.55	23.41
398.74	0.00
398.93	39.79
399.12	0.00
399.32	9.36
399.51	53.83
399.70	56.17
399.90	25.75
400.09	0.00
400.28	0.00
400.47	0.00
400.67	11.70
400.86	30.43
401.05	46.81
401.24	0.00
401.44	81.92
401.63	44.47
401.82	37.45
402.01	11.70
402.21	0.00
402.40	79.58
402.59	88.94
402.78	0.00
402.97	30.43
403.17	0.00
403.36	74.90
403.55	9.36
403.74	77.24
403.93	51.49
404.13	0.00
404.32	0.00
404.51	14.04
404.70	30.43
404.89	58.51
405.09	9.36
405.28	0.00
405.47	0.00
405.66	0.00
405.85	18.72
406.05	30.43
406.24	0.00
406.43	2.34
406.62	51.49
406.81	81.92
407.00	14.04
407.20	98.30
407.39	0.00
407.58	0.00
407.77	14.04
407.96	72.56
408.15	28.09
408.34	25.75
408.54	53.83
408.73	37.45
408.92	51.49
409.11	14.04
409.30	32.77
409.49	51.49
409.68	42.13
409.87	4.68
410.07	46.81
410.26	0.00
410.45	0.00
410.64	39.79
410.83	2.34
411.02	0.00
411.21	0.00
411.40	18.72
411.59	72.56
411.78	44.47
411.98	0.00
412.17	124.05
412.36	67.88
412.55	23.41
412.74	0.00
412.93	0.00
413.12	102.98
413.31	4.68
413.50	88.94
413.69	32.77
413.88	37.45
414.07	4.68
414.26	0.00
414.45	14.04
414.64	84.26
414.83	35.11
415.02	25.75
415.22	56.17
415.41	11.70
415.60	72.56
415.79	14.04
415.98	86.60
416.17	0.00
416.36	42.13
416.55	65.54
416.74	7.02
416.93	4.68
417.12	2.34
417.31	0.00
417.50	53.83
417.69	2.34
417.88	30.43
418.07	25.75
418.26	79.58
418.45	32.77
418.64	4.68
418.83	56.17
419.02	42.13
419.21	16.38
419.39	65.54
419.58	46.81
419.77	67.88
419.96	0.00
420.15	18.72
420.34	30.43
420.53	35.11
420.72	44.47
420.91	107.66
421.10	9.36
421.29	0.00
421.48	0.00
421.67	14.04
421.86	11.70
422.05	72.56
422.24	105.32
422.43	37.45
422.61	18.72
422.80	37.45
422.99	7.02
423.18	28.09
423.37	39.79
423.56	72.56
423.75	0.00
423.94	0.00
424.13	7.02
424.32	21.06
424.50	70.22
424.69	2.34
424.88	53.83
425.07	37.45
425.26	72.56
425.45	0.00
425.64	18.72
425.83	88.94
426.01	9.36
426.20	0.00
426.39	42.13
426.58	49.15
426.77	72.56
426.96	81.92
427.15	93.62
427.33	65.54
427.52	25.75
427.71	0.00
427.90	28.09
428.09	39.79
428.28	0.00
428.46	74.90
428.65	84.26
428.84	53.83
429.03	44.47
429.22	0.00
429.40	0.00
429.59	7.02
429.78	81.92
429.97	0.00
430.16	0.00
430.34	56.17
430.53	0.00
430.72	88.94
430.91	25.75
431.10	37.45
431.28	44.47
431.47	67.88
431.66	28.09
431.85	32.77
432.03	9.36
432.22	0.00
432.41	46.81
432.60	42.13
432.79	0.00
432.97	63.19
433.16	49.15
433.35	21.06
433.54	42.13
433.72	0.00
433.91	23.41
434.10	21.06
434.28	14.04
434.47	0.00
434.66	51.49
434.85	37.45
435.03	79.58
435.22	28.09
435.41	0.00
435.59	0.00
435.78	21.06
435.97	65.54
436.16	37.45
436.34	25.75
436.53	39.79
436.72	25.75
436.90	35.11
437.09	84.26
437.28	32.77
437.46	51.49
437.65	67.88
437.84	79.58
438.02	37.45
438.21	49.15
438.40	37.45
438.58	88.94
438.77	67.88
438.96	46.81
439.14	9.36
439.33	30.43
439.52	39.79
439.70	0.00
439.89	56.17
440.08	9.36
440.26	51.49
440.45	53.83
440.63	14.04
440.82	53.83
441.01	44.47
441.19	0.00
441.38	16.38
441.57	28.09
441.75	21.06
441.94	23.41
442.12	23.41
442.31	7.02
442.50	35.11
442.68	46.81
442.87	32.77
443.05	39.79
443.24	65.54
443.43	39.79
443.61	42.13
443.80	0.00
443.98	65.54
444.17	58.51
444.35	51.49
444.54	81.92
444.73	0.00
444.91	49.15
445.10	79.58
445.28	2.34
445.47	42.13
445.65	9.36
445.84	0.00
446.02	21.06
446.21	65.54
446.39	56.17
446.58	14.04
446.77	9.36
446.95	32.77
447.14	9.36
447.32	88.94
447.51	7.02
447.69	0.00
447.88	0.00
448.06	9.36
448.25	11.70
448.43	0.00
448.62	30.43
448.80	65.54
448.99	60.85
449.17	11.70
449.36	0.00
449.54	0.00
449.73	58.51
449.91	39.79
450.10	14.04
450.28	0.00
450.46	37.45
450.65	98.30
450.83	32.77
451.02	25.75
451.20	0.00
451.39	0.00
451.57	2.34
451.76	77.24
451.94	72.56
452.13	0.00
452.31	0.00
452.49	23.41
452.68	0.00
452.86	67.88
453.05	35.11
453.23	49.15
453.42	65.54
453.60	11.70
453.78	35.11
453.97	18.72
454.15	9.36
454.34	7.02
454.52	98.30
454.70	37.45
454.89	37.45
455.07	93.62
455.26	56.17
455.44	4.68
455.62	35.11
455.81	25.75
455.99	0.00
456.17	18.72
456.36	60.85
456.54	16.38
456.73	79.58
456.91	0.00
457.09	44.47
457.28	11.70
457.46	37.45
457.64	65.54
457.83	70.22
458.01	49.15
458.19	0.00
458.38	42.13
458.56	0.00
458.74	28.09
458.93	0.00
459.11	28.09
459.29	67.88
459.48	30.43
459.66	32.77
459.84	65.54
460.03	4.68
460.21	49.15
460.39	119.37
460.57	58.51
460.76	51.49
460.94	0.00
461.12	0.00
461.31	32.77
461.49	0.00
461.67	18.72
461.85	0.00
462.04	110.01
462.22	63.19
462.40	9.36
462.59	21.06
462.77	7.02
462.95	84.26
463.13	37.45
463.32	60.85
463.50	102.98
463.68	0.00
463.86	124.05
464.05	11.70
464.23	63.19
464.41	67.88
464.59	0.00
464.78	0.00
464.96	63.19
465.14	4.68
465.32	23.41
465.50	25.75
465.69	25.75
465.87	18.72
466.05	56.17
466.23	63.19
466.41	28.09
466.60	37.45
466.78	9.36
466.96	91.28
467.14	37.45
467.32	51.49
467.51	2.34
467.69	0.00
467.87	37.45
468.05	46.81
468.23	100.64
468.41	35.11
468.60	0.00
468.78	28.09
468.96	70.22
469.14	18.72
469.32	11.70
469.50	67.88
469.69	14.04
469.87	23.41
470.05	0.00
470.23	0.00
470.41	23.41
470.59	37.45
470.77	7.02
470.95	39.79
471.14	95.96
471.32	56.17
471.50	39.79
471.68	58.51
471.86	21.06
472.04	42.13
472.22	23.41
472.40	74.90
472.58	49.15
472.77	0.00
472.95	51.49
473.13	49.15
473.31	7.02
473.49	79.58
473.67	114.69
473.85	21.06
474.03	11.70
474.21	135.75
474.39	35.11
474.57	107.66
474.75	25.75
474.93	18.72
475.12	0.00
475.30	79.58
475.48	79.58
475.66	42.13
475.84	30.43
476.02	0.00
476.20	7.02
476.38	58.51
476.56	39.79
476.74	88.94
476.92	51.49
477.10	0.00
477.28	56.17
477.46	0.00
477.64	60.85
477.82	0.00
478.00	28.09
478.18	0.00
478.36	7.02
478.54	7.02
478.72	63.19
478.90	16.38
479.08	0.00
479.26	37.45
479.44	35.11
479.62	23.41
479.80	53.83
479.98	39.79
480.16	30.43
480.34	37.45
480.52	58.51
480.70	46.81
480.88	21.06
481.06	9.36
481.24	2.34
481.41	51.49
481.59	0.00
481.77	0.00
481.95	37.45
482.13	0.00
482.31	30.43
482.49	46.81
482.67	16.38
482.85	16.38
483.03	25.75
483.21	16.38
483.39	58.51
483.57	42.13
483.74	91.28
483.92	0.00
484.10	46.81
484.28	95.96
484.46	46.81
484.64	37.45
484.82	7.02
485.00	65.54
485.18	110.01
485.35	21.06
485.53	30.43
485.71	65.54
485.89	86.60
486.07	30.43
486.25	100.64
486.43	14.04
486.61	2.34
486.78	16.38
486.96	37.45
487.14	7.02
487.32	0.00
487.50	0.00
487.68	0.00
487.85	0.00
488.03	28.09
488.21	53.83
488.39	0.00
488.57	53.83
488.75	84.26
488.92	84.26
489.10	28.09
489.28	14.04
489.46	77.24
489.64	79.58
489.81	25.75
489.99	18.72
490.17	74.90
490.35	0.00
490.53	32.77
490.70	72.56
490.88	4.68
491.06	70.22
491.24	35.11
491.41	16.38
491.59	2.34
491.77	30.43
491.95	102.98
492.13	11.70
492.30	0.00
492.48	39.79
492.66	0.00
492.84	25.75
493.01	0.00
493.19	23.41
493.37	39.79
493.54	93.62
493.72	23.41
493.90	42.13
494.08	67.88
494.25	53.83
494.43	30.43
494.61	60.85
494.79	46.81
494.96	35.11
495.14	30.43
495.32	0.00
495.49	0.00
495.67	65.54
495.85	2.34
496.02	74.90
496.20	23.41
496.38	91.28
496.55	0.00
496.73	0.00
496.91	0.00
497.09	42.13
497.26	2.34
497.44	14.04
497.62	63.19
497.79	0.00
497.97	79.58
498.14	60.85
498.32	60.85
498.50	95.96
498.67	42.13
498.85	74.90
499.03	51.49
499.20	0.00
499.38	88.94
499.56	37.45
499.73	112.35
499.91	63.19
500.08	16.38
500.26	0.00
500.44	0.00
500.61	16.38
500.79	63.19
500.97	35.11
501.14	51.49
501.32	18.72
501.49	7.02
501.67	79.58
501.84	49.15
502.02	32.77
502.20	0.00
502.37	79.58
502.55	2.34
502.72	14.04
502.90	0.00
503.07	49.15
503.25	88.94
503.43	102.98
503.60	42.13
503.78	56.17
503.95	35.11
504.13	0.00
504.30	0.00
504.48	0.00
504.65	56.17
504.83	16.38
505.01	65.54
505.18	4.68
505.36	0.00
505.53	37.45
505.71	65.54
505.88	44.47
506.06	14.04
506.23	79.58
506.41	28.09
506.58	58.51
506.76	0.00
506.93	84.26
507.11	0.00
507.28	58.51
507.46	98.30
507.63	84.26
507.81	63.19
507.98	0.00
508.16	30.43
508.33	0.00
508.50	39.79
508.68	0.00
508.85	67.88
509.03	0.00
509.20	81.92
509.38	46.81
509.55	16.38
509.73	16.38
509.90	79.58
510.08	74.90
510.25	32.77
510.42	0.00
510.60	28.09
510.77	117.03
510.95	63.19
511.12	0.00
511.30	0.00
511.47	28.09
511.64	88.94
511.82	4.68
511.99	72.56
512.17	28.09
512.34	32.77
512.51	37.45
512.69	32.77
512.86	91.28
513.04	32.77
513.21	56.17
513.38	46.81
513.56	58.51
513.73	81.92
513.90	35.11
514.08	37.45
514.25	0.00
514.43	46.81
514.60	51.49
514.77	37.45
514.95	95.96
515.12	30.43
515.29	77.24
515.47	0.00
515.64	42.13
515.81	70.22
515.99	95.96
516.16	46.81
516.33	98.30
516.51	44.47
516.68	37.45
516.85	51.49
517.03	0.00
517.20	0.00
517.37	70.22
517.54	21.06
517.72	56.17
517.89	131.07
518.06	79.58
518.24	7.02
518.41	84.26
518.58	56.17
518.75	30.43
518.93	105.32
519.10	51.49
519.27	77.24
519.45	0.00
519.62	7.02
519.79	28.09
519.96	93.62
520.14	63.19
520.31	0.00
520.48	37.45
520.65	32.77
520.83	0.00
521.00	32.77
521.17	70.22
521.34	110.01
521.52	124.05
521.69	2.34
521.86	46.81
522.03	67.88
522.20	9.36
522.38	18.72
522.55	0.00
522.72	65.54
522.89	39.79
523.07	39.79
523.24	23.41
523.41	32.77
523.58	4.68
523.75	0.00
523.92	44.47
524.10	37.45
524.27	21.06
524.44	14.04
524.61	30.43
524.78	56.17
524.96	35.11
525.13	46.81
525.30	102.98
525.47	0.00
525.64	18.72
525.81	2.34
525.98	35.11
526.16	56.17
526.33	46.81
526.50	0.00
526.67	32.77
526.84	67.88
527.01	14.04
527.18	0.00
527.36	23.41
527.53	39.79
527.70	28.09
527.87	28.09
528.04	49.15
528.21	51.49
528.38	35.11
528.55	37.45
528.72	51.49
528.89	117.03
529.07	7.02
529.24	23.41
529.41	14.04
529.58	53.83
529.75	60.85
529.92	0.00
530.09	35.11
530.26	23.41
530.43	56.17
530.60	138.09
530.77	0.00
530.94	39.79
531.11	23.41
531.28	2.34
531.46	58.51
531.63	44.47
531.80	0.00
531.97	9.36
532.14	28.09
532.31	53.83
532.48	11.70
532.65	44.47
532.82	72.56
532.99	0.00
533.16	23.41
533.33	77.24
533.50	28.09
533.67	49.15
533.84	0.00
534.01	0.00
534.18	81.92
534.35	39.79
534.52	32.77
534.69	72.56
534.86	16.38
535.03	84.26
535.20	51.49
535.37	25.75
535.54	93.62
535.71	0.00
535.88	28.09
536.05	39.79
536.22	60.85
536.38	28.09
536.55	35.11
536.72	35.11
536.89	49.15
537.06	70.22
537.23	86.60
537.40	72.56
537.57	23.41
537.74	0.00
537.91	42.13
538.08	42.13
538.25	25.75
538.42	0.00
538.59	84.26
538.75	46.81
538.92	88.94
539.09	2.34
539.26	9.36
539.43	79.58
539.60	30.43
539.77	0.00
539.94	84.26
540.11	9.36
540.28	21.06
540.44	65.54
540.61	42.13
540.78	37.45
540.95	42.13
541.12	30.43
541.29	21.06
541.46	0.00
541.62	84.26
541.79	60.85
541.96	39.79
542.13	23.41
542.30	28.09
542.47	30.43
542.63	91.28
542.80	67.88
542.97	0.00
543.14	25.75
543.31	7.02
543.48	56.17
543.64	0.00
543.81	53.83
543.98	95.96
544.15	4.68
544.32	0.00
544.48	0.00
544.65	16.38
544.82	0.00
544.99	0.00
545.16	42.13
545.32	0.00
545.49	30.43
545.66	72.56
545.83	0.00
546.00	30.43
546.16	0.00
546.33	58.51
546.50	67.88
546.67	0.00
546.83	30.43
547.00	39.79
547.17	72.56
547.34	2.34
547.50	2.34
547.67	9.36
547.84	25.75
548.00	79.58
548.17	56.17
548.34	37.45
548.51	91.28
548.67	0.00
548.84	39.79
549.01	25.75
549.18	32.77
549.34	67.88
549.51	60.85
549.68	63.19
549.84	4.68
550.01	49.15
550.18	39.79
550.34	77.24
550.51	32.77
550.68	0.00
550.84	42.13
551.01	74.90
551.18	2.34
551.34	63.19
551.51	25.75
551.68	21.06
551.84	35.11
552.01	0.00
552.18	0.00
552.34	46.81
552.51	4.68
552.68	51.49
552.84	0.00
553.01	9.36
553.18	46.81
553.34	0.00
553.51	14.04
553.67	56.17
553.84	28.09
554.01	35.11
554.17	93.62
554.34	100.64
554.51	0.00
554.67	53.83
554.84	30.43
555.00	53.83
555.17	51.49
555.33	0.00
555.50	84.26
555.67	42.13
555.83	58.51
556.00	0.00
556.16	124.05
556.33	42.13
556.50	39.79
556.66	0.00
556.83	0.00
556.99	67.88
557.16	110.01
557.32	37.45
557.49	91.28
557.65	4.68
557.82	0.00
557.98	23.41
558.15	58.51
558.32	60.85
558.48	30.43
558.65	11.70
558.81	30.43
558.98	58.51
559.14	42.13
559.31	21.06
559.47	0.00
559.64	30.43
559.80	44.47
559.97	42.13
560.13	91.28
560.30	86.60
560.46	46.81
560.63	124.05
560.79	67.88
560.96	4.68
561.12	25.75
561.29	91.28
561.45	0.00
561.61	16.38
561.78	81.92
561.94	0.00
562.11	0.00
562.27	70.22
562.44	18.72
562.60	81.92
562.77	110.01
562.93	44.47
563.10	21.06
563.26	2.34
563.42	105.32
563.59	11.70
563.75	30.43
563.92	170.86
564.08	37.45
564.24	9.36
564.41	44.47
564.57	56.17
564.74	65.54
564.90	0.00
565.07	100.64
565.23	16.38
565.39	60.85
565.56	105.32
565.72	9.36
565.88	63.19
566.05	49.15
566.21	32.77
566.38	79.58
566.54	49.15
566.70	11.70
566.87	2.34
567.03	84.26
567.19	11.70
567.36	63.19
567.52	37.45
567.68	44.47
567.85	32.77
568.01	7.02
568.17	77.24
568.34	39.79
568.50	0.00
568.66	32.77
568.83	23.41
568.99	53.83
569.15	35.11
569.32	79.58
569.48	21.06
569.64	39.79
569.81	56.17
569.97	37.45
570.13	49.15
570.30	60.85
570.46	0.00
570.62	0.00
570.78	0.00
570.95	23.41
571.11	32.77
571.27	23.41
571.43	21.06
571.60	42.13
571.76	77.24
571.92	42.13
572.09	18.72
572.25	18.72
572.41	84.26
572.57	18.72
572.74	88.94
572.90	51.49
573.06	58.51
573.22	0.00
573.38	30.43
573.55	18.72
573.71	119.37
573.87	14.04
574.03	7.02
574.20	16.38
574.36	28.09
574.52	49.15
574.68	0.00
574.84	51.49
575.01	0.00
575.17	60.85
575.33	95.96
575.49	16.38
575.65	32.77
575.82	30.43
575.98	21.06
576.14	65.54
576.30	77.24
576.46	0.00
576.62	72.56
576.79	30.43
576.95	0.00
577.11	42.13
577.27	23.41
577.43	74.90
577.59	11.70
577.75	77.24
577.92	60.85
578.08	49.15
578.24	18.72
578.40	131.07
578.56	0.00
578.72	42.13
578.88	58.51
579.04	77.24
579.21	0.00
579.37	11.70
579.53	0.00
579.69	0.00
579.85	28.09
580.01	91.28
580.17	65.54
580.33	0.00
580.49	42.13
580.65	0.00
580.82	11.70
580.98	74.90
581.14	37.45
581.30	46.81
581.46	51.49
581.62	51.49
581.78	42.13
581.94	0.00
582.10	30.43
582.26	28.09
582.42	32.77
582.58	58.51
582.74	21.06
582.90	70.22
583.06	28.09
583.22	0.00
583.38	30.43
583.54	95.96
583.70	0.00
583.86	9.36
584.02	0.00
584.18	72.56
584.34	16.38
584.50	0.00
584.66	58.51
584.82	30.43
584.98	65.54
585.14	135.75
585.30	133.41
585.46	95.96
585.62	37.45
585.78	53.83
585.94	9.36
586.10	37.45
586.26	2.34
586.42	126.39
586.58	0.00
586.74	0.00
586.90	44.47
587.06	37.45
587.22	93.62
587.38	63.19
587.54	25.75
587.70	39.79
587.86	67.88
588.02	4.68
588.18	60.85
588.34	53.83
588.49	4.68
588.65	0.00
588.81	65.54
588.97	25.75
589.13	23.41
589.29	74.90
589.45	11.70
589.61	91.28
589.77	0.00
589.93	72.56
590.08	51.49
590.24	88.94
590.40	44.47
590.56	91.28
590.72	16.38
590.88	65.54
591.04	77.24
591.20	30.43
591.35	16.38
591.51	0.00
591.67	46.81
591.83	14.04
591.99	23.41
592.15	70.22
592.31	0.00
592.46	30.43
592.62	9.36
592.78	56.17
592.94	60.85
593.10	28.09
593.26	105.32
593.41	46.81
593.57	0.00
593.73	88.94
593.89	84.26
594.05	21.06
594.20	53.83
594.36	18.72
594.52	74.90
594.68	86.60
594.84	32.77
594.99	42.13
595.15	0.00
595.31	9.36
595.47	23.41
595.62	110.01
595.78	105.32
595.94	28.09
596.10	32.77
596.25	32.77
596.41	72.56
596.57	117.03
596.73	4.68
596.88	93.62
597.04	70.22
597.20	35.11
597.36	128.73
597.51	107.66
597.67	37.45
597.83	35.11
597.99	46.81
598.14	81.92
598.30	0.00
598.46	56.17
598.61	0.00
598.77	11.70
598.93	35.11
599.09	18.72
599.24	0.00
599.40	70.22
599.56	7.02
599.71	21.06
599.87	0.00
600.03	84.26
600.18	58.51
600.34	46.81
600.50	56.17
600.65	16.38
600.81	0.00
600.97	23.41
601.12	105.32
601.28	46.81
601.44	42.13
601.59	37.45
601.75	18.72
601.91	16.38
602.06	32.77
602.22	107.66
602.37	16.38
602.53	21.06
602.69	9.36
602.84	53.83
603.00	18.72
603.16	25.75
603.31	81.92
603.47	7.02
603.62	63.19
603.78	95.96
603.94	30.43
604.09	84.26
604.25	67.88
604.40	93.62
604.56	53.83
604.71	21.06
604.87	25.75
605.03	0.00
605.18	49.15
605.34	30.43
605.49	46.81
605.65	0.00
605.80	35.11
605.96	30.43
606.12	32.77
606.27	0.00
606.43	98.30
606.58	28.09
606.74	112.35
606.89	53.83
607.05	88.94
607.20	131.07
607.36	0.00
607.51	0.00
607.67	37.45
607.82	23.41
607.98	53.83
608.13	53.83
608.29	53.83
608.44	39.79
608.60	23.41
608.75	70.22
608.91	58.51
609.06	67.88
609.22	32.77
609.37	28.09
609.53	74.90
609.68	9.36
609.84	37.45
609.99	35.11
610.15	23.41
610.30	37.45
610.46	14.04
610.61	30.43
610.76	0.00
610.92	0.00
611.07	0.00
611.23	91.28
611.38	65.54
611.54	46.81
611.69	21.06
611.84	56.17
612.00	42.13
612.15	107.66
612.31	56.17
612.46	32.77
612.62	72.56
612.77	0.00
612.92	58.51
613.08	0.00
613.23	0.00
613.39	18.72
613.54	98.30
613.69	46.81
613.85	14.04
614.00	23.41
614.15	35.11
614.31	37.45
614.46	51.49
614.62	49.15
614.77	30.43
614.92	81.92
615.08	84.26
615.23	30.43
615.38	14.04
615.54	72.56
615.69	0.00
615.84	7.02
616.00	30.43
616.15	72.56
616.30	0.00
616.46	11.70
616.61	35.11
616.76	67.88
616.92	67.88
617.07	16.38
617.22	37.45
617.37	72.56
617.53	0.00
617.68	18.72
617.83	18.72
617.99	39.79
618.14	49.15
618.29	65.54
618.45	65.54
618.60	74.90
618.75	2.34
618.90	0.00
619.06	67.88
619.21	30.43
619.36	53.83
619.51	14.04
619.67	0.00
619.82	0.00
619.97	119.37
620.12	0.00
620.28	2.34
620.43	44.47
620.58	23.41
620.73	51.49
620.89	63.19
621.04	46.81
621.19	81.92
621.34	0.00
621.49	23.41
621.65	0.00
621.80	58.51
621.95	0.00
622.10	0.00
622.25	28.09
622.41	9.36
622.56	39.79
622.71	9.36
622.86	32.77
623.01	16.38
623.16	21.06
623.32	14.04
623.47	11.70
623.62	0.00
623.77	35.11
623.92	44.47
624.07	4.68
624.23	119.37
624.38	53.83
624.53	4.68
624.68	16.38
624.83	7.02
624.98	2.34
625.13	72.56
625.29	37.45
625.44	102.98
625.59	100.64
625.74	28.09
625.89	25.75
626.04	11.70
626.19	23.41
626.34	0.00
626.49	23.41
626.65	11.70
626.80	91.28
626.95	79.58
627.10	72.56
627.25	67.88
627.40	42.13
627.55	74.90
627.70	0.00
627.85	0.00
628.00	30.43
628.15	21.06
628.30	4.68
628.45	44.47
628.60	58.51
628.76	21.06
628.91	25.75
629.06	14.04
629.21	53.83
629.36	32.77
629.51	70.22
629.66	23.41
629.81	21.06
629.96	0.00
630.11	28.09
630.26	44.47
630.41	42.13
630.56	18.72
630.71	0.00
630.86	39.79
631.01	0.00
631.16	25.75
631.31	100.64
631.46	72.56
631.61	88.94
631.76	56.17
631.91	79.58
632.06	0.00
632.21	16.38
632.36	35.11
632.51	2.34
632.66	58.51
632.81	65.54
632.96	79.58
633.10	72.56
633.25	42.13
633.40	49.15
633.55	0.00
633.70	9.36
633.85	30.43
634.00	56.17
634.15	112.35
634.30	49.15
634.45	11.70
634.60	16.38
634.75	0.00
634.90	4.68
635.05	44.47
635.19	0.00
635.34	30.43
635.49	11.70
635.64	0.00
635.79	18.72
635.94	65.54
636.09	49.15
636.24	67.88
636.39	0.00
636.53	0.00
636.68	2.34
636.83	11.70
636.98	21.06
637.13	28.09
637.28	0.00
637.43	56.17
637.57	23.41
637.72	70.22
637.87	88.94
638.02	32.77
638.17	42.13
638.32	44.47
638.46	11.70
638.61	18.72
638.76	77.24
638.91	35.11
639.06	0.00
639.20	18.72
639.35	2.34
639.50	46.81
639.65	0.00
639.80	91.28
639.94	46.81
640.09	56.17
640.24	102.98
640.39	72.56
640.54	28.09
640.68	72.56
640.83	91.28
640.98	21.06
641.13	56.17
641.27	0.00
641.42	35.11
641.57	4.68
641.72	0.00
641.86	9.36
642.01	7.02
642.16	39.79
642.31	30.43
642.45	77.24
642.60	84.26
642.75	74.90
642.90	28.09
643.04	0.00
643.19	0.00
643.34	51.49
643.48	30.43
643.63	46.81
643.78	0.00
643.93	0.00
644.07	95.96
644.22	53.83
644.37	37.45
644.51	63.19
644.66	30.43
644.81	37.45
644.95	7.02
645.10	46.81
645.25	44.47
645.39	23.41
645.54	28.09
645.69	46.81
645.83	60.85
645.98	0.00
646.13	0.00
646.27	16.38
646.42	32.77
646.57	28.09
646.71	28.09
646.86	86.60
647.00	39.79
647.15	95.96
647.30	28.09
647.44	63.19
647.59	81.92
647.74	0.00
647.88	65.54
648.03	2.34
648.17	67.88
648.32	44.47
648.47	81.92
648.61	53.83
648.76	91.28
648.90	77.24
649.05	32.77
649.20	7.02
649.34	2.34
649.49	44.47
649.63	35.11
649.78	0.00
649.92	35.11
650.07	0.00
650.21	21.06
650.36	28.09
650.51	7.02
650.65	4.68
650.80	35.11
650.94	0.00
651.09	70.22
651.23	23.41
651.38	18.72
651.52	121.71
651.67	58.51
651.81	39.79
651.96	58.51
652.10	0.00
652.25	0.00
652.39	35.11
652.54	95.96
652.68	117.03
652.83	95.96
652.97	102.98
653.12	49.15
653.26	23.41
653.41	28.09
653.55	7.02
653.70	58.51
653.84	77.24
653.99	91.28
654.13	72.56
654.27	37.45
654.42	30.43
654.56	18.72
654.71	0.00
654.85	28.09
655.00	18.72
655.14	37.45
655.29	37.45
655.43	0.00
655.57	0.00
655.72	7.02
655.86	7.02
656.01	9.36
656.15	30.43
656.30	37.45
656.44	18.72
656.58	4.68
656.73	4.68
656.87	16.38
657.01	9.36
657.16	32.77
657.30	23.41
657.45	53.83
657.59	63.19
657.73	32.77
657.88	77.24
658.02	44.47
658.16	25.75
658.31	0.00
658.45	23.41
658.60	39.79
658.74	0.00
658.88	28.09
659.03	0.00
659.17	28.09
659.31	46.81
659.46	51.49
659.60	46.81
659.74	23.41
659.89	51.49
660.03	0.00
660.17	0.00
660.32	0.00
660.46	56.17
660.60	60.85
660.74	18.72
660.89	0.00
661.03	0.00
661.17	56.17
661.32	145.11
661.46	42.13
661.60	0.00
661.74	117.03
661.89	46.81
662.03	14.04
662.17	4.68
662.31	0.00
662.46	0.00
662.60	93.62
662.74	70.22
662.88	35.11
663.03	74.90
663.17	0.00
663.31	14.04
663.45	9.36
663.60	56.17
663.74	0.00
663.88	53.83
664.02	58.51
664.17	44.47
664.31	58.51
664.45	74.90
664.59	86.60
664.73	0.00
664.88	0.00
665.02	0.00
665.16	46.81
665.30	121.71
665.44	56.17
665.59	51.49
665.73	9.36
665.87	30.43
666.01	35.11
666.15	39.79
666.29	25.75
666.44	32.77
666.58	11.70
666.72	72.56
666.86	23.41
667.00	0.00
667.14	56.17
667.28	37.45
667.43	32.77
667.57	49.15
667.71	60.85
667.85	65.54
667.99	49.15
668.13	11.70
668.27	67.88
668.41	0.00
668.56	0.00
668.70	72.56
668.84	0.00
668.98	11.70
669.12	16.38
669.26	46.81
669.40	0.00
669.54	0.00
669.68	65.54
669.82	2.34
669.96	21.06
670.10	0.00
670.25	93.62
670.39	70.22
670.53	7.02
670.67	2.34
670.81	11.70
670.95	70.22
671.09	84.26
671.23	42.13
671.37	0.00
671.51	23.41
671.65	49.15
671.79	30.43
671.93	0.00
672.07	0.00
672.21	65.54
672.35	58.51
672.49	0.00
672.63	39.79
672.77	0.00
672.91	18.72
673.05	7.02
673.19	0.00
673.33	9.36
673.47	37.45
673.61	42.13
673.75	95.96
673.89	0.00
674.03	0.00
674.17	58.51
674.31	23.41
674.45	0.00
674.59	16.38
674.73	7.02
674.87	0.00
675.01	32.77
675.15	37.45
675.29	42.13
675.43	67.88
675.56	39.79
675.70	88.94
675.84	9.36
675.98	0.00
676.12	0.00
676.26	9.36
676.40	7.02
676.54	0.00
676.68	0.00
676.82	46.81
676.96	46.81
677.10	95.96
677.23	7.02
677.37	0.00
677.51	60.85
677.65	0.00
677.79	21.06
677.93	105.32
678.07	88.94
678.21	4.68
678.34	28.09
678.48	49.15
678.62	63.19
678.76	56.17
678.90	42.13
679.04	51.49
679.18	74.90
679.31	63.19
679.45	88.94
679.59	81.92
679.73	0.00
679.87	98.30
680.00	25.75
680.14	42.13
680.28	21.06
680.42	28.09
680.56	0.00
680.70	0.00
680.83	0.00
680.97	63.19
681.11	28.09
681.25	30.43
681.39	0.00
681.52	35.11
681.66	14.04
681.80	32.77
681.94	63.19
682.07	0.00
682.21	0.00
682.35	37.45
682.49	51.49
682.62	0.00
682.76	63.19
682.90	0.00
683.04	49.15
683.17	51.49
683.31	102.98
683.45	0.00
683.59	79.58
683.72	35.11
683.86	0.00
684.00	86.60
684.13	0.00
684.27	51.49
684.41	0.00
684.55	30.43
684.68	53.83
684.82	0.00
684.96	70.22
685.09	0.00
685.23	91.28
685.37	58.51
685.50	42.13
685.64	9.36
685.78	0.00
685.91	0.00
686.05	0.00
686.19	77.24
686.32	63.19
686.46	35.11
686.60	2.34
686.73	74.90
686.87	63.19
687.01	35.11
687.14	0.00
687.28	0.00
687.42	0.00
687.55	11.70
687.69	0.00
687.82	0.00
687.96	0.00
688.10	46.81
688.23	25.75
688.37	16.38
688.50	81.92
688.64	14.04
688.78	79.58
688.91	35.11
689.05	28.09
689.18	25.75
689.32	0.00
689.46	88.94
689.59	0.00
689.73	16.38
689.86	88.94
690.00	0.00
690.13	14.04
690.27	63.19
690.41	0.00
690.54	70.22
690.68	0.00
690.81	0.00
690.95	0.00
691.08	35.11
691.22	0.00
691.35	88.94
691.49	0.00
691.62	51.49
691.76	46.81
691.89	42.13
692.03	63.19
692.16	0.00
692.30	0.00
692.43	16.38
692.57	51.49
692.70	74.90
692.84	0.00
692.97	37.45
693.11	58.51
693.24	0.00
693.38	79.58
693.51	14.04
693.65	49.15
693.78	7.02
693.92	0.00
694.05	46.81
694.19	37.45
694.32	46.81
694.45	30.43
694.59	0.00
694.72	21.06
694.86	0.00
694.99	14.04
695.13	39.79
695.26	23.41
695.39	0.00
695.53	39.79
695.66	30.43
695.80	16.38
695.93	35.11
696.07	4.68
696.20	39.79
696.33	18.72
696.47	39.79
696.60	79.58
696.73	0.00
696.87	100.64
697.00	0.00
697.14	65.54
697.27	35.11
697.40	0.00
697.54	0.00
697.67	30.43
697.80	2.34
697.94	0.00
698.07	7.02
698.21	51.49
698.34	58.51
698.47	0.00
698.61	39.79
698.74	35.11
698.87	46.81
699.01	35.11
699.14	81.92
699.27	18.72
699.40	0.00
699.54	67.88
699.67	28.09
699.80	46.81
699.94	0.00
700.07	51.49
700.20	37.45
700.34	35.11
700.47	28.09
700.60	14.04
700.73	14.04
700.87	42.13
701.00	0.00
701.13	44.47
701.26	32.77
701.40	0.00
701.53	67.88
701.66	72.56
701.79	0.00
701.93	0.00
702.06	14.04
702.19	28.09
702.32	0.00
702.46	0.00
702.59	79.58
702.72	0.00
702.85	60.85
702.99	30.43
703.12	0.00
703.25	124.05
703.38	44.47
703.51	30.43
703.65	42.13
703.78	11.70
703.91	0.00
704.04	21.06
704.17	7.02
704.31	0.00
704.44	53.83
704.57	16.38
704.70	30.43
704.83	28.09
704.96	53.83
705.10	49.15
705.23	14.04
>>>>>End Processed Spectral Data<<<<<
