SpectraSuite Data File
++++++++++++++++++++++++++++++++++++
Date: Fri Oct 04 12:13:44 GMT-05:00 2013
User: price-jones
Dark Spectrum Present: No
Reference Spectrum Present: No
Number of Sampled Component Spectra: 1
Spectrometers: USB2+H05261
Integration Time (usec): 10000 (USB2+H05261)
Spectra Averaged: 1 (USB2+H05261)
Boxcar Smoothing: 0 (USB2+H05261)
Correct for Electrical Dark: No (USB2+H05261)
Strobe/Lamp Enabled: No (USB2+H05261)
Correct for Detector Non-linearity: No (USB2+H05261)
Correct for Stray Light: No (USB2+H05261)
Number of Pixels in Processed Spectrum: 2048
>>>>>Begin Processed Spectral Data<<<<<
365.73	0.00
365.92	0.00
366.12	0.00
366.32	0.00
366.52	0.00
366.72	0.00
366.91	0.00
367.11	0.00
367.31	0.00
367.51	0.00
367.70	0.00
367.90	0.00
368.10	0.00
368.30	0.00
368.49	0.00
368.69	0.00
368.89	0.00
369.09	0.00
369.28	0.00
369.48	0.00
369.68	0.00
369.87	0.00
370.07	0.00
370.27	0.00
370.47	0.00
370.66	0.00
370.86	0.00
371.06	0.00
371.25	0.00
371.45	18.72
371.65	0.00
371.84	60.85
372.04	35.11
372.24	53.83
372.44	14.04
372.63	0.00
372.83	0.00
373.03	0.00
373.22	0.00
373.42	30.43
373.62	58.51
373.81	58.51
374.01	39.79
374.21	4.68
374.40	0.00
374.60	14.04
374.79	21.06
374.99	32.77
375.19	91.28
375.38	35.11
375.58	37.45
375.78	79.58
375.97	98.30
376.17	0.00
376.37	28.09
376.56	30.43
376.76	84.26
376.95	21.06
377.15	49.15
377.35	51.49
377.54	7.02
377.74	46.81
377.93	11.70
378.13	0.00
378.33	60.85
378.52	16.38
378.72	0.00
378.91	25.75
379.11	0.00
379.31	11.70
379.50	56.17
379.70	37.45
379.89	21.06
380.09	30.43
380.28	0.00
380.48	0.00
380.68	84.26
380.87	25.75
381.07	0.00
381.26	46.81
381.46	86.60
381.65	0.00
381.85	2.34
382.04	51.49
382.24	2.34
382.43	0.00
382.63	58.51
382.83	0.00
383.02	0.00
383.22	93.62
383.41	18.72
383.61	37.45
383.80	4.68
384.00	0.00
384.19	65.54
384.39	0.00
384.58	35.11
384.78	0.00
384.97	58.51
385.17	37.45
385.36	0.00
385.56	4.68
385.75	2.34
385.95	0.00
386.14	0.00
386.34	46.81
386.53	77.24
386.72	37.45
386.92	0.00
387.11	0.00
387.31	0.00
387.50	51.49
387.70	23.41
387.89	23.41
388.09	37.45
388.28	0.00
388.48	21.06
388.67	49.15
388.86	84.26
389.06	25.75
389.25	14.04
389.45	119.37
389.64	28.09
389.84	65.54
390.03	81.92
390.22	9.36
390.42	0.00
390.61	0.00
390.81	0.00
391.00	0.00
391.19	42.13
391.39	0.00
391.58	56.17
391.78	9.36
391.97	39.79
392.16	4.68
392.36	37.45
392.55	0.00
392.75	81.92
392.94	74.90
393.13	30.43
393.33	30.43
393.52	39.79
393.71	0.00
393.91	0.00
394.10	18.72
394.29	84.26
394.49	0.00
394.68	79.58
394.88	105.32
395.07	0.00
395.26	9.36
395.46	56.17
395.65	28.09
395.84	51.49
396.04	32.77
396.23	30.43
396.42	2.34
396.62	32.77
396.81	72.56
397.00	0.00
397.19	0.00
397.39	0.00
397.58	25.75
397.77	32.77
397.97	93.62
398.16	0.00
398.35	0.00
398.55	0.00
398.74	44.47
398.93	51.49
399.12	0.00
399.32	0.00
399.51	46.81
399.70	0.00
399.90	30.43
400.09	14.04
400.28	105.32
400.47	51.49
400.67	11.70
400.86	0.00
401.05	18.72
401.24	65.54
401.44	53.83
401.63	25.75
401.82	25.75
402.01	21.06
402.21	0.00
402.40	0.00
402.59	32.77
402.78	9.36
402.97	0.00
403.17	21.06
403.36	44.47
403.55	32.77
403.74	72.56
403.93	0.00
404.13	0.00
404.32	0.00
404.51	35.11
404.70	9.36
404.89	56.17
405.09	11.70
405.28	0.00
405.47	16.38
405.66	0.00
405.85	49.15
406.05	77.24
406.24	98.30
406.43	42.13
406.62	32.77
406.81	32.77
407.00	49.15
407.20	32.77
407.39	0.00
407.58	0.00
407.77	28.09
407.96	2.34
408.15	44.47
408.34	7.02
408.54	58.51
408.73	88.94
408.92	11.70
409.11	58.51
409.30	2.34
409.49	56.17
409.68	0.00
409.87	37.45
410.07	7.02
410.26	0.00
410.45	42.13
410.64	0.00
410.83	32.77
411.02	32.77
411.21	28.09
411.40	42.13
411.59	53.83
411.78	35.11
411.98	65.54
412.17	30.43
412.36	16.38
412.55	70.22
412.74	65.54
412.93	28.09
413.12	14.04
413.31	42.13
413.50	0.00
413.69	32.77
413.88	67.88
414.07	7.02
414.26	18.72
414.45	67.88
414.64	2.34
414.83	56.17
415.02	2.34
415.22	0.00
415.41	81.92
415.60	74.90
415.79	0.00
415.98	0.00
416.17	49.15
416.36	63.19
416.55	79.58
416.74	0.00
416.93	9.36
417.12	18.72
417.31	37.45
417.50	93.62
417.69	0.00
417.88	77.24
418.07	49.15
418.26	102.98
418.45	117.03
418.64	70.22
418.83	56.17
419.02	0.00
419.21	16.38
419.39	42.13
419.58	0.00
419.77	18.72
419.96	39.79
420.15	42.13
420.34	58.51
420.53	58.51
420.72	74.90
420.91	11.70
421.10	49.15
421.29	44.47
421.48	0.00
421.67	23.41
421.86	37.45
422.05	4.68
422.24	56.17
422.43	46.81
422.61	79.58
422.80	16.38
422.99	0.00
423.18	58.51
423.37	16.38
423.56	72.56
423.75	102.98
423.94	0.00
424.13	28.09
424.32	102.98
424.50	58.51
424.69	30.43
424.88	16.38
425.07	42.13
425.26	126.39
425.45	91.28
425.64	67.88
425.83	131.07
426.01	32.77
426.20	0.00
426.39	23.41
426.58	0.00
426.77	77.24
426.96	46.81
427.15	67.88
427.33	0.00
427.52	2.34
427.71	39.79
427.90	121.71
428.09	56.17
428.28	16.38
428.46	58.51
428.65	14.04
428.84	32.77
429.03	7.02
429.22	23.41
429.40	44.47
429.59	11.70
429.78	49.15
429.97	65.54
430.16	49.15
430.34	60.85
430.53	88.94
430.72	16.38
430.91	72.56
431.10	7.02
431.28	25.75
431.47	21.06
431.66	25.75
431.85	28.09
432.03	112.35
432.22	86.60
432.41	79.58
432.60	37.45
432.79	0.00
432.97	21.06
433.16	23.41
433.35	65.54
433.54	44.47
433.72	14.04
433.91	53.83
434.10	107.66
434.28	79.58
434.47	21.06
434.66	0.00
434.85	86.60
435.03	51.49
435.22	0.00
435.41	86.60
435.59	84.26
435.78	0.00
435.97	46.81
436.16	9.36
436.34	32.77
436.53	56.17
436.72	72.56
436.90	56.17
437.09	25.75
437.28	28.09
437.46	56.17
437.65	44.47
437.84	67.88
438.02	53.83
438.21	65.54
438.40	42.13
438.58	39.79
438.77	0.00
438.96	28.09
439.14	23.41
439.33	110.01
439.52	0.00
439.70	39.79
439.89	77.24
440.08	51.49
440.26	46.81
440.45	39.79
440.63	74.90
440.82	112.35
441.01	56.17
441.19	60.85
441.38	32.77
441.57	74.90
441.75	84.26
441.94	72.56
442.12	0.00
442.31	39.79
442.50	35.11
442.68	30.43
442.87	0.00
443.05	86.60
443.24	23.41
443.43	51.49
443.61	58.51
443.80	70.22
443.98	21.06
444.17	28.09
444.35	58.51
444.54	18.72
444.73	21.06
444.91	105.32
445.10	53.83
445.28	102.98
445.47	0.00
445.65	39.79
445.84	30.43
446.02	0.00
446.21	107.66
446.39	11.70
446.58	25.75
446.77	0.00
446.95	67.88
447.14	4.68
447.32	124.05
447.51	77.24
447.69	100.64
447.88	30.43
448.06	51.49
448.25	107.66
448.43	79.58
448.62	32.77
448.80	0.00
448.99	28.09
449.17	84.26
449.36	16.38
449.54	4.68
449.73	44.47
449.91	65.54
450.10	2.34
450.28	7.02
450.46	39.79
450.65	25.75
450.83	77.24
451.02	84.26
451.20	60.85
451.39	84.26
451.57	32.77
451.76	46.81
451.94	72.56
452.13	51.49
452.31	0.00
452.49	16.38
452.68	39.79
452.86	16.38
453.05	79.58
453.23	140.43
453.42	42.13
453.60	67.88
453.78	105.32
453.97	81.92
454.15	60.85
454.34	98.30
454.52	42.13
454.70	25.75
454.89	145.11
455.07	95.96
455.26	79.58
455.44	95.96
455.62	98.30
455.81	77.24
455.99	53.83
456.17	67.88
456.36	4.68
456.54	0.00
456.73	0.00
456.91	0.00
457.09	84.26
457.28	102.98
457.46	91.28
457.64	56.17
457.83	53.83
458.01	37.45
458.19	32.77
458.38	35.11
458.56	49.15
458.74	4.68
458.93	0.00
459.11	53.83
459.29	65.54
459.48	56.17
459.66	81.92
459.84	74.90
460.03	77.24
460.21	49.15
460.39	86.60
460.57	32.77
460.76	23.41
460.94	30.43
461.12	58.51
461.31	114.69
461.49	84.26
461.67	72.56
461.85	11.70
462.04	30.43
462.22	166.18
462.40	91.28
462.59	4.68
462.77	39.79
462.95	46.81
463.13	65.54
463.32	152.13
463.50	81.92
463.68	84.26
463.86	49.15
464.05	70.22
464.23	0.00
464.41	46.81
464.59	88.94
464.78	4.68
464.96	60.85
465.14	91.28
465.32	51.49
465.50	72.56
465.69	95.96
465.87	49.15
466.05	35.11
466.23	46.81
466.41	35.11
466.60	65.54
466.78	67.88
466.96	42.13
467.14	46.81
467.32	98.30
467.51	79.58
467.69	67.88
467.87	70.22
468.05	21.06
468.23	16.38
468.41	18.72
468.60	32.77
468.78	81.92
468.96	79.58
469.14	32.77
469.32	88.94
469.50	107.66
469.69	53.83
469.87	0.00
470.05	0.00
470.23	4.68
470.41	70.22
470.59	74.90
470.77	95.96
470.95	72.56
471.14	100.64
471.32	37.45
471.50	58.51
471.68	46.81
471.86	39.79
472.04	110.01
472.22	60.85
472.40	37.45
472.58	65.54
472.77	117.03
472.95	53.83
473.13	16.38
473.31	77.24
473.49	81.92
473.67	88.94
473.85	44.47
474.03	98.30
474.21	93.62
474.39	67.88
474.57	86.60
474.75	105.32
474.93	86.60
475.12	107.66
475.30	37.45
475.48	21.06
475.66	88.94
475.84	63.19
476.02	51.49
476.20	21.06
476.38	72.56
476.56	86.60
476.74	86.60
476.92	98.30
477.10	4.68
477.28	126.39
477.46	100.64
477.64	60.85
477.82	133.41
478.00	121.71
478.18	112.35
478.36	44.47
478.54	166.18
478.72	88.94
478.90	65.54
479.08	37.45
479.26	37.45
479.44	18.72
479.62	0.00
479.80	95.96
479.98	28.09
480.16	117.03
480.34	105.32
480.52	119.37
480.70	72.56
480.88	63.19
481.06	23.41
481.24	63.19
481.41	25.75
481.59	117.03
481.77	91.28
481.95	91.28
482.13	110.01
482.31	35.11
482.49	70.22
482.67	58.51
482.85	63.19
483.03	25.75
483.21	35.11
483.39	51.49
483.57	37.45
483.74	107.66
483.92	46.81
484.10	23.41
484.28	51.49
484.46	9.36
484.64	119.37
484.82	46.81
485.00	112.35
485.18	91.28
485.35	72.56
485.53	65.54
485.71	102.98
485.89	63.19
486.07	49.15
486.25	16.38
486.43	53.83
486.61	84.26
486.78	65.54
486.96	28.09
487.14	42.13
487.32	72.56
487.50	70.22
487.68	67.88
487.85	14.04
488.03	60.85
488.21	46.81
488.39	51.49
488.57	84.26
488.75	42.13
488.92	95.96
489.10	133.41
489.28	51.49
489.46	39.79
489.64	0.00
489.81	0.00
489.99	65.54
490.17	86.60
490.35	42.13
490.53	23.41
490.70	128.73
490.88	18.72
491.06	131.07
491.24	100.64
491.41	100.64
491.59	53.83
491.77	21.06
491.95	53.83
492.13	86.60
492.30	131.07
492.48	77.24
492.66	42.13
492.84	86.60
493.01	114.69
493.19	46.81
493.37	21.06
493.54	32.77
493.72	86.60
493.90	37.45
494.08	44.47
494.25	100.64
494.43	93.62
494.61	39.79
494.79	35.11
494.96	32.77
495.14	138.09
495.32	74.90
495.49	39.79
495.67	0.00
495.85	44.47
496.02	58.51
496.20	102.98
496.38	74.90
496.55	119.37
496.73	72.56
496.91	149.79
497.09	74.90
497.26	77.24
497.44	117.03
497.62	77.24
497.79	138.09
497.97	131.07
498.14	30.43
498.32	81.92
498.50	114.69
498.67	177.88
498.85	49.15
499.03	81.92
499.20	135.75
499.38	138.09
499.56	56.17
499.73	170.86
499.91	65.54
500.08	49.15
500.26	121.71
500.44	56.17
500.61	159.16
500.79	60.85
500.97	100.64
501.14	142.77
501.32	105.32
501.49	114.69
501.67	84.26
501.84	81.92
502.02	98.30
502.20	74.90
502.37	11.70
502.55	63.19
502.72	124.05
502.90	44.47
503.07	11.70
503.25	16.38
503.43	121.71
503.60	107.66
503.78	65.54
503.95	110.01
504.13	49.15
504.30	107.66
504.48	86.60
504.65	142.77
504.83	114.69
505.01	67.88
505.18	105.32
505.36	16.38
505.53	67.88
505.71	0.00
505.88	84.26
506.06	70.22
506.23	100.64
506.41	44.47
506.58	23.41
506.76	147.45
506.93	81.92
507.11	65.54
507.28	74.90
507.46	91.28
507.63	105.32
507.81	44.47
507.98	67.88
508.16	88.94
508.33	77.24
508.50	79.58
508.68	51.49
508.85	126.39
509.03	42.13
509.20	91.28
509.38	77.24
509.55	79.58
509.73	58.51
509.90	114.69
510.08	156.82
510.25	93.62
510.42	72.56
510.60	46.81
510.77	77.24
510.95	49.15
511.12	95.96
511.30	35.11
511.47	42.13
511.64	140.43
511.82	18.72
511.99	79.58
512.17	74.90
512.34	18.72
512.51	30.43
512.69	65.54
512.86	37.45
513.04	142.77
513.21	21.06
513.38	119.37
513.56	98.30
513.73	37.45
513.90	119.37
514.08	110.01
514.25	65.54
514.43	60.85
514.60	95.96
514.77	51.49
514.95	72.56
515.12	70.22
515.29	81.92
515.47	60.85
515.64	42.13
515.81	121.71
515.99	147.45
516.16	2.34
516.33	86.60
516.51	49.15
516.68	58.51
516.85	119.37
517.03	14.04
517.20	39.79
517.37	95.96
517.54	112.35
517.72	53.83
517.89	44.47
518.06	110.01
518.24	35.11
518.41	121.71
518.58	107.66
518.75	86.60
518.93	58.51
519.10	60.85
519.27	49.15
519.45	11.70
519.62	56.17
519.79	39.79
519.96	86.60
520.14	81.92
520.31	60.85
520.48	91.28
520.65	60.85
520.83	28.09
521.00	63.19
521.17	0.00
521.34	37.45
521.52	105.32
521.69	72.56
521.86	14.04
522.03	105.32
522.20	102.98
522.38	100.64
522.55	65.54
522.72	112.35
522.89	49.15
523.07	42.13
523.24	107.66
523.41	65.54
523.58	28.09
523.75	53.83
523.92	46.81
524.10	81.92
524.27	110.01
524.44	114.69
524.61	79.58
524.78	42.13
524.96	114.69
525.13	46.81
525.30	86.60
525.47	53.83
525.64	53.83
525.81	147.45
525.98	79.58
526.16	128.73
526.33	88.94
526.50	49.15
526.67	74.90
526.84	105.32
527.01	107.66
527.18	72.56
527.36	70.22
527.53	70.22
527.70	88.94
527.87	154.48
528.04	70.22
528.21	133.41
528.38	98.30
528.55	30.43
528.72	114.69
528.89	18.72
529.07	93.62
529.24	72.56
529.41	117.03
529.58	51.49
529.75	168.52
529.92	39.79
530.09	84.26
530.26	121.71
530.43	100.64
530.60	84.26
530.77	93.62
530.94	56.17
531.11	84.26
531.28	100.64
531.46	46.81
531.63	67.88
531.80	72.56
531.97	138.09
532.14	60.85
532.31	166.18
532.48	77.24
532.65	81.92
532.82	35.11
532.99	53.83
533.16	79.58
533.33	91.28
533.50	147.45
533.67	60.85
533.84	91.28
534.01	63.19
534.18	39.79
534.35	93.62
534.52	77.24
534.69	0.00
534.86	28.09
535.03	126.39
535.20	44.47
535.37	60.85
535.54	95.96
535.71	60.85
535.88	25.75
536.05	0.00
536.22	140.43
536.38	67.88
536.55	163.84
536.72	32.77
536.89	95.96
537.06	105.32
537.23	98.30
537.40	79.58
537.57	112.35
537.74	124.05
537.91	114.69
538.08	145.11
538.25	81.92
538.42	60.85
538.59	84.26
538.75	119.37
538.92	100.64
539.09	117.03
539.26	46.81
539.43	98.30
539.60	65.54
539.77	70.22
539.94	58.51
540.11	63.19
540.28	93.62
540.44	51.49
540.61	70.22
540.78	46.81
540.95	65.54
541.12	72.56
541.29	60.85
541.46	93.62
541.62	119.37
541.79	60.85
541.96	56.17
542.13	93.62
542.30	77.24
542.47	56.17
542.63	44.47
542.80	65.54
542.97	98.30
543.14	102.98
543.31	79.58
543.48	84.26
543.64	53.83
543.81	70.22
543.98	98.30
544.15	70.22
544.32	114.69
544.48	84.26
544.65	60.85
544.82	28.09
544.99	35.11
545.16	16.38
545.32	37.45
545.49	77.24
545.66	44.47
545.83	58.51
546.00	107.66
546.16	58.51
546.33	98.30
546.50	23.41
546.67	7.02
546.83	95.96
547.00	88.94
547.17	74.90
547.34	28.09
547.50	84.26
547.67	128.73
547.84	86.60
548.00	131.07
548.17	105.32
548.34	28.09
548.51	93.62
548.67	91.28
548.84	42.13
549.01	46.81
549.18	46.81
549.34	98.30
549.51	112.35
549.68	16.38
549.84	119.37
550.01	79.58
550.18	98.30
550.34	93.62
550.51	93.62
550.68	133.41
550.84	149.79
551.01	63.19
551.18	58.51
551.34	105.32
551.51	107.66
551.68	28.09
551.84	79.58
552.01	102.98
552.18	39.79
552.34	37.45
552.51	102.98
552.68	77.24
552.84	60.85
553.01	121.71
553.18	91.28
553.34	74.90
553.51	67.88
553.67	74.90
553.84	100.64
554.01	84.26
554.17	95.96
554.34	46.81
554.51	30.43
554.67	28.09
554.84	67.88
555.00	51.49
555.17	88.94
555.33	56.17
555.50	67.88
555.67	126.39
555.83	121.71
556.00	91.28
556.16	77.24
556.33	81.92
556.50	95.96
556.66	166.18
556.83	124.05
556.99	77.24
557.16	88.94
557.32	74.90
557.49	0.00
557.65	72.56
557.82	126.39
557.98	56.17
558.15	56.17
558.32	88.94
558.48	88.94
558.65	131.07
558.81	140.43
558.98	119.37
559.14	86.60
559.31	173.20
559.47	65.54
559.64	63.19
559.80	58.51
559.97	84.26
560.13	84.26
560.30	88.94
560.46	100.64
560.63	100.64
560.79	49.15
560.96	67.88
561.12	95.96
561.29	53.83
561.45	98.30
561.61	56.17
561.78	39.79
561.94	100.64
562.11	51.49
562.27	112.35
562.44	102.98
562.60	0.00
562.77	28.09
562.93	152.13
563.10	63.19
563.26	91.28
563.42	72.56
563.59	14.04
563.75	42.13
563.92	42.13
564.08	84.26
564.24	42.13
564.41	86.60
564.57	100.64
564.74	0.00
564.90	117.03
565.07	110.01
565.23	84.26
565.39	86.60
565.56	93.62
565.72	51.49
565.88	65.54
566.05	51.49
566.21	60.85
566.38	119.37
566.54	105.32
566.70	28.09
566.87	88.94
567.03	23.41
567.19	65.54
567.36	63.19
567.52	63.19
567.68	156.82
567.85	86.60
568.01	25.75
568.17	53.83
568.34	161.50
568.50	81.92
568.66	105.32
568.83	121.71
568.99	121.71
569.15	112.35
569.32	88.94
569.48	81.92
569.64	119.37
569.81	30.43
569.97	107.66
570.13	95.96
570.30	56.17
570.46	30.43
570.62	145.11
570.78	63.19
570.95	114.69
571.11	84.26
571.27	65.54
571.43	9.36
571.60	56.17
571.76	77.24
571.92	86.60
572.09	67.88
572.25	39.79
572.41	30.43
572.57	0.00
572.74	112.35
572.90	65.54
573.06	37.45
573.22	117.03
573.38	65.54
573.55	86.60
573.71	91.28
573.87	107.66
574.03	88.94
574.20	114.69
574.36	98.30
574.52	88.94
574.68	0.00
574.84	28.09
575.01	93.62
575.17	67.88
575.33	9.36
575.49	81.92
575.65	86.60
575.82	35.11
575.98	74.90
576.14	79.58
576.30	4.68
576.46	39.79
576.62	119.37
576.79	128.73
576.95	100.64
577.11	114.69
577.27	119.37
577.43	81.92
577.59	72.56
577.75	58.51
577.92	18.72
578.08	145.11
578.24	44.47
578.40	93.62
578.56	95.96
578.72	51.49
578.88	63.19
579.04	102.98
579.21	100.64
579.37	81.92
579.53	88.94
579.69	77.24
579.85	128.73
580.01	16.38
580.17	46.81
580.33	100.64
580.49	32.77
580.65	84.26
580.82	28.09
580.98	95.96
581.14	112.35
581.30	28.09
581.46	25.75
581.62	25.75
581.78	77.24
581.94	65.54
582.10	46.81
582.26	46.81
582.42	119.37
582.58	53.83
582.74	98.30
582.90	42.13
583.06	14.04
583.22	84.26
583.38	77.24
583.54	93.62
583.70	93.62
583.86	56.17
584.02	133.41
584.18	28.09
584.34	0.00
584.50	58.51
584.66	124.05
584.82	84.26
584.98	11.70
585.14	21.06
585.30	112.35
585.46	107.66
585.62	46.81
585.78	70.22
585.94	21.06
586.10	46.81
586.26	14.04
586.42	42.13
586.58	81.92
586.74	53.83
586.90	93.62
587.06	114.69
587.22	60.85
587.38	14.04
587.54	23.41
587.70	93.62
587.86	56.17
588.02	119.37
588.18	70.22
588.34	98.30
588.49	86.60
588.65	49.15
588.81	35.11
588.97	42.13
589.13	58.51
589.29	39.79
589.45	56.17
589.61	35.11
589.77	72.56
589.93	105.32
590.08	145.11
590.24	42.13
590.40	84.26
590.56	121.71
590.72	100.64
590.88	84.26
591.04	102.98
591.20	93.62
591.35	0.00
591.51	37.45
591.67	4.68
591.83	100.64
591.99	49.15
592.15	93.62
592.31	100.64
592.46	100.64
592.62	42.13
592.78	35.11
592.94	63.19
593.10	49.15
593.26	60.85
593.41	56.17
593.57	107.66
593.73	70.22
593.89	131.07
594.05	0.00
594.20	128.73
594.36	65.54
594.52	131.07
594.68	93.62
594.84	60.85
594.99	72.56
595.15	93.62
595.31	100.64
595.47	65.54
595.62	84.26
595.78	86.60
595.94	91.28
596.10	131.07
596.25	114.69
596.41	42.13
596.57	79.58
596.73	117.03
596.88	70.22
597.04	42.13
597.20	91.28
597.36	100.64
597.51	32.77
597.67	93.62
597.83	110.01
597.99	65.54
598.14	63.19
598.30	67.88
598.46	74.90
598.61	56.17
598.77	72.56
598.93	25.75
599.09	95.96
599.24	126.39
599.40	77.24
599.56	18.72
599.71	11.70
599.87	44.47
600.03	53.83
600.18	145.11
600.34	119.37
600.50	95.96
600.65	70.22
600.81	28.09
600.97	35.11
601.12	100.64
601.28	37.45
601.44	88.94
601.59	119.37
601.75	32.77
601.91	128.73
602.06	46.81
602.22	70.22
602.37	152.13
602.53	93.62
602.69	25.75
602.84	53.83
603.00	32.77
603.16	53.83
603.31	91.28
603.47	70.22
603.62	65.54
603.78	95.96
603.94	81.92
604.09	91.28
604.25	149.79
604.40	105.32
604.56	37.45
604.71	16.38
604.87	77.24
605.03	39.79
605.18	56.17
605.34	107.66
605.49	107.66
605.65	84.26
605.80	0.00
605.96	11.70
606.12	53.83
606.27	39.79
606.43	0.00
606.58	112.35
606.74	4.68
606.89	65.54
607.05	25.75
607.20	25.75
607.36	32.77
607.51	14.04
607.67	44.47
607.82	46.81
607.98	95.96
608.13	0.00
608.29	74.90
608.44	86.60
608.60	88.94
608.75	93.62
608.91	30.43
609.06	74.90
609.22	46.81
609.37	2.34
609.53	114.69
609.68	42.13
609.84	77.24
609.99	0.00
610.15	18.72
610.30	56.17
610.46	72.56
610.61	133.41
610.76	72.56
610.92	95.96
611.07	152.13
611.23	51.49
611.38	91.28
611.54	42.13
611.69	110.01
611.84	79.58
612.00	18.72
612.15	119.37
612.31	86.60
612.46	107.66
612.62	95.96
612.77	44.47
612.92	58.51
613.08	105.32
613.23	49.15
613.39	60.85
613.54	98.30
613.69	0.00
613.85	65.54
614.00	58.51
614.15	112.35
614.31	30.43
614.46	63.19
614.62	91.28
614.77	95.96
614.92	67.88
615.08	81.92
615.23	9.36
615.38	46.81
615.54	91.28
615.69	37.45
615.84	110.01
616.00	100.64
616.15	46.81
616.30	37.45
616.46	37.45
616.61	46.81
616.76	58.51
616.92	49.15
617.07	51.49
617.22	4.68
617.37	60.85
617.53	44.47
617.68	65.54
617.83	2.34
617.99	51.49
618.14	88.94
618.29	60.85
618.45	51.49
618.60	63.19
618.75	95.96
618.90	70.22
619.06	0.00
619.21	18.72
619.36	91.28
619.51	2.34
619.67	67.88
619.82	93.62
619.97	98.30
620.12	21.06
620.28	100.64
620.43	121.71
620.58	49.15
620.73	110.01
620.89	58.51
621.04	81.92
621.19	95.96
621.34	49.15
621.49	70.22
621.65	44.47
621.80	77.24
621.95	81.92
622.10	91.28
622.25	44.47
622.41	100.64
622.56	86.60
622.71	2.34
622.86	51.49
623.01	95.96
623.16	21.06
623.32	86.60
623.47	93.62
623.62	37.45
623.77	21.06
623.92	70.22
624.07	46.81
624.23	84.26
624.38	32.77
624.53	86.60
624.68	81.92
624.83	72.56
624.98	49.15
625.13	46.81
625.29	93.62
625.44	110.01
625.59	0.00
625.74	7.02
625.89	58.51
626.04	65.54
626.19	84.26
626.34	63.19
626.49	11.70
626.65	11.70
626.80	56.17
626.95	65.54
627.10	51.49
627.25	35.11
627.40	91.28
627.55	60.85
627.70	21.06
627.85	32.77
628.00	14.04
628.15	32.77
628.30	18.72
628.45	25.75
628.60	86.60
628.76	72.56
628.91	35.11
629.06	74.90
629.21	51.49
629.36	46.81
629.51	114.69
629.66	35.11
629.81	16.38
629.96	79.58
630.11	95.96
630.26	74.90
630.41	84.26
630.56	81.92
630.71	100.64
630.86	112.35
631.01	53.83
631.16	51.49
631.31	42.13
631.46	74.90
631.61	58.51
631.76	0.00
631.91	30.43
632.06	117.03
632.21	128.73
632.36	0.00
632.51	35.11
632.66	30.43
632.81	30.43
632.96	32.77
633.10	100.64
633.25	46.81
633.40	16.38
633.55	46.81
633.70	25.75
633.85	21.06
634.00	81.92
634.15	107.66
634.30	100.64
634.45	0.00
634.60	51.49
634.75	56.17
634.90	49.15
635.05	46.81
635.19	79.58
635.34	107.66
635.49	25.75
635.64	46.81
635.79	37.45
635.94	0.00
636.09	0.00
636.24	18.72
636.39	77.24
636.53	32.77
636.68	7.02
636.83	0.00
636.98	70.22
637.13	126.39
637.28	58.51
637.43	23.41
637.57	77.24
637.72	37.45
637.87	30.43
638.02	93.62
638.17	39.79
638.32	7.02
638.46	100.64
638.61	11.70
638.76	2.34
638.91	44.47
639.06	35.11
639.20	30.43
639.35	56.17
639.50	39.79
639.65	46.81
639.80	77.24
639.94	81.92
640.09	56.17
640.24	32.77
640.39	72.56
640.54	84.26
640.68	152.13
640.83	98.30
640.98	49.15
641.13	46.81
641.27	119.37
641.42	0.00
641.57	60.85
641.72	32.77
641.86	49.15
642.01	37.45
642.16	58.51
642.31	53.83
642.45	0.00
642.60	112.35
642.75	74.90
642.90	84.26
643.04	39.79
643.19	77.24
643.34	105.32
643.48	11.70
643.63	14.04
643.78	63.19
643.93	37.45
644.07	95.96
644.22	60.85
644.37	37.45
644.51	133.41
644.66	28.09
644.81	70.22
644.95	77.24
645.10	95.96
645.25	46.81
645.39	42.13
645.54	93.62
645.69	65.54
645.83	107.66
645.98	58.51
646.13	18.72
646.27	53.83
646.42	0.00
646.57	72.56
646.71	117.03
646.86	58.51
647.00	32.77
647.15	60.85
647.30	7.02
647.44	86.60
647.59	58.51
647.74	65.54
647.88	79.58
648.03	74.90
648.17	39.79
648.32	60.85
648.47	44.47
648.61	46.81
648.76	77.24
648.90	7.02
649.05	30.43
649.20	11.70
649.34	0.00
649.49	53.83
649.63	53.83
649.78	42.13
649.92	16.38
650.07	0.00
650.21	56.17
650.36	84.26
650.51	77.24
650.65	39.79
650.80	67.88
650.94	23.41
651.09	95.96
651.23	65.54
651.38	79.58
651.52	18.72
651.67	46.81
651.81	63.19
651.96	70.22
652.10	42.13
652.25	72.56
652.39	49.15
652.54	11.70
652.68	35.11
652.83	25.75
652.97	0.00
653.12	28.09
653.26	65.54
653.41	9.36
653.55	63.19
653.70	77.24
653.84	124.05
653.99	51.49
654.13	32.77
654.27	30.43
654.42	28.09
654.56	53.83
654.71	93.62
654.85	60.85
655.00	72.56
655.14	65.54
655.29	42.13
655.43	110.01
655.57	105.32
655.72	49.15
655.86	44.47
656.01	30.43
656.15	53.83
656.30	67.88
656.44	30.43
656.58	124.05
656.73	56.17
656.87	72.56
657.01	72.56
657.16	46.81
657.30	0.00
657.45	95.96
657.59	95.96
657.73	21.06
657.88	72.56
658.02	98.30
658.16	32.77
658.31	60.85
658.45	95.96
658.60	84.26
658.74	0.00
658.88	46.81
659.03	21.06
659.17	65.54
659.31	37.45
659.46	58.51
659.60	51.49
659.74	102.98
659.89	51.49
660.03	0.00
660.17	58.51
660.32	58.51
660.46	86.60
660.60	102.98
660.74	16.38
660.89	91.28
661.03	23.41
661.17	67.88
661.32	77.24
661.46	60.85
661.60	77.24
661.74	114.69
661.89	0.00
662.03	74.90
662.17	42.13
662.31	37.45
662.46	16.38
662.60	0.00
662.74	72.56
662.88	39.79
663.03	74.90
663.17	28.09
663.31	67.88
663.45	110.01
663.60	70.22
663.74	114.69
663.88	23.41
664.02	114.69
664.17	72.56
664.31	32.77
664.45	121.71
664.59	0.00
664.73	126.39
664.88	0.00
665.02	72.56
665.16	74.90
665.30	0.00
665.44	7.02
665.59	53.83
665.73	63.19
665.87	0.00
666.01	42.13
666.15	35.11
666.29	30.43
666.44	70.22
666.58	88.94
666.72	77.24
666.86	35.11
667.00	2.34
667.14	149.79
667.28	142.77
667.43	65.54
667.57	16.38
667.71	28.09
667.85	2.34
667.99	100.64
668.13	105.32
668.27	98.30
668.41	42.13
668.56	81.92
668.70	121.71
668.84	51.49
668.98	79.58
669.12	145.11
669.26	9.36
669.40	21.06
669.54	16.38
669.68	126.39
669.82	91.28
669.96	49.15
670.10	0.00
670.25	56.17
670.39	18.72
670.53	0.00
670.67	114.69
670.81	9.36
670.95	21.06
671.09	0.00
671.23	81.92
671.37	65.54
671.51	58.51
671.65	86.60
671.79	56.17
671.93	63.19
672.07	53.83
672.21	18.72
672.35	67.88
672.49	110.01
672.63	28.09
672.77	119.37
672.91	28.09
673.05	42.13
673.19	49.15
673.33	9.36
673.47	39.79
673.61	100.64
673.75	0.00
673.89	77.24
674.03	32.77
674.17	39.79
674.31	25.75
674.45	42.13
674.59	49.15
674.73	14.04
674.87	32.77
675.01	2.34
675.15	49.15
675.29	88.94
675.43	56.17
675.56	65.54
675.70	0.00
675.84	58.51
675.98	44.47
676.12	4.68
676.26	56.17
676.40	51.49
676.54	25.75
676.68	21.06
676.82	44.47
676.96	86.60
677.10	39.79
677.23	28.09
677.37	7.02
677.51	58.51
677.65	114.69
677.79	56.17
677.93	14.04
678.07	4.68
678.21	98.30
678.34	98.30
678.48	14.04
678.62	74.90
678.76	0.00
678.90	58.51
679.04	63.19
679.18	2.34
679.31	51.49
679.45	0.00
679.59	70.22
679.73	42.13
679.87	77.24
680.00	14.04
680.14	86.60
680.28	18.72
680.42	44.47
680.56	0.00
680.70	60.85
680.83	30.43
680.97	124.05
681.11	65.54
681.25	95.96
681.39	77.24
681.52	102.98
681.66	107.66
681.80	56.17
681.94	60.85
682.07	37.45
682.21	25.75
682.35	79.58
682.49	91.28
682.62	98.30
682.76	7.02
682.90	119.37
683.04	124.05
683.17	56.17
683.31	49.15
683.45	105.32
683.59	30.43
683.72	72.56
683.86	0.00
684.00	58.51
684.13	81.92
684.27	14.04
684.41	60.85
684.55	0.00
684.68	58.51
684.82	42.13
684.96	30.43
685.09	58.51
685.23	65.54
685.37	25.75
685.50	28.09
685.64	23.41
685.78	114.69
685.91	63.19
686.05	74.90
686.19	0.00
686.32	37.45
686.46	18.72
686.60	0.00
686.73	70.22
686.87	51.49
687.01	32.77
687.14	0.00
687.28	63.19
687.42	21.06
687.55	42.13
687.69	42.13
687.82	0.00
687.96	49.15
688.10	39.79
688.23	86.60
688.37	60.85
688.50	81.92
688.64	42.13
688.78	84.26
688.91	51.49
689.05	46.81
689.18	18.72
689.32	14.04
689.46	11.70
689.59	0.00
689.73	39.79
689.86	0.00
690.00	18.72
690.13	23.41
690.27	51.49
690.41	28.09
690.54	53.83
690.68	30.43
690.81	18.72
690.95	42.13
691.08	23.41
691.22	0.00
691.35	84.26
691.49	23.41
691.62	51.49
691.76	25.75
691.89	79.58
692.03	70.22
692.16	46.81
692.30	51.49
692.43	0.00
692.57	32.77
692.70	93.62
692.84	98.30
692.97	74.90
693.11	74.90
693.24	11.70
693.38	0.00
693.51	28.09
693.65	0.00
693.78	56.17
693.92	49.15
694.05	35.11
694.19	70.22
694.32	51.49
694.45	7.02
694.59	14.04
694.72	28.09
694.86	53.83
694.99	100.64
695.13	110.01
695.26	28.09
695.39	60.85
695.53	72.56
695.66	14.04
695.80	23.41
695.93	60.85
696.07	56.17
696.20	4.68
696.33	86.60
696.47	79.58
696.60	49.15
696.73	28.09
696.87	93.62
697.00	86.60
697.14	70.22
697.27	21.06
697.40	2.34
697.54	39.79
697.67	35.11
697.80	18.72
697.94	49.15
698.07	18.72
698.21	74.90
698.34	42.13
698.47	35.11
698.61	30.43
698.74	0.00
698.87	25.75
699.01	72.56
699.14	44.47
699.27	0.00
699.40	51.49
699.54	0.00
699.67	16.38
699.80	32.77
699.94	121.71
700.07	2.34
700.20	16.38
700.34	88.94
700.47	2.34
700.60	42.13
700.73	4.68
700.87	86.60
701.00	0.00
701.13	0.00
701.26	39.79
701.40	86.60
701.53	95.96
701.66	18.72
701.79	0.00
701.93	0.00
702.06	0.00
702.19	53.83
702.32	58.51
702.46	30.43
702.59	70.22
702.72	28.09
702.85	88.94
702.99	39.79
703.12	0.00
703.25	18.72
703.38	39.79
703.51	7.02
703.65	46.81
703.78	39.79
703.91	7.02
704.04	42.13
704.17	98.30
704.31	2.34
704.44	0.00
704.57	53.83
704.70	93.62
704.83	30.43
704.96	67.88
705.10	100.64
705.23	88.94
>>>>>End Processed Spectral Data<<<<<
