SpectraSuite Data File
++++++++++++++++++++++++++++++++++++
Date: Fri Oct 04 12:13:40 GMT-05:00 2013
User: price-jones
Dark Spectrum Present: No
Reference Spectrum Present: No
Number of Sampled Component Spectra: 1
Spectrometers: USB2+H05261
Integration Time (usec): 10000 (USB2+H05261)
Spectra Averaged: 1 (USB2+H05261)
Boxcar Smoothing: 0 (USB2+H05261)
Correct for Electrical Dark: No (USB2+H05261)
Strobe/Lamp Enabled: No (USB2+H05261)
Correct for Detector Non-linearity: No (USB2+H05261)
Correct for Stray Light: No (USB2+H05261)
Number of Pixels in Processed Spectrum: 2048
>>>>>Begin Processed Spectral Data<<<<<
365.73	63.19
365.92	63.19
366.12	63.19
366.32	0.00
366.52	0.00
366.72	0.00
366.91	0.00
367.11	0.00
367.31	0.00
367.51	0.00
367.70	0.00
367.90	0.00
368.10	0.00
368.30	0.00
368.49	0.00
368.69	0.00
368.89	0.00
369.09	0.00
369.28	0.00
369.48	0.00
369.68	0.00
369.87	0.00
370.07	0.00
370.27	0.00
370.47	0.00
370.66	0.00
370.86	0.00
371.06	11.70
371.25	0.00
371.45	0.00
371.65	0.00
371.84	0.00
372.04	21.06
372.24	14.04
372.44	58.51
372.63	42.13
372.83	0.00
373.03	0.00
373.22	7.02
373.42	25.75
373.62	84.26
373.81	16.38
374.01	56.17
374.21	161.50
374.40	30.43
374.60	0.00
374.79	100.64
374.99	23.41
375.19	70.22
375.38	53.83
375.58	56.17
375.78	28.09
375.97	67.88
376.17	37.45
376.37	21.06
376.56	65.54
376.76	35.11
376.95	49.15
377.15	0.00
377.35	0.00
377.54	32.77
377.74	23.41
377.93	0.00
378.13	2.34
378.33	107.66
378.52	21.06
378.72	0.00
378.91	0.00
379.11	0.00
379.31	0.00
379.50	0.00
379.70	11.70
379.89	0.00
380.09	11.70
380.28	2.34
380.48	0.00
380.68	0.00
380.87	7.02
381.07	4.68
381.26	46.81
381.46	0.00
381.65	18.72
381.85	126.39
382.04	0.00
382.24	25.75
382.43	0.00
382.63	0.00
382.83	16.38
383.02	0.00
383.22	63.19
383.41	0.00
383.61	0.00
383.80	0.00
384.00	53.83
384.19	0.00
384.39	11.70
384.58	37.45
384.78	0.00
384.97	14.04
385.17	18.72
385.36	0.00
385.56	0.00
385.75	0.00
385.95	0.00
386.14	53.83
386.34	46.81
386.53	0.00
386.72	39.79
386.92	58.51
387.11	37.45
387.31	32.77
387.50	70.22
387.70	44.47
387.89	0.00
388.09	25.75
388.28	4.68
388.48	28.09
388.67	4.68
388.86	16.38
389.06	63.19
389.25	30.43
389.45	2.34
389.64	23.41
389.84	0.00
390.03	51.49
390.22	0.00
390.42	49.15
390.61	84.26
390.81	16.38
391.00	37.45
391.19	18.72
391.39	0.00
391.58	0.00
391.78	25.75
391.97	28.09
392.16	65.54
392.36	30.43
392.55	65.54
392.75	23.41
392.94	49.15
393.13	11.70
393.33	32.77
393.52	74.90
393.71	72.56
393.91	0.00
394.10	14.04
394.29	30.43
394.49	0.00
394.68	81.92
394.88	16.38
395.07	49.15
395.26	49.15
395.46	53.83
395.65	65.54
395.84	81.92
396.04	0.00
396.23	21.06
396.42	25.75
396.62	100.64
396.81	32.77
397.00	53.83
397.19	0.00
397.39	0.00
397.58	32.77
397.77	0.00
397.97	44.47
398.16	58.51
398.35	9.36
398.55	44.47
398.74	42.13
398.93	21.06
399.12	49.15
399.32	18.72
399.51	18.72
399.70	2.34
399.90	0.00
400.09	0.00
400.28	65.54
400.47	60.85
400.67	11.70
400.86	39.79
401.05	30.43
401.24	0.00
401.44	91.28
401.63	110.01
401.82	0.00
402.01	0.00
402.21	32.77
402.40	0.00
402.59	49.15
402.78	28.09
402.97	18.72
403.17	9.36
403.36	4.68
403.55	72.56
403.74	0.00
403.93	56.17
404.13	81.92
404.32	51.49
404.51	39.79
404.70	42.13
404.89	0.00
405.09	93.62
405.28	46.81
405.47	105.32
405.66	56.17
405.85	72.56
406.05	39.79
406.24	0.00
406.43	2.34
406.62	0.00
406.81	58.51
407.00	35.11
407.20	21.06
407.39	51.49
407.58	67.88
407.77	86.60
407.96	2.34
408.15	0.00
408.34	2.34
408.54	49.15
408.73	14.04
408.92	74.90
409.11	70.22
409.30	0.00
409.49	0.00
409.68	42.13
409.87	0.00
410.07	49.15
410.26	93.62
410.45	4.68
410.64	16.38
410.83	37.45
411.02	0.00
411.21	63.19
411.40	88.94
411.59	16.38
411.78	21.06
411.98	44.47
412.17	0.00
412.36	37.45
412.55	14.04
412.74	44.47
412.93	95.96
413.12	42.13
413.31	70.22
413.50	4.68
413.69	25.75
413.88	65.54
414.07	18.72
414.26	23.41
414.45	63.19
414.64	14.04
414.83	0.00
415.02	74.90
415.22	58.51
415.41	0.00
415.60	58.51
415.79	23.41
415.98	11.70
416.17	21.06
416.36	46.81
416.55	77.24
416.74	0.00
416.93	63.19
417.12	65.54
417.31	84.26
417.50	18.72
417.69	49.15
417.88	25.75
418.07	65.54
418.26	4.68
418.45	0.00
418.64	0.00
418.83	67.88
419.02	28.09
419.21	0.00
419.39	0.00
419.58	2.34
419.77	0.00
419.96	58.51
420.15	44.47
420.34	67.88
420.53	37.45
420.72	0.00
420.91	60.85
421.10	44.47
421.29	84.26
421.48	0.00
421.67	4.68
421.86	56.17
422.05	72.56
422.24	81.92
422.43	51.49
422.61	4.68
422.80	0.00
422.99	49.15
423.18	58.51
423.37	25.75
423.56	67.88
423.75	28.09
423.94	126.39
424.13	53.83
424.32	84.26
424.50	39.79
424.69	2.34
424.88	74.90
425.07	65.54
425.26	58.51
425.45	79.58
425.64	60.85
425.83	4.68
426.01	67.88
426.20	23.41
426.39	86.60
426.58	51.49
426.77	86.60
426.96	74.90
427.15	30.43
427.33	2.34
427.52	72.56
427.71	0.00
427.90	42.13
428.09	0.00
428.28	110.01
428.46	30.43
428.65	4.68
428.84	46.81
429.03	23.41
429.22	105.32
429.40	25.75
429.59	0.00
429.78	0.00
429.97	72.56
430.16	32.77
430.34	30.43
430.53	42.13
430.72	18.72
430.91	23.41
431.10	37.45
431.28	65.54
431.47	110.01
431.66	63.19
431.85	0.00
432.03	0.00
432.22	72.56
432.41	58.51
432.60	53.83
432.79	25.75
432.97	58.51
433.16	84.26
433.35	0.00
433.54	16.38
433.72	18.72
433.91	53.83
434.10	9.36
434.28	18.72
434.47	51.49
434.66	30.43
434.85	84.26
435.03	58.51
435.22	46.81
435.41	0.00
435.59	49.15
435.78	138.09
435.97	58.51
436.16	65.54
436.34	88.94
436.53	37.45
436.72	72.56
436.90	126.39
437.09	60.85
437.28	79.58
437.46	35.11
437.65	98.30
437.84	114.69
438.02	93.62
438.21	77.24
438.40	35.11
438.58	0.00
438.77	0.00
438.96	74.90
439.14	39.79
439.33	65.54
439.52	86.60
439.70	25.75
439.89	0.00
440.08	30.43
440.26	117.03
440.45	16.38
440.63	51.49
440.82	74.90
441.01	9.36
441.19	86.60
441.38	88.94
441.57	100.64
441.75	42.13
441.94	81.92
442.12	98.30
442.31	4.68
442.50	63.19
442.68	119.37
442.87	0.00
443.05	121.71
443.24	18.72
443.43	18.72
443.61	0.00
443.80	102.98
443.98	70.22
444.17	9.36
444.35	51.49
444.54	28.09
444.73	49.15
444.91	9.36
445.10	2.34
445.28	14.04
445.47	35.11
445.65	42.13
445.84	70.22
446.02	44.47
446.21	30.43
446.39	107.66
446.58	65.54
446.77	25.75
446.95	16.38
447.14	93.62
447.32	25.75
447.51	25.75
447.69	0.00
447.88	114.69
448.06	74.90
448.25	74.90
448.43	79.58
448.62	58.51
448.80	39.79
448.99	4.68
449.17	58.51
449.36	14.04
449.54	53.83
449.73	63.19
449.91	72.56
450.10	93.62
450.28	98.30
450.46	126.39
450.65	49.15
450.83	88.94
451.02	0.00
451.20	42.13
451.39	58.51
451.57	86.60
451.76	25.75
451.94	72.56
452.13	72.56
452.31	49.15
452.49	0.00
452.68	46.81
452.86	16.38
453.05	28.09
453.23	16.38
453.42	60.85
453.60	74.90
453.78	84.26
453.97	23.41
454.15	67.88
454.34	49.15
454.52	42.13
454.70	4.68
454.89	95.96
455.07	100.64
455.26	95.96
455.44	65.54
455.62	49.15
455.81	37.45
455.99	9.36
456.17	0.00
456.36	42.13
456.54	35.11
456.73	67.88
456.91	25.75
457.09	39.79
457.28	0.00
457.46	2.34
457.64	117.03
457.83	30.43
458.01	65.54
458.19	25.75
458.38	51.49
458.56	63.19
458.74	84.26
458.93	110.01
459.11	0.00
459.29	0.00
459.48	53.83
459.66	9.36
459.84	65.54
460.03	39.79
460.21	56.17
460.39	70.22
460.57	60.85
460.76	114.69
460.94	46.81
461.12	65.54
461.31	77.24
461.49	53.83
461.67	51.49
461.85	0.00
462.04	35.11
462.22	98.30
462.40	9.36
462.59	100.64
462.77	25.75
462.95	28.09
463.13	81.92
463.32	110.01
463.50	44.47
463.68	56.17
463.86	32.77
464.05	37.45
464.23	58.51
464.41	60.85
464.59	51.49
464.78	28.09
464.96	35.11
465.14	7.02
465.32	51.49
465.50	14.04
465.69	28.09
465.87	131.07
466.05	98.30
466.23	49.15
466.41	42.13
466.60	53.83
466.78	77.24
466.96	51.49
467.14	67.88
467.32	112.35
467.51	16.38
467.69	49.15
467.87	77.24
468.05	63.19
468.23	0.00
468.41	0.00
468.60	49.15
468.78	23.41
468.96	42.13
469.14	23.41
469.32	93.62
469.50	86.60
469.69	81.92
469.87	56.17
470.05	23.41
470.23	25.75
470.41	25.75
470.59	77.24
470.77	0.00
470.95	86.60
471.14	81.92
471.32	11.70
471.50	32.77
471.68	2.34
471.86	77.24
472.04	53.83
472.22	42.13
472.40	46.81
472.58	56.17
472.77	105.32
472.95	30.43
473.13	65.54
473.31	30.43
473.49	156.82
473.67	107.66
473.85	112.35
474.03	74.90
474.21	44.47
474.39	72.56
474.57	67.88
474.75	110.01
474.93	60.85
475.12	63.19
475.30	86.60
475.48	39.79
475.66	35.11
475.84	0.00
476.02	56.17
476.20	84.26
476.38	88.94
476.56	145.11
476.74	58.51
476.92	0.00
477.10	14.04
477.28	105.32
477.46	126.39
477.64	30.43
477.82	23.41
478.00	16.38
478.18	18.72
478.36	124.05
478.54	72.56
478.72	46.81
478.90	56.17
479.08	58.51
479.26	119.37
479.44	56.17
479.62	63.19
479.80	32.77
479.98	70.22
480.16	105.32
480.34	121.71
480.52	79.58
480.70	72.56
480.88	32.77
481.06	72.56
481.24	91.28
481.41	39.79
481.59	56.17
481.77	86.60
481.95	63.19
482.13	72.56
482.31	133.41
482.49	49.15
482.67	39.79
482.85	81.92
483.03	124.05
483.21	18.72
483.39	4.68
483.57	117.03
483.74	135.75
483.92	124.05
484.10	23.41
484.28	105.32
484.46	140.43
484.64	0.00
484.82	117.03
485.00	60.85
485.18	110.01
485.35	102.98
485.53	79.58
485.71	58.51
485.89	21.06
486.07	4.68
486.25	84.26
486.43	65.54
486.61	30.43
486.78	0.00
486.96	37.45
487.14	44.47
487.32	0.00
487.50	32.77
487.68	121.71
487.85	63.19
488.03	149.79
488.21	16.38
488.39	77.24
488.57	23.41
488.75	93.62
488.92	98.30
489.10	152.13
489.28	70.22
489.46	74.90
489.64	28.09
489.81	16.38
489.99	91.28
490.17	63.19
490.35	46.81
490.53	65.54
490.70	95.96
490.88	72.56
491.06	30.43
491.24	107.66
491.41	98.30
491.59	70.22
491.77	18.72
491.95	86.60
492.13	49.15
492.30	51.49
492.48	84.26
492.66	126.39
492.84	105.32
493.01	35.11
493.19	72.56
493.37	39.79
493.54	112.35
493.72	86.60
493.90	7.02
494.08	42.13
494.25	91.28
494.43	28.09
494.61	58.51
494.79	67.88
494.96	110.01
495.14	70.22
495.32	126.39
495.49	88.94
495.67	0.00
495.85	67.88
496.02	95.96
496.20	77.24
496.38	60.85
496.55	65.54
496.73	11.70
496.91	63.19
497.09	37.45
497.26	86.60
497.44	39.79
497.62	58.51
497.79	145.11
497.97	88.94
498.14	35.11
498.32	100.64
498.50	81.92
498.67	72.56
498.85	79.58
499.03	84.26
499.20	65.54
499.38	56.17
499.56	102.98
499.73	21.06
499.91	149.79
500.08	39.79
500.26	79.58
500.44	100.64
500.61	93.62
500.79	91.28
500.97	81.92
501.14	93.62
501.32	42.13
501.49	56.17
501.67	63.19
501.84	70.22
502.02	74.90
502.20	67.88
502.37	72.56
502.55	142.77
502.72	173.20
502.90	161.50
503.07	154.48
503.25	86.60
503.43	46.81
503.60	14.04
503.78	93.62
503.95	21.06
504.13	84.26
504.30	44.47
504.48	79.58
504.65	98.30
504.83	128.73
505.01	119.37
505.18	105.32
505.36	77.24
505.53	60.85
505.71	140.43
505.88	79.58
506.06	39.79
506.23	37.45
506.41	126.39
506.58	117.03
506.76	131.07
506.93	72.56
507.11	121.71
507.28	72.56
507.46	86.60
507.63	93.62
507.81	37.45
507.98	21.06
508.16	86.60
508.33	44.47
508.50	93.62
508.68	88.94
508.85	53.83
509.03	67.88
509.20	2.34
509.38	2.34
509.55	74.90
509.73	131.07
509.90	112.35
510.08	170.86
510.25	18.72
510.42	65.54
510.60	126.39
510.77	114.69
510.95	16.38
511.12	95.96
511.30	93.62
511.47	4.68
511.64	107.66
511.82	131.07
511.99	70.22
512.17	156.82
512.34	107.66
512.51	49.15
512.69	72.56
512.86	0.00
513.04	119.37
513.21	142.77
513.38	107.66
513.56	119.37
513.73	49.15
513.90	51.49
514.08	91.28
514.25	67.88
514.43	88.94
514.60	70.22
514.77	72.56
514.95	124.05
515.12	63.19
515.29	84.26
515.47	77.24
515.64	56.17
515.81	105.32
515.99	63.19
516.16	105.32
516.33	112.35
516.51	46.81
516.68	23.41
516.85	95.96
517.03	145.11
517.20	77.24
517.37	30.43
517.54	121.71
517.72	77.24
517.89	60.85
518.06	44.47
518.24	86.60
518.41	18.72
518.58	81.92
518.75	30.43
518.93	93.62
519.10	110.01
519.27	53.83
519.45	21.06
519.62	86.60
519.79	70.22
519.96	44.47
520.14	51.49
520.31	58.51
520.48	30.43
520.65	65.54
520.83	63.19
521.00	58.51
521.17	2.34
521.34	25.75
521.52	135.75
521.69	39.79
521.86	70.22
522.03	77.24
522.20	93.62
522.38	117.03
522.55	135.75
522.72	65.54
522.89	53.83
523.07	84.26
523.24	79.58
523.41	72.56
523.58	60.85
523.75	37.45
523.92	65.54
524.10	100.64
524.27	67.88
524.44	49.15
524.61	117.03
524.78	79.58
524.96	100.64
525.13	37.45
525.30	46.81
525.47	35.11
525.64	110.01
525.81	28.09
525.98	77.24
526.16	51.49
526.33	86.60
526.50	112.35
526.67	131.07
526.84	81.92
527.01	102.98
527.18	84.26
527.36	98.30
527.53	84.26
527.70	46.81
527.87	77.24
528.04	102.98
528.21	88.94
528.38	131.07
528.55	35.11
528.72	79.58
528.89	49.15
529.07	23.41
529.24	65.54
529.41	63.19
529.58	28.09
529.75	58.51
529.92	25.75
530.09	117.03
530.26	63.19
530.43	72.56
530.60	95.96
530.77	131.07
530.94	77.24
531.11	74.90
531.28	37.45
531.46	23.41
531.63	65.54
531.80	30.43
531.97	14.04
532.14	114.69
532.31	67.88
532.48	81.92
532.65	67.88
532.82	170.86
532.99	49.15
533.16	70.22
533.33	53.83
533.50	124.05
533.67	91.28
533.84	35.11
534.01	112.35
534.18	46.81
534.35	2.34
534.52	72.56
534.69	42.13
534.86	74.90
535.03	102.98
535.20	100.64
535.37	77.24
535.54	28.09
535.71	138.09
535.88	65.54
536.05	49.15
536.22	93.62
536.38	49.15
536.55	114.69
536.72	107.66
536.89	93.62
537.06	88.94
537.23	44.47
537.40	37.45
537.57	126.39
537.74	84.26
537.91	107.66
538.08	51.49
538.25	35.11
538.42	79.58
538.59	51.49
538.75	37.45
538.92	110.01
539.09	49.15
539.26	32.77
539.43	70.22
539.60	102.98
539.77	105.32
539.94	72.56
540.11	95.96
540.28	30.43
540.44	7.02
540.61	18.72
540.78	110.01
540.95	25.75
541.12	105.32
541.29	95.96
541.46	114.69
541.62	74.90
541.79	77.24
541.96	128.73
542.13	2.34
542.30	58.51
542.47	95.96
542.63	114.69
542.80	114.69
542.97	100.64
543.14	46.81
543.31	86.60
543.48	72.56
543.64	56.17
543.81	138.09
543.98	79.58
544.15	93.62
544.32	84.26
544.48	74.90
544.65	107.66
544.82	114.69
544.99	51.49
545.16	128.73
545.32	39.79
545.49	39.79
545.66	72.56
545.83	93.62
546.00	88.94
546.16	46.81
546.33	72.56
546.50	102.98
546.67	51.49
546.83	58.51
547.00	117.03
547.17	79.58
547.34	121.71
547.50	39.79
547.67	65.54
547.84	53.83
548.00	168.52
548.17	39.79
548.34	9.36
548.51	84.26
548.67	102.98
548.84	114.69
549.01	95.96
549.18	84.26
549.34	25.75
549.51	98.30
549.68	67.88
549.84	121.71
550.01	152.13
550.18	67.88
550.34	81.92
550.51	110.01
550.68	72.56
550.84	140.43
551.01	114.69
551.18	105.32
551.34	140.43
551.51	156.82
551.68	119.37
551.84	88.94
552.01	140.43
552.18	0.00
552.34	86.60
552.51	18.72
552.68	79.58
552.84	4.68
553.01	142.77
553.18	46.81
553.34	117.03
553.51	77.24
553.67	110.01
553.84	72.56
554.01	58.51
554.17	93.62
554.34	98.30
554.51	126.39
554.67	100.64
554.84	28.09
555.00	114.69
555.17	37.45
555.33	16.38
555.50	39.79
555.67	79.58
555.83	102.98
556.00	46.81
556.16	2.34
556.33	0.00
556.50	81.92
556.66	58.51
556.83	56.17
556.99	72.56
557.16	126.39
557.32	53.83
557.49	60.85
557.65	53.83
557.82	107.66
557.98	84.26
558.15	119.37
558.32	46.81
558.48	84.26
558.65	32.77
558.81	74.90
558.98	37.45
559.14	63.19
559.31	175.54
559.47	65.54
559.64	37.45
559.80	77.24
559.97	74.90
560.13	65.54
560.30	60.85
560.46	32.77
560.63	79.58
560.79	159.16
560.96	124.05
561.12	39.79
561.29	72.56
561.45	70.22
561.61	30.43
561.78	84.26
561.94	95.96
562.11	81.92
562.27	124.05
562.44	58.51
562.60	98.30
562.77	138.09
562.93	121.71
563.10	107.66
563.26	168.52
563.42	44.47
563.59	28.09
563.75	91.28
563.92	124.05
564.08	114.69
564.24	91.28
564.41	124.05
564.57	91.28
564.74	72.56
564.90	126.39
565.07	67.88
565.23	135.75
565.39	79.58
565.56	72.56
565.72	124.05
565.88	21.06
566.05	124.05
566.21	49.15
566.38	53.83
566.54	91.28
566.70	56.17
566.87	37.45
567.03	91.28
567.19	30.43
567.36	56.17
567.52	60.85
567.68	49.15
567.85	110.01
568.01	37.45
568.17	91.28
568.34	135.75
568.50	114.69
568.66	77.24
568.83	84.26
568.99	72.56
569.15	77.24
569.32	114.69
569.48	98.30
569.64	32.77
569.81	11.70
569.97	60.85
570.13	14.04
570.30	46.81
570.46	128.73
570.62	65.54
570.78	63.19
570.95	95.96
571.11	168.52
571.27	79.58
571.43	35.11
571.60	88.94
571.76	74.90
571.92	98.30
572.09	95.96
572.25	28.09
572.41	0.00
572.57	72.56
572.74	168.52
572.90	65.54
573.06	65.54
573.22	86.60
573.38	49.15
573.55	53.83
573.71	98.30
573.87	114.69
574.03	42.13
574.20	44.47
574.36	112.35
574.52	88.94
574.68	70.22
574.84	102.98
575.01	114.69
575.17	81.92
575.33	138.09
575.49	37.45
575.65	72.56
575.82	58.51
575.98	93.62
576.14	84.26
576.30	58.51
576.46	28.09
576.62	51.49
576.79	91.28
576.95	107.66
577.11	81.92
577.27	65.54
577.43	140.43
577.59	93.62
577.75	70.22
577.92	30.43
578.08	18.72
578.24	72.56
578.40	53.83
578.56	51.49
578.72	42.13
578.88	117.03
579.04	86.60
579.21	86.60
579.37	67.88
579.53	84.26
579.69	58.51
579.85	23.41
580.01	100.64
580.17	44.47
580.33	81.92
580.49	74.90
580.65	105.32
580.82	93.62
580.98	28.09
581.14	105.32
581.30	32.77
581.46	37.45
581.62	84.26
581.78	42.13
581.94	49.15
582.10	9.36
582.26	107.66
582.42	53.83
582.58	117.03
582.74	133.41
582.90	58.51
583.06	42.13
583.22	9.36
583.38	72.56
583.54	77.24
583.70	35.11
583.86	88.94
584.02	74.90
584.18	44.47
584.34	7.02
584.50	42.13
584.66	67.88
584.82	46.81
584.98	88.94
585.14	119.37
585.30	65.54
585.46	135.75
585.62	102.98
585.78	79.58
585.94	39.79
586.10	37.45
586.26	4.68
586.42	95.96
586.58	95.96
586.74	107.66
586.90	28.09
587.06	39.79
587.22	42.13
587.38	28.09
587.54	91.28
587.70	74.90
587.86	7.02
588.02	70.22
588.18	58.51
588.34	60.85
588.49	79.58
588.65	21.06
588.81	49.15
588.97	0.00
589.13	0.00
589.29	51.49
589.45	39.79
589.61	112.35
589.77	81.92
589.93	46.81
590.08	107.66
590.24	117.03
590.40	18.72
590.56	53.83
590.72	35.11
590.88	14.04
591.04	58.51
591.20	112.35
591.35	74.90
591.51	70.22
591.67	107.66
591.83	95.96
591.99	112.35
592.15	91.28
592.31	46.81
592.46	88.94
592.62	44.47
592.78	93.62
592.94	65.54
593.10	18.72
593.26	107.66
593.41	110.01
593.57	98.30
593.73	86.60
593.89	42.13
594.05	63.19
594.20	32.77
594.36	81.92
594.52	2.34
594.68	67.88
594.84	49.15
594.99	84.26
595.15	18.72
595.31	35.11
595.47	107.66
595.62	98.30
595.78	77.24
595.94	56.17
596.10	21.06
596.25	42.13
596.41	23.41
596.57	51.49
596.73	49.15
596.88	72.56
597.04	84.26
597.20	49.15
597.36	70.22
597.51	100.64
597.67	32.77
597.83	81.92
597.99	35.11
598.14	126.39
598.30	91.28
598.46	93.62
598.61	35.11
598.77	86.60
598.93	18.72
599.09	28.09
599.24	28.09
599.40	49.15
599.56	126.39
599.71	60.85
599.87	98.30
600.03	110.01
600.18	49.15
600.34	135.75
600.50	18.72
600.65	46.81
600.81	86.60
600.97	58.51
601.12	74.90
601.28	28.09
601.44	70.22
601.59	60.85
601.75	70.22
601.91	138.09
602.06	49.15
602.22	28.09
602.37	133.41
602.53	30.43
602.69	39.79
602.84	100.64
603.00	84.26
603.16	65.54
603.31	114.69
603.47	114.69
603.62	112.35
603.78	110.01
603.94	49.15
604.09	86.60
604.25	42.13
604.40	112.35
604.56	28.09
604.71	56.17
604.87	95.96
605.03	49.15
605.18	119.37
605.34	84.26
605.49	32.77
605.65	77.24
605.80	0.00
605.96	0.00
606.12	77.24
606.27	53.83
606.43	168.52
606.58	133.41
606.74	95.96
606.89	133.41
607.05	67.88
607.20	93.62
607.36	74.90
607.51	95.96
607.67	67.88
607.82	114.69
607.98	0.00
608.13	105.32
608.29	102.98
608.44	77.24
608.60	65.54
608.75	124.05
608.91	126.39
609.06	11.70
609.22	42.13
609.37	102.98
609.53	117.03
609.68	65.54
609.84	14.04
609.99	77.24
610.15	86.60
610.30	95.96
610.46	77.24
610.61	70.22
610.76	102.98
610.92	56.17
611.07	39.79
611.23	56.17
611.38	56.17
611.54	46.81
611.69	25.75
611.84	128.73
612.00	74.90
612.15	154.48
612.31	107.66
612.46	53.83
612.62	107.66
612.77	42.13
612.92	114.69
613.08	28.09
613.23	58.51
613.39	44.47
613.54	53.83
613.69	37.45
613.85	35.11
614.00	16.38
614.15	88.94
614.31	0.00
614.46	121.71
614.62	63.19
614.77	53.83
614.92	81.92
615.08	77.24
615.23	60.85
615.38	74.90
615.54	114.69
615.69	124.05
615.84	30.43
616.00	110.01
616.15	114.69
616.30	51.49
616.46	42.13
616.61	51.49
616.76	11.70
616.92	65.54
617.07	0.00
617.22	49.15
617.37	81.92
617.53	39.79
617.68	95.96
617.83	42.13
617.99	16.38
618.14	25.75
618.29	91.28
618.45	0.00
618.60	28.09
618.75	21.06
618.90	32.77
619.06	105.32
619.21	72.56
619.36	72.56
619.51	30.43
619.67	79.58
619.82	25.75
619.97	91.28
620.12	88.94
620.28	51.49
620.43	79.58
620.58	72.56
620.73	49.15
620.89	135.75
621.04	51.49
621.19	56.17
621.34	28.09
621.49	39.79
621.65	51.49
621.80	79.58
621.95	39.79
622.10	65.54
622.25	98.30
622.41	98.30
622.56	32.77
622.71	51.49
622.86	30.43
623.01	95.96
623.16	133.41
623.32	145.11
623.47	51.49
623.62	53.83
623.77	23.41
623.92	30.43
624.07	98.30
624.23	72.56
624.38	102.98
624.53	11.70
624.68	117.03
624.83	23.41
624.98	72.56
625.13	67.88
625.29	140.43
625.44	126.39
625.59	70.22
625.74	14.04
625.89	81.92
626.04	65.54
626.19	42.13
626.34	112.35
626.49	79.58
626.65	117.03
626.80	81.92
626.95	21.06
627.10	140.43
627.25	46.81
627.40	65.54
627.55	39.79
627.70	102.98
627.85	44.47
628.00	81.92
628.15	98.30
628.30	42.13
628.45	88.94
628.60	58.51
628.76	74.90
628.91	32.77
629.06	53.83
629.21	72.56
629.36	67.88
629.51	28.09
629.66	35.11
629.81	0.00
629.96	51.49
630.11	39.79
630.26	133.41
630.41	88.94
630.56	4.68
630.71	7.02
630.86	42.13
631.01	102.98
631.16	21.06
631.31	9.36
631.46	42.13
631.61	32.77
631.76	77.24
631.91	114.69
632.06	77.24
632.21	44.47
632.36	42.13
632.51	107.66
632.66	72.56
632.81	39.79
632.96	49.15
633.10	37.45
633.25	28.09
633.40	35.11
633.55	84.26
633.70	51.49
633.85	65.54
634.00	63.19
634.15	18.72
634.30	81.92
634.45	2.34
634.60	51.49
634.75	60.85
634.90	65.54
635.05	32.77
635.19	60.85
635.34	30.43
635.49	91.28
635.64	100.64
635.79	110.01
635.94	58.51
636.09	91.28
636.24	93.62
636.39	77.24
636.53	102.98
636.68	9.36
636.83	42.13
636.98	4.68
637.13	21.06
637.28	46.81
637.43	44.47
637.57	67.88
637.72	0.00
637.87	42.13
638.02	142.77
638.17	16.38
638.32	28.09
638.46	98.30
638.61	0.00
638.76	60.85
638.91	91.28
639.06	16.38
639.20	131.07
639.35	14.04
639.50	72.56
639.65	30.43
639.80	119.37
639.94	39.79
640.09	98.30
640.24	72.56
640.39	70.22
640.54	63.19
640.68	60.85
640.83	107.66
640.98	126.39
641.13	67.88
641.27	91.28
641.42	42.13
641.57	58.51
641.72	58.51
641.86	124.05
642.01	77.24
642.16	67.88
642.31	51.49
642.45	32.77
642.60	112.35
642.75	72.56
642.90	98.30
643.04	95.96
643.19	56.17
643.34	112.35
643.48	53.83
643.63	88.94
643.78	0.00
643.93	11.70
644.07	25.75
644.22	88.94
644.37	39.79
644.51	58.51
644.66	91.28
644.81	56.17
644.95	56.17
645.10	32.77
645.25	79.58
645.39	126.39
645.54	28.09
645.69	53.83
645.83	28.09
645.98	128.73
646.13	58.51
646.27	72.56
646.42	77.24
646.57	44.47
646.71	114.69
646.86	86.60
647.00	107.66
647.15	81.92
647.30	128.73
647.44	11.70
647.59	58.51
647.74	16.38
647.88	53.83
648.03	7.02
648.17	53.83
648.32	39.79
648.47	0.00
648.61	49.15
648.76	79.58
648.90	46.81
649.05	25.75
649.20	51.49
649.34	4.68
649.49	37.45
649.63	72.56
649.78	0.00
649.92	46.81
650.07	46.81
650.21	30.43
650.36	88.94
650.51	51.49
650.65	91.28
650.80	67.88
650.94	72.56
651.09	70.22
651.23	28.09
651.38	39.79
651.52	0.00
651.67	67.88
651.81	88.94
651.96	0.00
652.10	56.17
652.25	0.00
652.39	60.85
652.54	0.00
652.68	0.00
652.83	60.85
652.97	0.00
653.12	70.22
653.26	0.00
653.41	35.11
653.55	72.56
653.70	98.30
653.84	46.81
653.99	16.38
654.13	63.19
654.27	53.83
654.42	60.85
654.56	56.17
654.71	161.50
654.85	79.58
655.00	67.88
655.14	93.62
655.29	35.11
655.43	30.43
655.57	53.83
655.72	91.28
655.86	30.43
656.01	60.85
656.15	91.28
656.30	95.96
656.44	46.81
656.58	0.00
656.73	0.00
656.87	11.70
657.01	0.00
657.16	72.56
657.30	84.26
657.45	28.09
657.59	25.75
657.73	56.17
657.88	23.41
658.02	121.71
658.16	79.58
658.31	23.41
658.45	77.24
658.60	100.64
658.74	46.81
658.88	60.85
659.03	74.90
659.17	4.68
659.31	53.83
659.46	79.58
659.60	74.90
659.74	126.39
659.89	32.77
660.03	56.17
660.17	0.00
660.32	84.26
660.46	37.45
660.60	72.56
660.74	58.51
660.89	46.81
661.03	11.70
661.17	65.54
661.32	60.85
661.46	107.66
661.60	7.02
661.74	37.45
661.89	37.45
662.03	30.43
662.17	51.49
662.31	44.47
662.46	11.70
662.60	70.22
662.74	95.96
662.88	23.41
663.03	51.49
663.17	51.49
663.31	72.56
663.45	91.28
663.60	7.02
663.74	25.75
663.88	9.36
664.02	16.38
664.17	67.88
664.31	51.49
664.45	0.00
664.59	95.96
664.73	91.28
664.88	0.00
665.02	117.03
665.16	86.60
665.30	105.32
665.44	44.47
665.59	70.22
665.73	67.88
665.87	70.22
666.01	4.68
666.15	35.11
666.29	0.00
666.44	9.36
666.58	35.11
666.72	112.35
666.86	74.90
667.00	39.79
667.14	98.30
667.28	93.62
667.43	56.17
667.57	70.22
667.71	88.94
667.85	70.22
667.99	42.13
668.13	39.79
668.27	53.83
668.41	58.51
668.56	81.92
668.70	95.96
668.84	9.36
668.98	42.13
669.12	102.98
669.26	37.45
669.40	60.85
669.54	39.79
669.68	91.28
669.82	63.19
669.96	37.45
670.10	74.90
670.25	4.68
670.39	84.26
670.53	95.96
670.67	30.43
670.81	91.28
670.95	42.13
671.09	81.92
671.23	65.54
671.37	184.90
671.51	60.85
671.65	0.00
671.79	56.17
671.93	100.64
672.07	58.51
672.21	0.00
672.35	4.68
672.49	14.04
672.63	65.54
672.77	60.85
672.91	58.51
673.05	72.56
673.19	67.88
673.33	0.00
673.47	74.90
673.61	39.79
673.75	95.96
673.89	18.72
674.03	0.00
674.17	0.00
674.31	30.43
674.45	23.41
674.59	9.36
674.73	98.30
674.87	0.00
675.01	32.77
675.15	58.51
675.29	16.38
675.43	28.09
675.56	42.13
675.70	53.83
675.84	44.47
675.98	72.56
676.12	18.72
676.26	88.94
676.40	21.06
676.54	77.24
676.68	0.00
676.82	25.75
676.96	0.00
677.10	91.28
677.23	56.17
677.37	63.19
677.51	21.06
677.65	58.51
677.79	0.00
677.93	30.43
678.07	4.68
678.21	53.83
678.34	42.13
678.48	58.51
678.62	0.00
678.76	53.83
678.90	88.94
679.04	9.36
679.18	102.98
679.31	37.45
679.45	7.02
679.59	32.77
679.73	23.41
679.87	23.41
680.00	77.24
680.14	81.92
680.28	56.17
680.42	88.94
680.56	0.00
680.70	0.00
680.83	23.41
680.97	63.19
681.11	140.43
681.25	135.75
681.39	86.60
681.52	60.85
681.66	91.28
681.80	16.38
681.94	46.81
682.07	91.28
682.21	77.24
682.35	79.58
682.49	25.75
682.62	7.02
682.76	0.00
682.90	25.75
683.04	81.92
683.17	67.88
683.31	77.24
683.45	72.56
683.59	32.77
683.72	14.04
683.86	51.49
684.00	30.43
684.13	30.43
684.27	9.36
684.41	65.54
684.55	91.28
684.68	81.92
684.82	112.35
684.96	0.00
685.09	58.51
685.23	86.60
685.37	35.11
685.50	0.00
685.64	23.41
685.78	100.64
685.91	42.13
686.05	105.32
686.19	9.36
686.32	79.58
686.46	0.00
686.60	60.85
686.73	88.94
686.87	53.83
687.01	126.39
687.14	0.00
687.28	0.00
687.42	0.00
687.55	11.70
687.69	2.34
687.82	0.00
687.96	16.38
688.10	56.17
688.23	65.54
688.37	65.54
688.50	63.19
688.64	67.88
688.78	0.00
688.91	4.68
689.05	4.68
689.18	51.49
689.32	7.02
689.46	0.00
689.59	58.51
689.73	51.49
689.86	56.17
690.00	16.38
690.13	65.54
690.27	70.22
690.41	63.19
690.54	30.43
690.68	0.00
690.81	88.94
690.95	53.83
691.08	74.90
691.22	0.00
691.35	14.04
691.49	51.49
691.62	0.00
691.76	128.73
691.89	11.70
692.03	0.00
692.16	0.00
692.30	56.17
692.43	0.00
692.57	0.00
692.70	44.47
692.84	53.83
692.97	84.26
693.11	0.00
693.24	42.13
693.38	114.69
693.51	86.60
693.65	72.56
693.78	72.56
693.92	81.92
694.05	21.06
694.19	35.11
694.32	0.00
694.45	35.11
694.59	37.45
694.72	9.36
694.86	18.72
694.99	51.49
695.13	49.15
695.26	28.09
695.39	91.28
695.53	32.77
695.66	63.19
695.80	21.06
695.93	53.83
696.07	51.49
696.20	28.09
696.33	88.94
696.47	4.68
696.60	95.96
696.73	9.36
696.87	65.54
697.00	79.58
697.14	4.68
697.27	18.72
697.40	51.49
697.54	35.11
697.67	9.36
697.80	0.00
697.94	28.09
698.07	32.77
698.21	126.39
698.34	0.00
698.47	9.36
698.61	53.83
698.74	25.75
698.87	9.36
699.01	39.79
699.14	51.49
699.27	65.54
699.40	37.45
699.54	0.00
699.67	9.36
699.80	53.83
699.94	58.51
700.07	0.00
700.20	53.83
700.34	51.49
700.47	23.41
700.60	60.85
700.73	37.45
700.87	0.00
701.00	72.56
701.13	91.28
701.26	23.41
701.40	11.70
701.53	23.41
701.66	81.92
701.79	37.45
701.93	98.30
702.06	42.13
702.19	67.88
702.32	49.15
702.46	149.79
702.59	28.09
702.72	65.54
702.85	51.49
702.99	88.94
703.12	0.00
703.25	0.00
703.38	67.88
703.51	0.00
703.65	0.00
703.78	0.00
703.91	49.15
704.04	0.00
704.17	58.51
704.31	30.43
704.44	9.36
704.57	16.38
704.70	72.56
704.83	21.06
704.96	18.72
705.10	51.49
705.23	25.75
>>>>>End Processed Spectral Data<<<<<
