SpectraSuite Data File
++++++++++++++++++++++++++++++++++++
Date: Fri Oct 04 12:13:29 GMT-05:00 2013
User: price-jones
Dark Spectrum Present: No
Reference Spectrum Present: No
Number of Sampled Component Spectra: 1
Spectrometers: USB2+H05261
Integration Time (usec): 10000 (USB2+H05261)
Spectra Averaged: 1 (USB2+H05261)
Boxcar Smoothing: 0 (USB2+H05261)
Correct for Electrical Dark: No (USB2+H05261)
Strobe/Lamp Enabled: No (USB2+H05261)
Correct for Detector Non-linearity: No (USB2+H05261)
Correct for Stray Light: No (USB2+H05261)
Number of Pixels in Processed Spectrum: 2048
>>>>>Begin Processed Spectral Data<<<<<
365.73	70.22
365.92	70.22
366.12	70.22
366.32	0.00
366.52	0.00
366.72	0.00
366.91	0.00
367.11	0.00
367.31	0.00
367.51	0.00
367.70	0.00
367.90	0.00
368.10	0.00
368.30	0.00
368.49	0.00
368.69	0.00
368.89	0.00
369.09	0.00
369.28	0.00
369.48	0.00
369.68	0.00
369.87	0.00
370.07	0.00
370.27	0.00
370.47	0.00
370.66	0.00
370.86	0.00
371.06	0.00
371.25	0.00
371.45	0.00
371.65	0.00
371.84	0.00
372.04	0.00
372.24	0.00
372.44	46.81
372.63	2.34
372.83	0.00
373.03	0.00
373.22	0.00
373.42	32.77
373.62	0.00
373.81	0.00
374.01	58.51
374.21	58.51
374.40	16.38
374.60	77.24
374.79	0.00
374.99	2.34
375.19	105.32
375.38	21.06
375.58	56.17
375.78	0.00
375.97	42.13
376.17	49.15
376.37	44.47
376.56	63.19
376.76	30.43
376.95	67.88
377.15	11.70
377.35	0.00
377.54	0.00
377.74	28.09
377.93	0.00
378.13	37.45
378.33	77.24
378.52	0.00
378.72	14.04
378.91	0.00
379.11	84.26
379.31	0.00
379.50	23.41
379.70	51.49
379.89	4.68
380.09	0.00
380.28	0.00
380.48	77.24
380.68	0.00
380.87	35.11
381.07	0.00
381.26	58.51
381.46	7.02
381.65	7.02
381.85	0.00
382.04	37.45
382.24	30.43
382.43	0.00
382.63	25.75
382.83	0.00
383.02	0.00
383.22	21.06
383.41	4.68
383.61	0.00
383.80	77.24
384.00	63.19
384.19	65.54
384.39	84.26
384.58	21.06
384.78	30.43
384.97	4.68
385.17	51.49
385.36	28.09
385.56	56.17
385.75	0.00
385.95	0.00
386.14	9.36
386.34	18.72
386.53	18.72
386.72	25.75
386.92	2.34
387.11	67.88
387.31	35.11
387.50	14.04
387.70	0.00
387.89	0.00
388.09	7.02
388.28	65.54
388.48	0.00
388.67	14.04
388.86	0.00
389.06	0.00
389.25	18.72
389.45	0.00
389.64	46.81
389.84	0.00
390.03	0.00
390.22	0.00
390.42	0.00
390.61	0.00
390.81	60.85
391.00	14.04
391.19	0.00
391.39	58.51
391.58	60.85
391.78	0.00
391.97	0.00
392.16	4.68
392.36	46.81
392.55	0.00
392.75	37.45
392.94	44.47
393.13	25.75
393.33	21.06
393.52	44.47
393.71	0.00
393.91	0.00
394.10	51.49
394.29	39.79
394.49	56.17
394.68	46.81
394.88	16.38
395.07	0.00
395.26	0.00
395.46	42.13
395.65	42.13
395.84	42.13
396.04	74.90
396.23	23.41
396.42	23.41
396.62	0.00
396.81	32.77
397.00	0.00
397.19	58.51
397.39	21.06
397.58	7.02
397.77	18.72
397.97	42.13
398.16	18.72
398.35	0.00
398.55	0.00
398.74	25.75
398.93	74.90
399.12	0.00
399.32	0.00
399.51	0.00
399.70	51.49
399.90	30.43
400.09	4.68
400.28	30.43
400.47	63.19
400.67	63.19
400.86	86.60
401.05	25.75
401.24	23.41
401.44	74.90
401.63	72.56
401.82	35.11
402.01	56.17
402.21	0.00
402.40	86.60
402.59	9.36
402.78	56.17
402.97	46.81
403.17	0.00
403.36	0.00
403.55	44.47
403.74	11.70
403.93	11.70
404.13	42.13
404.32	25.75
404.51	7.02
404.70	30.43
404.89	0.00
405.09	67.88
405.28	35.11
405.47	0.00
405.66	72.56
405.85	28.09
406.05	0.00
406.24	86.60
406.43	7.02
406.62	0.00
406.81	14.04
407.00	0.00
407.20	21.06
407.39	18.72
407.58	53.83
407.77	28.09
407.96	114.69
408.15	49.15
408.34	0.00
408.54	70.22
408.73	77.24
408.92	72.56
409.11	2.34
409.30	67.88
409.49	49.15
409.68	0.00
409.87	0.00
410.07	28.09
410.26	35.11
410.45	42.13
410.64	51.49
410.83	72.56
411.02	30.43
411.21	91.28
411.40	95.96
411.59	21.06
411.78	0.00
411.98	0.00
412.17	44.47
412.36	0.00
412.55	0.00
412.74	21.06
412.93	11.70
413.12	51.49
413.31	72.56
413.50	0.00
413.69	9.36
413.88	16.38
414.07	21.06
414.26	63.19
414.45	4.68
414.64	0.00
414.83	2.34
415.02	37.45
415.22	23.41
415.41	0.00
415.60	2.34
415.79	42.13
415.98	51.49
416.17	44.47
416.36	14.04
416.55	72.56
416.74	79.58
416.93	49.15
417.12	60.85
417.31	0.00
417.50	0.00
417.69	35.11
417.88	11.70
418.07	0.00
418.26	0.00
418.45	0.00
418.64	9.36
418.83	0.00
419.02	0.00
419.21	30.43
419.39	11.70
419.58	58.51
419.77	39.79
419.96	49.15
420.15	16.38
420.34	14.04
420.53	53.83
420.72	49.15
420.91	2.34
421.10	9.36
421.29	28.09
421.48	21.06
421.67	53.83
421.86	53.83
422.05	56.17
422.24	14.04
422.43	51.49
422.61	16.38
422.80	0.00
422.99	0.00
423.18	25.75
423.37	100.64
423.56	16.38
423.75	49.15
423.94	0.00
424.13	0.00
424.32	70.22
424.50	65.54
424.69	0.00
424.88	28.09
425.07	18.72
425.26	51.49
425.45	49.15
425.64	25.75
425.83	2.34
426.01	16.38
426.20	4.68
426.39	58.51
426.58	35.11
426.77	53.83
426.96	0.00
427.15	46.81
427.33	49.15
427.52	7.02
427.71	32.77
427.90	0.00
428.09	0.00
428.28	25.75
428.46	18.72
428.65	0.00
428.84	39.79
429.03	21.06
429.22	4.68
429.40	42.13
429.59	0.00
429.78	98.30
429.97	23.41
430.16	0.00
430.34	11.70
430.53	0.00
430.72	0.00
430.91	23.41
431.10	7.02
431.28	37.45
431.47	11.70
431.66	28.09
431.85	88.94
432.03	4.68
432.22	0.00
432.41	70.22
432.60	81.92
432.79	18.72
432.97	0.00
433.16	35.11
433.35	9.36
433.54	63.19
433.72	2.34
433.91	42.13
434.10	0.00
434.28	0.00
434.47	42.13
434.66	37.45
434.85	0.00
435.03	0.00
435.22	4.68
435.41	9.36
435.59	0.00
435.78	9.36
435.97	21.06
436.16	53.83
436.34	32.77
436.53	58.51
436.72	39.79
436.90	84.26
437.09	86.60
437.28	9.36
437.46	79.58
437.65	16.38
437.84	37.45
438.02	35.11
438.21	35.11
438.40	70.22
438.58	18.72
438.77	35.11
438.96	49.15
439.14	28.09
439.33	0.00
439.52	0.00
439.70	23.41
439.89	0.00
440.08	0.00
440.26	0.00
440.45	42.13
440.63	44.47
440.82	32.77
441.01	56.17
441.19	44.47
441.38	81.92
441.57	28.09
441.75	39.79
441.94	16.38
442.12	0.00
442.31	0.00
442.50	11.70
442.68	18.72
442.87	4.68
443.05	0.00
443.24	84.26
443.43	70.22
443.61	18.72
443.80	14.04
443.98	14.04
444.17	7.02
444.35	65.54
444.54	86.60
444.73	4.68
444.91	67.88
445.10	51.49
445.28	0.00
445.47	0.00
445.65	46.81
445.84	2.34
446.02	77.24
446.21	11.70
446.39	2.34
446.58	28.09
446.77	23.41
446.95	81.92
447.14	0.00
447.32	2.34
447.51	11.70
447.69	4.68
447.88	86.60
448.06	0.00
448.25	28.09
448.43	16.38
448.62	44.47
448.80	39.79
448.99	21.06
449.17	58.51
449.36	32.77
449.54	67.88
449.73	28.09
449.91	30.43
450.10	60.85
450.28	60.85
450.46	25.75
450.65	56.17
450.83	56.17
451.02	42.13
451.20	46.81
451.39	42.13
451.57	14.04
451.76	2.34
451.94	91.28
452.13	37.45
452.31	42.13
452.49	9.36
452.68	0.00
452.86	28.09
453.05	0.00
453.23	65.54
453.42	79.58
453.60	0.00
453.78	70.22
453.97	9.36
454.15	60.85
454.34	14.04
454.52	0.00
454.70	70.22
454.89	39.79
455.07	37.45
455.26	11.70
455.44	60.85
455.62	60.85
455.81	91.28
455.99	46.81
456.17	42.13
456.36	16.38
456.54	32.77
456.73	9.36
456.91	49.15
457.09	25.75
457.28	0.00
457.46	72.56
457.64	11.70
457.83	21.06
458.01	72.56
458.19	0.00
458.38	21.06
458.56	53.83
458.74	11.70
458.93	63.19
459.11	0.00
459.29	86.60
459.48	37.45
459.66	53.83
459.84	42.13
460.03	0.00
460.21	0.00
460.39	18.72
460.57	0.00
460.76	63.19
460.94	46.81
461.12	21.06
461.31	121.71
461.49	46.81
461.67	67.88
461.85	0.00
462.04	51.49
462.22	39.79
462.40	51.49
462.59	0.00
462.77	2.34
462.95	56.17
463.13	28.09
463.32	65.54
463.50	14.04
463.68	23.41
463.86	28.09
464.05	0.00
464.23	7.02
464.41	77.24
464.59	0.00
464.78	117.03
464.96	23.41
465.14	4.68
465.32	21.06
465.50	9.36
465.69	70.22
465.87	56.17
466.05	56.17
466.23	0.00
466.41	49.15
466.60	0.00
466.78	7.02
466.96	56.17
467.14	16.38
467.32	9.36
467.51	0.00
467.69	56.17
467.87	60.85
468.05	67.88
468.23	93.62
468.41	58.51
468.60	95.96
468.78	93.62
468.96	0.00
469.14	51.49
469.32	91.28
469.50	77.24
469.69	117.03
469.87	0.00
470.05	0.00
470.23	56.17
470.41	0.00
470.59	0.00
470.77	35.11
470.95	2.34
471.14	49.15
471.32	0.00
471.50	0.00
471.68	72.56
471.86	18.72
472.04	32.77
472.22	0.00
472.40	79.58
472.58	110.01
472.77	0.00
472.95	0.00
473.13	25.75
473.31	28.09
473.49	0.00
473.67	21.06
473.85	37.45
474.03	21.06
474.21	77.24
474.39	21.06
474.57	9.36
474.75	49.15
474.93	44.47
475.12	0.00
475.30	2.34
475.48	0.00
475.66	49.15
475.84	32.77
476.02	35.11
476.20	11.70
476.38	53.83
476.56	2.34
476.74	28.09
476.92	14.04
477.10	88.94
477.28	37.45
477.46	7.02
477.64	21.06
477.82	56.17
478.00	46.81
478.18	86.60
478.36	110.01
478.54	46.81
478.72	28.09
478.90	21.06
479.08	42.13
479.26	95.96
479.44	79.58
479.62	21.06
479.80	0.00
479.98	25.75
480.16	14.04
480.34	28.09
480.52	0.00
480.70	156.82
480.88	77.24
481.06	32.77
481.24	86.60
481.41	79.58
481.59	14.04
481.77	53.83
481.95	0.00
482.13	0.00
482.31	88.94
482.49	23.41
482.67	67.88
482.85	42.13
483.03	18.72
483.21	23.41
483.39	70.22
483.57	0.00
483.74	0.00
483.92	53.83
484.10	121.71
484.28	39.79
484.46	0.00
484.64	25.75
484.82	46.81
485.00	11.70
485.18	60.85
485.35	35.11
485.53	9.36
485.71	0.00
485.89	0.00
486.07	4.68
486.25	79.58
486.43	21.06
486.61	70.22
486.78	58.51
486.96	7.02
487.14	100.64
487.32	72.56
487.50	25.75
487.68	58.51
487.85	39.79
488.03	16.38
488.21	102.98
488.39	23.41
488.57	18.72
488.75	81.92
488.92	42.13
489.10	0.00
489.28	65.54
489.46	39.79
489.64	88.94
489.81	72.56
489.99	30.43
490.17	0.00
490.35	21.06
490.53	11.70
490.70	30.43
490.88	21.06
491.06	0.00
491.24	14.04
491.41	88.94
491.59	25.75
491.77	42.13
491.95	0.00
492.13	0.00
492.30	86.60
492.48	46.81
492.66	60.85
492.84	74.90
493.01	81.92
493.19	32.77
493.37	49.15
493.54	67.88
493.72	60.85
493.90	46.81
494.08	72.56
494.25	35.11
494.43	107.66
494.61	23.41
494.79	86.60
494.96	42.13
495.14	119.37
495.32	39.79
495.49	0.00
495.67	18.72
495.85	37.45
496.02	28.09
496.20	0.00
496.38	81.92
496.55	21.06
496.73	7.02
496.91	21.06
497.09	35.11
497.26	63.19
497.44	63.19
497.62	0.00
497.79	70.22
497.97	70.22
498.14	58.51
498.32	88.94
498.50	65.54
498.67	56.17
498.85	35.11
499.03	2.34
499.20	7.02
499.38	72.56
499.56	21.06
499.73	0.00
499.91	39.79
500.08	60.85
500.26	65.54
500.44	11.70
500.61	74.90
500.79	60.85
500.97	56.17
501.14	84.26
501.32	14.04
501.49	81.92
501.67	0.00
501.84	0.00
502.02	32.77
502.20	28.09
502.37	98.30
502.55	0.00
502.72	81.92
502.90	49.15
503.07	28.09
503.25	93.62
503.43	67.88
503.60	0.00
503.78	32.77
503.95	51.49
504.13	46.81
504.30	0.00
504.48	0.00
504.65	9.36
504.83	42.13
505.01	39.79
505.18	58.51
505.36	18.72
505.53	49.15
505.71	4.68
505.88	32.77
506.06	65.54
506.23	70.22
506.41	110.01
506.58	32.77
506.76	84.26
506.93	60.85
507.11	107.66
507.28	60.85
507.46	72.56
507.63	60.85
507.81	9.36
507.98	51.49
508.16	58.51
508.33	9.36
508.50	0.00
508.68	0.00
508.85	46.81
509.03	56.17
509.20	44.47
509.38	25.75
509.55	42.13
509.73	16.38
509.90	35.11
510.08	53.83
510.25	0.00
510.42	0.00
510.60	4.68
510.77	0.00
510.95	46.81
511.12	100.64
511.30	46.81
511.47	9.36
511.64	30.43
511.82	14.04
511.99	35.11
512.17	30.43
512.34	56.17
512.51	32.77
512.69	28.09
512.86	49.15
513.04	4.68
513.21	49.15
513.38	14.04
513.56	46.81
513.73	65.54
513.90	0.00
514.08	44.47
514.25	21.06
514.43	23.41
514.60	44.47
514.77	63.19
514.95	56.17
515.12	9.36
515.29	95.96
515.47	117.03
515.64	21.06
515.81	0.00
515.99	51.49
516.16	11.70
516.33	23.41
516.51	42.13
516.68	65.54
516.85	0.00
517.03	46.81
517.20	23.41
517.37	49.15
517.54	67.88
517.72	100.64
517.89	88.94
518.06	0.00
518.24	77.24
518.41	23.41
518.58	65.54
518.75	98.30
518.93	32.77
519.10	79.58
519.27	79.58
519.45	0.00
519.62	28.09
519.79	98.30
519.96	67.88
520.14	39.79
520.31	53.83
520.48	65.54
520.65	39.79
520.83	25.75
521.00	21.06
521.17	70.22
521.34	58.51
521.52	86.60
521.69	86.60
521.86	49.15
522.03	0.00
522.20	65.54
522.38	42.13
522.55	0.00
522.72	0.00
522.89	37.45
523.07	44.47
523.24	56.17
523.41	74.90
523.58	46.81
523.75	93.62
523.92	4.68
524.10	0.00
524.27	46.81
524.44	0.00
524.61	84.26
524.78	35.11
524.96	37.45
525.13	32.77
525.30	56.17
525.47	14.04
525.64	25.75
525.81	81.92
525.98	0.00
526.16	77.24
526.33	28.09
526.50	4.68
526.67	49.15
526.84	37.45
527.01	63.19
527.18	70.22
527.36	37.45
527.53	16.38
527.70	28.09
527.87	18.72
528.04	88.94
528.21	51.49
528.38	21.06
528.55	84.26
528.72	44.47
528.89	77.24
529.07	65.54
529.24	25.75
529.41	56.17
529.58	79.58
529.75	0.00
529.92	0.00
530.09	0.00
530.26	37.45
530.43	18.72
530.60	58.51
530.77	88.94
530.94	21.06
531.11	0.00
531.28	46.81
531.46	11.70
531.63	35.11
531.80	23.41
531.97	60.85
532.14	79.58
532.31	63.19
532.48	60.85
532.65	60.85
532.82	0.00
532.99	49.15
533.16	74.90
533.33	56.17
533.50	44.47
533.67	81.92
533.84	51.49
534.01	70.22
534.18	133.41
534.35	30.43
534.52	77.24
534.69	30.43
534.86	14.04
535.03	7.02
535.20	0.00
535.37	42.13
535.54	86.60
535.71	93.62
535.88	131.07
536.05	21.06
536.22	9.36
536.38	102.98
536.55	86.60
536.72	110.01
536.89	28.09
537.06	30.43
537.23	25.75
537.40	95.96
537.57	46.81
537.74	11.70
537.91	51.49
538.08	35.11
538.25	18.72
538.42	70.22
538.59	46.81
538.75	2.34
538.92	107.66
539.09	39.79
539.26	9.36
539.43	28.09
539.60	49.15
539.77	154.48
539.94	138.09
540.11	56.17
540.28	0.00
540.44	18.72
540.61	42.13
540.78	16.38
540.95	23.41
541.12	53.83
541.29	2.34
541.46	74.90
541.62	56.17
541.79	53.83
541.96	0.00
542.13	39.79
542.30	37.45
542.47	91.28
542.63	4.68
542.80	86.60
542.97	119.37
543.14	18.72
543.31	65.54
543.48	9.36
543.64	77.24
543.81	39.79
543.98	46.81
544.15	32.77
544.32	2.34
544.48	0.00
544.65	0.00
544.82	53.83
544.99	74.90
545.16	28.09
545.32	56.17
545.49	0.00
545.66	67.88
545.83	37.45
546.00	49.15
546.16	0.00
546.33	53.83
546.50	4.68
546.67	0.00
546.83	11.70
547.00	0.00
547.17	23.41
547.34	42.13
547.50	35.11
547.67	95.96
547.84	39.79
548.00	91.28
548.17	18.72
548.34	25.75
548.51	0.00
548.67	84.26
548.84	30.43
549.01	11.70
549.18	77.24
549.34	32.77
549.51	72.56
549.68	70.22
549.84	11.70
550.01	42.13
550.18	60.85
550.34	35.11
550.51	37.45
550.68	44.47
550.84	79.58
551.01	4.68
551.18	0.00
551.34	0.00
551.51	42.13
551.68	0.00
551.84	23.41
552.01	51.49
552.18	39.79
552.34	30.43
552.51	84.26
552.68	44.47
552.84	23.41
553.01	114.69
553.18	46.81
553.34	84.26
553.51	30.43
553.67	37.45
553.84	39.79
554.01	28.09
554.17	30.43
554.34	65.54
554.51	0.00
554.67	77.24
554.84	72.56
555.00	72.56
555.17	58.51
555.33	0.00
555.50	4.68
555.67	23.41
555.83	28.09
556.00	4.68
556.16	100.64
556.33	84.26
556.50	30.43
556.66	79.58
556.83	0.00
556.99	81.92
557.16	58.51
557.32	25.75
557.49	65.54
557.65	23.41
557.82	84.26
557.98	0.00
558.15	0.00
558.32	46.81
558.48	0.00
558.65	9.36
558.81	56.17
558.98	110.01
559.14	44.47
559.31	56.17
559.47	0.00
559.64	9.36
559.80	60.85
559.97	30.43
560.13	16.38
560.30	0.00
560.46	156.82
560.63	93.62
560.79	46.81
560.96	18.72
561.12	14.04
561.29	93.62
561.45	23.41
561.61	49.15
561.78	37.45
561.94	51.49
562.11	77.24
562.27	25.75
562.44	46.81
562.60	46.81
562.77	84.26
562.93	74.90
563.10	25.75
563.26	4.68
563.42	60.85
563.59	63.19
563.75	107.66
563.92	0.00
564.08	11.70
564.24	86.60
564.41	32.77
564.57	32.77
564.74	21.06
564.90	53.83
565.07	63.19
565.23	56.17
565.39	74.90
565.56	37.45
565.72	46.81
565.88	30.43
566.05	77.24
566.21	2.34
566.38	0.00
566.54	32.77
566.70	0.00
566.87	4.68
567.03	88.94
567.19	49.15
567.36	30.43
567.52	32.77
567.68	0.00
567.85	42.13
568.01	21.06
568.17	0.00
568.34	81.92
568.50	14.04
568.66	72.56
568.83	100.64
568.99	7.02
569.15	23.41
569.32	4.68
569.48	51.49
569.64	30.43
569.81	53.83
569.97	60.85
570.13	23.41
570.30	39.79
570.46	0.00
570.62	60.85
570.78	0.00
570.95	23.41
571.11	58.51
571.27	77.24
571.43	91.28
571.60	46.81
571.76	0.00
571.92	0.00
572.09	74.90
572.25	0.00
572.41	0.00
572.57	105.32
572.74	0.00
572.90	16.38
573.06	35.11
573.22	70.22
573.38	0.00
573.55	58.51
573.71	0.00
573.87	0.00
574.03	30.43
574.20	56.17
574.36	105.32
574.52	65.54
574.68	7.02
574.84	37.45
575.01	0.00
575.17	79.58
575.33	56.17
575.49	35.11
575.65	7.02
575.82	110.01
575.98	98.30
576.14	114.69
576.30	51.49
576.46	84.26
576.62	72.56
576.79	9.36
576.95	93.62
577.11	0.00
577.27	65.54
577.43	23.41
577.59	0.00
577.75	0.00
577.92	72.56
578.08	49.15
578.24	77.24
578.40	46.81
578.56	81.92
578.72	65.54
578.88	58.51
579.04	49.15
579.21	42.13
579.37	77.24
579.53	63.19
579.69	100.64
579.85	0.00
580.01	21.06
580.17	0.00
580.33	30.43
580.49	42.13
580.65	77.24
580.82	16.38
580.98	23.41
581.14	53.83
581.30	32.77
581.46	0.00
581.62	0.00
581.78	4.68
581.94	51.49
582.10	18.72
582.26	39.79
582.42	49.15
582.58	56.17
582.74	0.00
582.90	37.45
583.06	25.75
583.22	60.85
583.38	30.43
583.54	63.19
583.70	86.60
583.86	28.09
584.02	0.00
584.18	119.37
584.34	39.79
584.50	142.77
584.66	580.45
584.82	1179.63
584.98	1519.01
585.14	1378.58
585.30	903.45
585.46	592.16
585.62	341.72
585.78	173.20
585.94	114.69
586.10	98.30
586.26	102.98
586.42	4.68
586.58	37.45
586.74	102.98
586.90	77.24
587.06	0.00
587.22	4.68
587.38	37.45
587.54	91.28
587.70	98.30
587.86	156.82
588.02	119.37
588.18	117.03
588.34	79.58
588.49	9.36
588.65	25.75
588.81	30.43
588.97	32.77
589.13	0.00
589.29	51.49
589.45	23.41
589.61	37.45
589.77	110.01
589.93	0.00
590.08	53.83
590.24	30.43
590.40	46.81
590.56	56.17
590.72	0.00
590.88	42.13
591.04	42.13
591.20	23.41
591.35	25.75
591.51	46.81
591.67	23.41
591.83	30.43
591.99	95.96
592.15	39.79
592.31	0.00
592.46	0.00
592.62	42.13
592.78	37.45
592.94	58.51
593.10	18.72
593.26	49.15
593.41	2.34
593.57	112.35
593.73	0.00
593.89	67.88
594.05	156.82
594.20	248.10
594.36	243.42
594.52	128.73
594.68	72.56
594.84	30.43
594.99	81.92
595.15	0.00
595.31	65.54
595.47	49.15
595.62	18.72
595.78	0.00
595.94	2.34
596.10	39.79
596.25	51.49
596.41	72.56
596.57	56.17
596.73	0.00
596.88	88.94
597.04	42.13
597.20	72.56
597.36	60.85
597.51	58.51
597.67	67.88
597.83	0.00
597.99	0.00
598.14	44.47
598.30	84.26
598.46	21.06
598.61	60.85
598.77	28.09
598.93	32.77
599.09	23.41
599.24	30.43
599.40	63.19
599.56	23.41
599.71	0.00
599.87	65.54
600.03	37.45
600.18	91.28
600.34	0.00
600.50	0.00
600.65	67.88
600.81	81.92
600.97	117.03
601.12	23.41
601.28	35.11
601.44	18.72
601.59	0.00
601.75	51.49
601.91	28.09
602.06	60.85
602.22	86.60
602.37	39.79
602.53	91.28
602.69	79.58
602.84	42.13
603.00	72.56
603.16	35.11
603.31	35.11
603.47	88.94
603.62	25.75
603.78	49.15
603.94	152.13
604.09	46.81
604.25	30.43
604.40	67.88
604.56	11.70
604.71	46.81
604.87	58.51
605.03	25.75
605.18	32.77
605.34	35.11
605.49	42.13
605.65	0.00
605.80	60.85
605.96	30.43
606.12	0.00
606.27	100.64
606.43	58.51
606.58	105.32
606.74	112.35
606.89	86.60
607.05	194.26
607.20	191.92
607.36	117.03
607.51	65.54
607.67	77.24
607.82	0.00
607.98	9.36
608.13	46.81
608.29	49.15
608.44	53.83
608.60	28.09
608.75	91.28
608.91	67.88
609.06	147.45
609.22	346.40
609.37	379.17
609.53	334.70
609.68	173.20
609.84	142.77
609.99	51.49
610.15	46.81
610.30	46.81
610.46	65.54
610.61	81.92
610.76	58.51
610.92	14.04
611.07	56.17
611.23	110.01
611.38	0.00
611.54	0.00
611.69	58.51
611.84	0.00
612.00	93.62
612.15	16.38
612.31	95.96
612.46	25.75
612.62	21.06
612.77	84.26
612.92	25.75
613.08	0.00
613.23	16.38
613.39	25.75
613.54	74.90
613.69	177.88
613.85	320.65
614.00	498.53
614.15	411.93
614.31	358.10
614.46	264.48
614.62	182.56
614.77	102.98
614.92	91.28
615.08	23.41
615.23	2.34
615.38	49.15
615.54	32.77
615.69	0.00
615.84	102.98
616.00	163.84
616.15	227.03
616.30	128.73
616.46	35.11
616.61	84.26
616.76	44.47
616.92	65.54
617.07	79.58
617.22	98.30
617.37	72.56
617.53	35.11
617.68	25.75
617.83	72.56
617.99	23.41
618.14	67.88
618.29	11.70
618.45	39.79
618.60	30.43
618.75	42.13
618.90	25.75
619.06	100.64
619.21	67.88
619.36	114.69
619.51	11.70
619.67	0.00
619.82	37.45
619.97	65.54
620.12	98.30
620.28	4.68
620.43	0.00
620.58	37.45
620.73	18.72
620.89	84.26
621.04	79.58
621.19	135.75
621.34	110.01
621.49	131.07
621.65	95.96
621.80	32.77
621.95	32.77
622.10	110.01
622.25	28.09
622.41	28.09
622.56	16.38
622.71	65.54
622.86	67.88
623.01	67.88
623.16	0.00
623.32	4.68
623.47	88.94
623.62	53.83
623.77	65.54
623.92	4.68
624.07	77.24
624.23	51.49
624.38	46.81
624.53	0.00
624.68	95.96
624.83	51.49
624.98	102.98
625.13	49.15
625.29	0.00
625.44	84.26
625.59	35.11
625.74	63.19
625.89	88.94
626.04	124.05
626.19	138.09
626.34	234.05
626.49	369.80
626.65	255.12
626.80	201.29
626.95	147.45
627.10	100.64
627.25	91.28
627.40	65.54
627.55	70.22
627.70	0.00
627.85	0.00
628.00	18.72
628.15	60.85
628.30	28.09
628.45	53.83
628.60	37.45
628.76	88.94
628.91	2.34
629.06	88.94
629.21	60.85
629.36	16.38
629.51	23.41
629.66	21.06
629.81	21.06
629.96	77.24
630.11	37.45
630.26	131.07
630.41	35.11
630.56	74.90
630.71	32.77
630.86	39.79
631.01	81.92
631.16	37.45
631.31	0.00
631.46	93.62
631.61	2.34
631.76	0.00
631.91	0.00
632.06	23.41
632.21	49.15
632.36	0.00
632.51	0.00
632.66	77.24
632.81	72.56
632.96	149.79
633.10	166.18
633.25	194.26
633.40	163.84
633.55	107.66
633.70	124.05
633.85	32.77
634.00	18.72
634.15	21.06
634.30	16.38
634.45	53.83
634.60	63.19
634.75	117.03
634.90	58.51
635.05	9.36
635.19	42.13
635.34	16.38
635.49	35.11
635.64	0.00
635.79	0.00
635.94	14.04
636.09	2.34
636.24	74.90
636.39	14.04
636.53	37.45
636.68	25.75
636.83	39.79
636.98	14.04
637.13	44.47
637.28	16.38
637.43	44.47
637.57	37.45
637.72	126.39
637.87	245.76
638.02	397.89
638.17	383.85
638.32	301.93
638.46	201.29
638.61	102.98
638.76	84.26
638.91	81.92
639.06	65.54
639.20	72.56
639.35	51.49
639.50	98.30
639.65	201.29
639.80	304.27
639.94	479.81
640.09	550.03
640.24	430.66
640.39	362.78
640.54	198.95
640.68	53.83
640.83	77.24
640.98	84.26
641.13	0.00
641.27	28.09
641.42	0.00
641.57	63.19
641.72	25.75
641.86	0.00
642.01	88.94
642.16	74.90
642.31	30.43
642.45	0.00
642.60	0.00
642.75	0.00
642.90	67.88
643.04	0.00
643.19	0.00
643.34	28.09
643.48	58.51
643.63	56.17
643.78	53.83
643.93	37.45
644.07	72.56
644.22	23.41
644.37	0.00
644.51	39.79
644.66	37.45
644.81	72.56
644.95	102.98
645.10	0.00
645.25	44.47
645.39	2.34
645.54	67.88
645.69	4.68
645.83	0.00
645.98	44.47
646.13	42.13
646.27	49.15
646.42	28.09
646.57	37.45
646.71	91.28
646.86	16.38
647.00	4.68
647.15	63.19
647.30	2.34
647.44	60.85
647.59	91.28
647.74	98.30
647.88	100.64
648.03	0.00
648.17	25.75
648.32	25.75
648.47	14.04
648.61	0.00
648.76	21.06
648.90	65.54
649.05	11.70
649.20	25.75
649.34	16.38
649.49	70.22
649.63	70.22
649.78	30.43
649.92	44.47
650.07	28.09
650.21	152.13
650.36	248.10
650.51	280.86
650.65	301.93
650.80	147.45
650.94	112.35
651.09	112.35
651.23	56.17
651.38	77.24
651.52	16.38
651.67	0.00
651.81	2.34
651.96	42.13
652.10	35.11
652.25	30.43
652.39	42.13
652.54	18.72
652.68	49.15
652.83	25.75
652.97	133.41
653.12	135.75
653.26	107.66
653.41	42.13
653.55	65.54
653.70	42.13
653.84	37.45
653.99	53.83
654.13	44.47
654.27	0.00
654.42	51.49
654.56	44.47
654.71	14.04
654.85	25.75
655.00	0.00
655.14	0.00
655.29	30.43
655.43	32.77
655.57	105.32
655.72	51.49
655.86	42.13
656.01	49.15
656.15	77.24
656.30	35.11
656.44	0.00
656.58	117.03
656.73	23.41
656.87	39.79
657.01	28.09
657.16	9.36
657.30	56.17
657.45	98.30
657.59	72.56
657.73	0.00
657.88	32.77
658.02	44.47
658.16	0.00
658.31	37.45
658.45	35.11
658.60	46.81
658.74	65.54
658.88	4.68
659.03	0.00
659.17	72.56
659.31	84.26
659.46	91.28
659.60	91.28
659.74	152.13
659.89	208.31
660.03	133.41
660.17	77.24
660.32	0.00
660.46	23.41
660.60	86.60
660.74	35.11
660.89	23.41
661.03	86.60
661.17	95.96
661.32	11.70
661.46	4.68
661.60	84.26
661.74	60.85
661.89	42.13
662.03	2.34
662.17	4.68
662.31	28.09
662.46	63.19
662.60	0.00
662.74	63.19
662.88	79.58
663.03	28.09
663.17	91.28
663.31	2.34
663.45	14.04
663.60	0.00
663.74	84.26
663.88	32.77
664.02	0.00
664.17	0.00
664.31	0.00
664.45	65.54
664.59	0.00
664.73	30.43
664.88	32.77
665.02	84.26
665.16	18.72
665.30	35.11
665.44	112.35
665.59	65.54
665.73	30.43
665.87	25.75
666.01	58.51
666.15	0.00
666.29	18.72
666.44	81.92
666.58	105.32
666.72	37.45
666.86	30.43
667.00	44.47
667.14	7.02
667.28	70.22
667.43	154.48
667.57	154.48
667.71	273.84
667.85	236.39
667.99	229.37
668.13	161.50
668.27	119.37
668.41	25.75
668.56	67.88
668.70	58.51
668.84	0.00
668.98	65.54
669.12	35.11
669.26	0.00
669.40	42.13
669.54	46.81
669.68	51.49
669.82	16.38
669.96	51.49
670.10	39.79
670.25	49.15
670.39	86.60
670.53	84.26
670.67	35.11
670.81	25.75
670.95	32.77
671.09	42.13
671.23	67.88
671.37	102.98
671.51	231.71
671.65	173.20
671.79	133.41
671.93	56.17
672.07	117.03
672.21	60.85
672.35	0.00
672.49	65.54
672.63	11.70
672.77	35.11
672.91	42.13
673.05	21.06
673.19	0.00
673.33	46.81
673.47	0.00
673.61	16.38
673.75	0.00
673.89	58.51
674.03	58.51
674.17	14.04
674.31	58.51
674.45	32.77
674.59	70.22
674.73	32.77
674.87	53.83
675.01	70.22
675.15	37.45
675.29	0.00
675.43	2.34
675.56	28.09
675.70	53.83
675.84	39.79
675.98	0.00
676.12	51.49
676.26	28.09
676.40	0.00
676.54	0.00
676.68	53.83
676.82	0.00
676.96	0.00
677.10	53.83
677.23	16.38
677.37	58.51
677.51	18.72
677.65	28.09
677.79	72.56
677.93	51.49
678.07	74.90
678.21	70.22
678.34	0.00
678.48	0.00
678.62	37.45
678.76	67.88
678.90	46.81
679.04	46.81
679.18	0.00
679.31	0.00
679.45	9.36
679.59	35.11
679.73	11.70
679.87	46.81
680.00	46.81
680.14	49.15
680.28	23.41
680.42	32.77
680.56	35.11
680.70	28.09
680.83	51.49
680.97	23.41
681.11	98.30
681.25	32.77
681.39	0.00
681.52	0.00
681.66	93.62
681.80	21.06
681.94	37.45
682.07	81.92
682.21	16.38
682.35	81.92
682.49	0.00
682.62	70.22
682.76	14.04
682.90	37.45
683.04	0.00
683.17	14.04
683.31	49.15
683.45	67.88
683.59	0.00
683.72	37.45
683.86	44.47
684.00	49.15
684.13	98.30
684.27	0.00
684.41	0.00
684.55	0.00
684.68	32.77
684.82	46.81
684.96	49.15
685.09	0.00
685.23	70.22
685.37	0.00
685.50	32.77
685.64	14.04
685.78	18.72
685.91	0.00
686.05	49.15
686.19	32.77
686.32	0.00
686.46	0.00
686.60	0.00
686.73	0.00
686.87	37.45
687.01	65.54
687.14	42.13
687.28	37.45
687.42	0.00
687.55	0.00
687.69	30.43
687.82	102.98
687.96	46.81
688.10	11.70
688.23	107.66
688.37	65.54
688.50	0.00
688.64	102.98
688.78	93.62
688.91	0.00
689.05	81.92
689.18	2.34
689.32	23.41
689.46	32.77
689.59	44.47
689.73	42.13
689.86	32.77
690.00	0.00
690.13	0.00
690.27	107.66
690.41	44.47
690.54	42.13
690.68	39.79
690.81	72.56
690.95	0.00
691.08	11.70
691.22	49.15
691.35	14.04
691.49	0.00
691.62	11.70
691.76	42.13
691.89	0.00
692.03	0.00
692.16	18.72
692.30	81.92
692.43	30.43
692.57	117.03
692.70	149.79
692.84	95.96
692.97	140.43
693.11	86.60
693.24	65.54
693.38	107.66
693.51	44.47
693.65	4.68
693.78	28.09
693.92	93.62
694.05	77.24
694.19	4.68
694.32	23.41
694.45	32.77
694.59	84.26
694.72	28.09
694.86	28.09
694.99	65.54
695.13	70.22
695.26	56.17
695.39	14.04
695.53	79.58
695.66	0.00
695.80	39.79
695.93	0.00
696.07	105.32
696.20	23.41
696.33	0.00
696.47	93.62
696.60	42.13
696.73	42.13
696.87	28.09
697.00	93.62
697.14	21.06
697.27	28.09
697.40	88.94
697.54	74.90
697.67	39.79
697.80	23.41
697.94	16.38
698.07	74.90
698.21	16.38
698.34	0.00
698.47	49.15
698.61	37.45
698.74	30.43
698.87	60.85
699.01	58.51
699.14	51.49
699.27	7.02
699.40	0.00
699.54	18.72
699.67	23.41
699.80	49.15
699.94	91.28
700.07	79.58
700.20	7.02
700.34	0.00
700.47	0.00
700.60	49.15
700.73	72.56
700.87	74.90
701.00	49.15
701.13	53.83
701.26	16.38
701.40	14.04
701.53	28.09
701.66	0.00
701.79	0.00
701.93	79.58
702.06	28.09
702.19	77.24
702.32	21.06
702.46	65.54
702.59	39.79
702.72	14.04
702.85	112.35
702.99	140.43
703.12	255.12
703.25	243.42
703.38	180.22
703.51	182.56
703.65	112.35
703.78	84.26
703.91	77.24
704.04	53.83
704.17	63.19
704.31	67.88
704.44	37.45
704.57	0.00
704.70	35.11
704.83	28.09
704.96	21.06
705.10	67.88
705.23	95.96
>>>>>End Processed Spectral Data<<<<<
