SpectraSuite Data File
++++++++++++++++++++++++++++++++++++
Date: Fri Oct 04 12:13:37 GMT-05:00 2013
User: price-jones
Dark Spectrum Present: No
Reference Spectrum Present: No
Number of Sampled Component Spectra: 1
Spectrometers: USB2+H05261
Integration Time (usec): 10000 (USB2+H05261)
Spectra Averaged: 1 (USB2+H05261)
Boxcar Smoothing: 0 (USB2+H05261)
Correct for Electrical Dark: No (USB2+H05261)
Strobe/Lamp Enabled: No (USB2+H05261)
Correct for Detector Non-linearity: No (USB2+H05261)
Correct for Stray Light: No (USB2+H05261)
Number of Pixels in Processed Spectrum: 2048
>>>>>Begin Processed Spectral Data<<<<<
365.73	0.00
365.92	0.00
366.12	0.00
366.32	0.00
366.52	0.00
366.72	0.00
366.91	0.00
367.11	0.00
367.31	0.00
367.51	0.00
367.70	0.00
367.90	0.00
368.10	0.00
368.30	0.00
368.49	0.00
368.69	0.00
368.89	0.00
369.09	0.00
369.28	0.00
369.48	0.00
369.68	0.00
369.87	0.00
370.07	0.00
370.27	0.00
370.47	0.00
370.66	0.00
370.86	0.00
371.06	0.00
371.25	0.00
371.45	0.00
371.65	0.00
371.84	0.00
372.04	0.00
372.24	21.06
372.44	0.00
372.63	0.00
372.83	0.00
373.03	0.00
373.22	51.49
373.42	0.00
373.62	11.70
373.81	14.04
374.01	0.00
374.21	72.56
374.40	2.34
374.60	60.85
374.79	65.54
374.99	39.79
375.19	107.66
375.38	32.77
375.58	35.11
375.78	44.47
375.97	60.85
376.17	37.45
376.37	91.28
376.56	0.00
376.76	18.72
376.95	37.45
377.15	42.13
377.35	42.13
377.54	9.36
377.74	35.11
377.93	0.00
378.13	0.00
378.33	0.00
378.52	9.36
378.72	46.81
378.91	21.06
379.11	0.00
379.31	0.00
379.50	0.00
379.70	42.13
379.89	23.41
380.09	42.13
380.28	0.00
380.48	67.88
380.68	98.30
380.87	23.41
381.07	51.49
381.26	2.34
381.46	4.68
381.65	88.94
381.85	14.04
382.04	35.11
382.24	7.02
382.43	0.00
382.63	0.00
382.83	63.19
383.02	0.00
383.22	25.75
383.41	7.02
383.61	18.72
383.80	0.00
384.00	4.68
384.19	44.47
384.39	84.26
384.58	0.00
384.78	35.11
384.97	0.00
385.17	18.72
385.36	0.00
385.56	11.70
385.75	65.54
385.95	9.36
386.14	0.00
386.34	60.85
386.53	0.00
386.72	37.45
386.92	4.68
387.11	46.81
387.31	0.00
387.50	60.85
387.70	35.11
387.89	30.43
388.09	0.00
388.28	0.00
388.48	56.17
388.67	9.36
388.86	32.77
389.06	16.38
389.25	21.06
389.45	0.00
389.64	56.17
389.84	0.00
390.03	2.34
390.22	49.15
390.42	0.00
390.61	81.92
390.81	49.15
391.00	60.85
391.19	0.00
391.39	28.09
391.58	28.09
391.78	28.09
391.97	0.00
392.16	9.36
392.36	86.60
392.55	58.51
392.75	0.00
392.94	0.00
393.13	42.13
393.33	74.90
393.52	35.11
393.71	39.79
393.91	58.51
394.10	42.13
394.29	32.77
394.49	23.41
394.68	0.00
394.88	0.00
395.07	0.00
395.26	16.38
395.46	93.62
395.65	28.09
395.84	46.81
396.04	16.38
396.23	72.56
396.42	51.49
396.62	46.81
396.81	86.60
397.00	21.06
397.19	53.83
397.39	18.72
397.58	9.36
397.77	18.72
397.97	60.85
398.16	16.38
398.35	84.26
398.55	0.00
398.74	0.00
398.93	37.45
399.12	14.04
399.32	18.72
399.51	0.00
399.70	86.60
399.90	25.75
400.09	14.04
400.28	0.00
400.47	0.00
400.67	44.47
400.86	16.38
401.05	46.81
401.24	0.00
401.44	14.04
401.63	0.00
401.82	46.81
402.01	44.47
402.21	35.11
402.40	44.47
402.59	63.19
402.78	35.11
402.97	65.54
403.17	14.04
403.36	102.98
403.55	81.92
403.74	35.11
403.93	28.09
404.13	0.00
404.32	4.68
404.51	114.69
404.70	58.51
404.89	81.92
405.09	2.34
405.28	37.45
405.47	49.15
405.66	4.68
405.85	95.96
406.05	16.38
406.24	16.38
406.43	49.15
406.62	74.90
406.81	65.54
407.00	53.83
407.20	7.02
407.39	23.41
407.58	28.09
407.77	0.00
407.96	70.22
408.15	11.70
408.34	70.22
408.54	14.04
408.73	81.92
408.92	0.00
409.11	63.19
409.30	14.04
409.49	4.68
409.68	67.88
409.87	60.85
410.07	32.77
410.26	56.17
410.45	2.34
410.64	4.68
410.83	16.38
411.02	56.17
411.21	0.00
411.40	49.15
411.59	16.38
411.78	91.28
411.98	65.54
412.17	84.26
412.36	32.77
412.55	70.22
412.74	51.49
412.93	77.24
413.12	32.77
413.31	37.45
413.50	77.24
413.69	30.43
413.88	58.51
414.07	21.06
414.26	46.81
414.45	0.00
414.64	53.83
414.83	67.88
415.02	23.41
415.22	105.32
415.41	32.77
415.60	119.37
415.79	42.13
415.98	114.69
416.17	42.13
416.36	84.26
416.55	53.83
416.74	49.15
416.93	53.83
417.12	25.75
417.31	110.01
417.50	7.02
417.69	44.47
417.88	67.88
418.07	2.34
418.26	25.75
418.45	9.36
418.64	70.22
418.83	72.56
419.02	72.56
419.21	128.73
419.39	56.17
419.58	11.70
419.77	84.26
419.96	25.75
420.15	0.00
420.34	28.09
420.53	42.13
420.72	72.56
420.91	74.90
421.10	2.34
421.29	0.00
421.48	4.68
421.67	46.81
421.86	58.51
422.05	2.34
422.24	42.13
422.43	56.17
422.61	9.36
422.80	16.38
422.99	0.00
423.18	0.00
423.37	147.45
423.56	58.51
423.75	65.54
423.94	0.00
424.13	60.85
424.32	14.04
424.50	67.88
424.69	9.36
424.88	23.41
425.07	23.41
425.26	0.00
425.45	42.13
425.64	70.22
425.83	25.75
426.01	39.79
426.20	0.00
426.39	65.54
426.58	88.94
426.77	70.22
426.96	0.00
427.15	100.64
427.33	28.09
427.52	0.00
427.71	28.09
427.90	58.51
428.09	14.04
428.28	11.70
428.46	39.79
428.65	11.70
428.84	0.00
429.03	46.81
429.22	60.85
429.40	79.58
429.59	35.11
429.78	110.01
429.97	79.58
430.16	2.34
430.34	0.00
430.53	84.26
430.72	72.56
430.91	0.00
431.10	46.81
431.28	105.32
431.47	60.85
431.66	88.94
431.85	44.47
432.03	18.72
432.22	74.90
432.41	60.85
432.60	56.17
432.79	37.45
432.97	100.64
433.16	114.69
433.35	0.00
433.54	65.54
433.72	32.77
433.91	42.13
434.10	67.88
434.28	30.43
434.47	30.43
434.66	0.00
434.85	30.43
435.03	37.45
435.22	14.04
435.41	35.11
435.59	63.19
435.78	77.24
435.97	81.92
436.16	46.81
436.34	11.70
436.53	16.38
436.72	51.49
436.90	9.36
437.09	32.77
437.28	81.92
437.46	84.26
437.65	72.56
437.84	18.72
438.02	14.04
438.21	72.56
438.40	21.06
438.58	112.35
438.77	67.88
438.96	74.90
439.14	53.83
439.33	77.24
439.52	58.51
439.70	58.51
439.89	2.34
440.08	42.13
440.26	0.00
440.45	44.47
440.63	124.05
440.82	72.56
441.01	30.43
441.19	81.92
441.38	51.49
441.57	35.11
441.75	0.00
441.94	51.49
442.12	49.15
442.31	46.81
442.50	0.00
442.68	105.32
442.87	0.00
443.05	44.47
443.24	86.60
443.43	9.36
443.61	9.36
443.80	72.56
443.98	37.45
444.17	9.36
444.35	18.72
444.54	102.98
444.73	84.26
444.91	88.94
445.10	95.96
445.28	51.49
445.47	63.19
445.65	25.75
445.84	77.24
446.02	32.77
446.21	86.60
446.39	58.51
446.58	56.17
446.77	77.24
446.95	58.51
447.14	28.09
447.32	30.43
447.51	0.00
447.69	44.47
447.88	91.28
448.06	0.00
448.25	49.15
448.43	91.28
448.62	37.45
448.80	112.35
448.99	14.04
449.17	93.62
449.36	0.00
449.54	88.94
449.73	65.54
449.91	86.60
450.10	58.51
450.28	16.38
450.46	0.00
450.65	7.02
450.83	25.75
451.02	58.51
451.20	42.13
451.39	149.79
451.57	70.22
451.76	63.19
451.94	93.62
452.13	91.28
452.31	37.45
452.49	30.43
452.68	72.56
452.86	74.90
453.05	32.77
453.23	11.70
453.42	0.00
453.60	159.16
453.78	44.47
453.97	4.68
454.15	110.01
454.34	56.17
454.52	119.37
454.70	74.90
454.89	91.28
455.07	95.96
455.26	21.06
455.44	51.49
455.62	42.13
455.81	86.60
455.99	42.13
456.17	39.79
456.36	72.56
456.54	23.41
456.73	51.49
456.91	58.51
457.09	9.36
457.28	56.17
457.46	44.47
457.64	28.09
457.83	32.77
458.01	28.09
458.19	25.75
458.38	0.00
458.56	35.11
458.74	77.24
458.93	112.35
459.11	30.43
459.29	100.64
459.48	65.54
459.66	70.22
459.84	93.62
460.03	86.60
460.21	60.85
460.39	67.88
460.57	95.96
460.76	0.00
460.94	105.32
461.12	65.54
461.31	98.30
461.49	49.15
461.67	65.54
461.85	98.30
462.04	44.47
462.22	77.24
462.40	105.32
462.59	30.43
462.77	0.00
462.95	46.81
463.13	60.85
463.32	35.11
463.50	0.00
463.68	21.06
463.86	84.26
464.05	49.15
464.23	58.51
464.41	114.69
464.59	86.60
464.78	0.00
464.96	0.00
465.14	95.96
465.32	0.00
465.50	58.51
465.69	0.00
465.87	21.06
466.05	58.51
466.23	37.45
466.41	42.13
466.60	98.30
466.78	35.11
466.96	93.62
467.14	0.00
467.32	39.79
467.51	0.00
467.69	0.00
467.87	112.35
468.05	84.26
468.23	63.19
468.41	65.54
468.60	44.47
468.78	91.28
468.96	79.58
469.14	49.15
469.32	0.00
469.50	51.49
469.69	44.47
469.87	7.02
470.05	102.98
470.23	56.17
470.41	63.19
470.59	32.77
470.77	51.49
470.95	14.04
471.14	93.62
471.32	70.22
471.50	32.77
471.68	63.19
471.86	32.77
472.04	21.06
472.22	58.51
472.40	4.68
472.58	84.26
472.77	72.56
472.95	46.81
473.13	18.72
473.31	14.04
473.49	102.98
473.67	88.94
473.85	56.17
474.03	84.26
474.21	0.00
474.39	0.00
474.57	25.75
474.75	114.69
474.93	74.90
475.12	91.28
475.30	67.88
475.48	56.17
475.66	4.68
475.84	114.69
476.02	51.49
476.20	16.38
476.38	70.22
476.56	67.88
476.74	53.83
476.92	74.90
477.10	44.47
477.28	32.77
477.46	32.77
477.64	11.70
477.82	51.49
478.00	14.04
478.18	4.68
478.36	112.35
478.54	16.38
478.72	67.88
478.90	18.72
479.08	131.07
479.26	14.04
479.44	79.58
479.62	35.11
479.80	25.75
479.98	42.13
480.16	32.77
480.34	65.54
480.52	95.96
480.70	81.92
480.88	91.28
481.06	95.96
481.24	0.00
481.41	67.88
481.59	49.15
481.77	67.88
481.95	117.03
482.13	18.72
482.31	77.24
482.49	112.35
482.67	114.69
482.85	56.17
483.03	51.49
483.21	0.00
483.39	107.66
483.57	25.75
483.74	0.00
483.92	91.28
484.10	28.09
484.28	110.01
484.46	93.62
484.64	147.45
484.82	100.64
485.00	23.41
485.18	0.00
485.35	74.90
485.53	49.15
485.71	112.35
485.89	95.96
486.07	119.37
486.25	93.62
486.43	93.62
486.61	49.15
486.78	39.79
486.96	23.41
487.14	79.58
487.32	102.98
487.50	21.06
487.68	131.07
487.85	46.81
488.03	18.72
488.21	112.35
488.39	28.09
488.57	88.94
488.75	77.24
488.92	124.05
489.10	63.19
489.28	79.58
489.46	142.77
489.64	149.79
489.81	25.75
489.99	63.19
490.17	72.56
490.35	119.37
490.53	114.69
490.70	138.09
490.88	124.05
491.06	100.64
491.24	110.01
491.41	88.94
491.59	56.17
491.77	133.41
491.95	81.92
492.13	93.62
492.30	60.85
492.48	42.13
492.66	138.09
492.84	102.98
493.01	84.26
493.19	65.54
493.37	58.51
493.54	60.85
493.72	35.11
493.90	131.07
494.08	105.32
494.25	81.92
494.43	58.51
494.61	60.85
494.79	105.32
494.96	110.01
495.14	119.37
495.32	86.60
495.49	56.17
495.67	95.96
495.85	93.62
496.02	81.92
496.20	100.64
496.38	100.64
496.55	81.92
496.73	114.69
496.91	93.62
497.09	88.94
497.26	21.06
497.44	126.39
497.62	39.79
497.79	170.86
497.97	28.09
498.14	0.00
498.32	88.94
498.50	49.15
498.67	67.88
498.85	53.83
499.03	23.41
499.20	56.17
499.38	37.45
499.56	16.38
499.73	74.90
499.91	42.13
500.08	67.88
500.26	74.90
500.44	11.70
500.61	49.15
500.79	81.92
500.97	58.51
501.14	77.24
501.32	53.83
501.49	49.15
501.67	91.28
501.84	86.60
502.02	70.22
502.20	98.30
502.37	102.98
502.55	95.96
502.72	77.24
502.90	14.04
503.07	56.17
503.25	51.49
503.43	67.88
503.60	105.32
503.78	117.03
503.95	74.90
504.13	93.62
504.30	102.98
504.48	102.98
504.65	84.26
504.83	67.88
505.01	86.60
505.18	53.83
505.36	84.26
505.53	102.98
505.71	30.43
505.88	149.79
506.06	126.39
506.23	100.64
506.41	56.17
506.58	49.15
506.76	67.88
506.93	58.51
507.11	30.43
507.28	25.75
507.46	42.13
507.63	102.98
507.81	65.54
507.98	60.85
508.16	58.51
508.33	173.20
508.50	98.30
508.68	60.85
508.85	117.03
509.03	81.92
509.20	86.60
509.38	56.17
509.55	51.49
509.73	23.41
509.90	98.30
510.08	84.26
510.25	46.81
510.42	42.13
510.60	105.32
510.77	79.58
510.95	145.11
511.12	161.50
511.30	70.22
511.47	72.56
511.64	112.35
511.82	70.22
511.99	128.73
512.17	37.45
512.34	51.49
512.51	30.43
512.69	72.56
512.86	0.00
513.04	95.96
513.21	81.92
513.38	88.94
513.56	124.05
513.73	84.26
513.90	86.60
514.08	124.05
514.25	91.28
514.43	147.45
514.60	49.15
514.77	67.88
514.95	81.92
515.12	145.11
515.29	124.05
515.47	175.54
515.64	77.24
515.81	65.54
515.99	100.64
516.16	91.28
516.33	74.90
516.51	63.19
516.68	49.15
516.85	49.15
517.03	107.66
517.20	77.24
517.37	110.01
517.54	25.75
517.72	100.64
517.89	91.28
518.06	88.94
518.24	161.50
518.41	51.49
518.58	16.38
518.75	88.94
518.93	86.60
519.10	95.96
519.27	84.26
519.45	121.71
519.62	105.32
519.79	119.37
519.96	56.17
520.14	60.85
520.31	49.15
520.48	56.17
520.65	84.26
520.83	72.56
521.00	112.35
521.17	95.96
521.34	70.22
521.52	44.47
521.69	128.73
521.86	133.41
522.03	77.24
522.20	53.83
522.38	49.15
522.55	138.09
522.72	95.96
522.89	56.17
523.07	93.62
523.24	100.64
523.41	53.83
523.58	100.64
523.75	81.92
523.92	98.30
524.10	112.35
524.27	63.19
524.44	58.51
524.61	46.81
524.78	77.24
524.96	60.85
525.13	133.41
525.30	107.66
525.47	84.26
525.64	70.22
525.81	93.62
525.98	102.98
526.16	102.98
526.33	63.19
526.50	4.68
526.67	72.56
526.84	114.69
527.01	42.13
527.18	91.28
527.36	42.13
527.53	63.19
527.70	86.60
527.87	126.39
528.04	88.94
528.21	91.28
528.38	84.26
528.55	23.41
528.72	88.94
528.89	126.39
529.07	77.24
529.24	98.30
529.41	84.26
529.58	117.03
529.75	88.94
529.92	100.64
530.09	117.03
530.26	53.83
530.43	60.85
530.60	86.60
530.77	84.26
530.94	222.35
531.11	51.49
531.28	63.19
531.46	98.30
531.63	84.26
531.80	63.19
531.97	86.60
532.14	100.64
532.31	98.30
532.48	124.05
532.65	107.66
532.82	88.94
532.99	180.22
533.16	154.48
533.33	58.51
533.50	93.62
533.67	124.05
533.84	70.22
534.01	128.73
534.18	100.64
534.35	0.00
534.52	95.96
534.69	126.39
534.86	72.56
535.03	114.69
535.20	79.58
535.37	91.28
535.54	77.24
535.71	9.36
535.88	117.03
536.05	86.60
536.22	44.47
536.38	60.85
536.55	63.19
536.72	100.64
536.89	81.92
537.06	93.62
537.23	152.13
537.40	0.00
537.57	18.72
537.74	67.88
537.91	63.19
538.08	126.39
538.25	119.37
538.42	84.26
538.59	60.85
538.75	35.11
538.92	72.56
539.09	60.85
539.26	110.01
539.43	124.05
539.60	93.62
539.77	42.13
539.94	72.56
540.11	67.88
540.28	51.49
540.44	100.64
540.61	58.51
540.78	93.62
540.95	60.85
541.12	18.72
541.29	102.98
541.46	49.15
541.62	79.58
541.79	100.64
541.96	25.75
542.13	18.72
542.30	65.54
542.47	98.30
542.63	107.66
542.80	163.84
542.97	117.03
543.14	65.54
543.31	56.17
543.48	91.28
543.64	84.26
543.81	63.19
543.98	70.22
544.15	117.03
544.32	56.17
544.48	51.49
544.65	46.81
544.82	95.96
544.99	95.96
545.16	42.13
545.32	56.17
545.49	60.85
545.66	63.19
545.83	112.35
546.00	110.01
546.16	100.64
546.33	74.90
546.50	60.85
546.67	79.58
546.83	100.64
547.00	42.13
547.17	74.90
547.34	86.60
547.50	39.79
547.67	131.07
547.84	98.30
548.00	77.24
548.17	21.06
548.34	133.41
548.51	117.03
548.67	81.92
548.84	107.66
549.01	98.30
549.18	32.77
549.34	42.13
549.51	42.13
549.68	121.71
549.84	74.90
550.01	42.13
550.18	107.66
550.34	131.07
550.51	60.85
550.68	117.03
550.84	133.41
551.01	63.19
551.18	98.30
551.34	56.17
551.51	98.30
551.68	93.62
551.84	67.88
552.01	107.66
552.18	100.64
552.34	67.88
552.51	79.58
552.68	133.41
552.84	138.09
553.01	105.32
553.18	60.85
553.34	72.56
553.51	39.79
553.67	53.83
553.84	152.13
554.01	145.11
554.17	95.96
554.34	138.09
554.51	105.32
554.67	100.64
554.84	98.30
555.00	79.58
555.17	28.09
555.33	133.41
555.50	98.30
555.67	121.71
555.83	65.54
556.00	117.03
556.16	121.71
556.33	86.60
556.50	124.05
556.66	88.94
556.83	119.37
556.99	42.13
557.16	60.85
557.32	72.56
557.49	60.85
557.65	149.79
557.82	114.69
557.98	114.69
558.15	105.32
558.32	42.13
558.48	53.83
558.65	44.47
558.81	46.81
558.98	112.35
559.14	98.30
559.31	23.41
559.47	32.77
559.64	98.30
559.80	35.11
559.97	53.83
560.13	9.36
560.30	18.72
560.46	65.54
560.63	70.22
560.79	93.62
560.96	102.98
561.12	81.92
561.29	74.90
561.45	72.56
561.61	67.88
561.78	126.39
561.94	88.94
562.11	74.90
562.27	91.28
562.44	86.60
562.60	63.19
562.77	30.43
562.93	100.64
563.10	114.69
563.26	16.38
563.42	88.94
563.59	49.15
563.75	100.64
563.92	86.60
564.08	107.66
564.24	110.01
564.41	35.11
564.57	128.73
564.74	93.62
564.90	121.71
565.07	102.98
565.23	58.51
565.39	72.56
565.56	140.43
565.72	0.00
565.88	154.48
566.05	67.88
566.21	93.62
566.38	121.71
566.54	79.58
566.70	72.56
566.87	95.96
567.03	114.69
567.19	107.66
567.36	156.82
567.52	49.15
567.68	98.30
567.85	23.41
568.01	112.35
568.17	93.62
568.34	79.58
568.50	56.17
568.66	149.79
568.83	105.32
568.99	86.60
569.15	114.69
569.32	11.70
569.48	63.19
569.64	30.43
569.81	98.30
569.97	105.32
570.13	4.68
570.30	117.03
570.46	67.88
570.62	7.02
570.78	58.51
570.95	124.05
571.11	0.00
571.27	124.05
571.43	32.77
571.60	81.92
571.76	65.54
571.92	81.92
572.09	98.30
572.25	42.13
572.41	100.64
572.57	117.03
572.74	67.88
572.90	112.35
573.06	100.64
573.22	95.96
573.38	42.13
573.55	44.47
573.71	51.49
573.87	86.60
574.03	70.22
574.20	30.43
574.36	49.15
574.52	51.49
574.68	110.01
574.84	102.98
575.01	121.71
575.17	117.03
575.33	88.94
575.49	42.13
575.65	93.62
575.82	131.07
575.98	21.06
576.14	58.51
576.30	46.81
576.46	142.77
576.62	98.30
576.79	58.51
576.95	28.09
577.11	35.11
577.27	65.54
577.43	140.43
577.59	126.39
577.75	21.06
577.92	112.35
578.08	25.75
578.24	131.07
578.40	32.77
578.56	72.56
578.72	81.92
578.88	28.09
579.04	16.38
579.21	112.35
579.37	117.03
579.53	81.92
579.69	60.85
579.85	51.49
580.01	51.49
580.17	79.58
580.33	88.94
580.49	39.79
580.65	37.45
580.82	60.85
580.98	98.30
581.14	72.56
581.30	100.64
581.46	74.90
581.62	110.01
581.78	32.77
581.94	98.30
582.10	70.22
582.26	77.24
582.42	114.69
582.58	0.00
582.74	42.13
582.90	128.73
583.06	91.28
583.22	133.41
583.38	149.79
583.54	168.52
583.70	95.96
583.86	18.72
584.02	163.84
584.18	112.35
584.34	23.41
584.50	119.37
584.66	105.32
584.82	133.41
584.98	32.77
585.14	30.43
585.30	14.04
585.46	77.24
585.62	72.56
585.78	84.26
585.94	25.75
586.10	65.54
586.26	49.15
586.42	91.28
586.58	95.96
586.74	117.03
586.90	35.11
587.06	126.39
587.22	124.05
587.38	28.09
587.54	95.96
587.70	32.77
587.86	35.11
588.02	0.00
588.18	91.28
588.34	14.04
588.49	49.15
588.65	30.43
588.81	30.43
588.97	110.01
589.13	81.92
589.29	37.45
589.45	28.09
589.61	28.09
589.77	30.43
589.93	28.09
590.08	72.56
590.24	133.41
590.40	72.56
590.56	23.41
590.72	91.28
590.88	70.22
591.04	18.72
591.20	39.79
591.35	0.00
591.51	74.90
591.67	53.83
591.83	11.70
591.99	30.43
592.15	91.28
592.31	42.13
592.46	0.00
592.62	65.54
592.78	42.13
592.94	46.81
593.10	21.06
593.26	7.02
593.41	100.64
593.57	114.69
593.73	16.38
593.89	53.83
594.05	49.15
594.20	91.28
594.36	100.64
594.52	9.36
594.68	39.79
594.84	110.01
594.99	105.32
595.15	11.70
595.31	81.92
595.47	84.26
595.62	93.62
595.78	56.17
595.94	110.01
596.10	37.45
596.25	65.54
596.41	135.75
596.57	100.64
596.73	32.77
596.88	28.09
597.04	98.30
597.20	72.56
597.36	86.60
597.51	30.43
597.67	51.49
597.83	53.83
597.99	121.71
598.14	21.06
598.30	114.69
598.46	86.60
598.61	63.19
598.77	86.60
598.93	46.81
599.09	35.11
599.24	37.45
599.40	0.00
599.56	51.49
599.71	56.17
599.87	25.75
600.03	42.13
600.18	70.22
600.34	28.09
600.50	124.05
600.65	65.54
600.81	32.77
600.97	37.45
601.12	58.51
601.28	67.88
601.44	95.96
601.59	60.85
601.75	0.00
601.91	70.22
602.06	39.79
602.22	86.60
602.37	60.85
602.53	105.32
602.69	88.94
602.84	58.51
603.00	32.77
603.16	7.02
603.31	124.05
603.47	44.47
603.62	14.04
603.78	14.04
603.94	58.51
604.09	161.50
604.25	98.30
604.40	124.05
604.56	102.98
604.71	23.41
604.87	67.88
605.03	105.32
605.18	67.88
605.34	2.34
605.49	107.66
605.65	147.45
605.80	30.43
605.96	39.79
606.12	65.54
606.27	110.01
606.43	23.41
606.58	63.19
606.74	49.15
606.89	58.51
607.05	63.19
607.20	56.17
607.36	131.07
607.51	112.35
607.67	77.24
607.82	79.58
607.98	180.22
608.13	121.71
608.29	0.00
608.44	23.41
608.60	88.94
608.75	77.24
608.91	107.66
609.06	124.05
609.22	81.92
609.37	88.94
609.53	107.66
609.68	4.68
609.84	102.98
609.99	128.73
610.15	133.41
610.30	91.28
610.46	16.38
610.61	49.15
610.76	37.45
610.92	72.56
611.07	46.81
611.23	28.09
611.38	46.81
611.54	86.60
611.69	14.04
611.84	53.83
612.00	0.00
612.15	42.13
612.31	46.81
612.46	37.45
612.62	93.62
612.77	119.37
612.92	114.69
613.08	0.00
613.23	25.75
613.39	0.00
613.54	65.54
613.69	95.96
613.85	133.41
614.00	56.17
614.15	42.13
614.31	95.96
614.46	81.92
614.62	60.85
614.77	25.75
614.92	37.45
615.08	77.24
615.23	25.75
615.38	32.77
615.54	44.47
615.69	51.49
615.84	102.98
616.00	14.04
616.15	58.51
616.30	28.09
616.46	0.00
616.61	84.26
616.76	81.92
616.92	86.60
617.07	0.00
617.22	53.83
617.37	49.15
617.53	42.13
617.68	37.45
617.83	88.94
617.99	102.98
618.14	37.45
618.29	44.47
618.45	74.90
618.60	30.43
618.75	51.49
618.90	23.41
619.06	86.60
619.21	93.62
619.36	98.30
619.51	121.71
619.67	145.11
619.82	74.90
619.97	117.03
620.12	67.88
620.28	91.28
620.43	60.85
620.58	77.24
620.73	0.00
620.89	133.41
621.04	49.15
621.19	105.32
621.34	9.36
621.49	0.00
621.65	84.26
621.80	21.06
621.95	60.85
622.10	105.32
622.25	7.02
622.41	39.79
622.56	84.26
622.71	25.75
622.86	42.13
623.01	70.22
623.16	9.36
623.32	44.47
623.47	79.58
623.62	65.54
623.77	84.26
623.92	32.77
624.07	84.26
624.23	74.90
624.38	117.03
624.53	84.26
624.68	65.54
624.83	56.17
624.98	67.88
625.13	67.88
625.29	138.09
625.44	58.51
625.59	42.13
625.74	0.00
625.89	91.28
626.04	44.47
626.19	0.00
626.34	56.17
626.49	51.49
626.65	0.00
626.80	63.19
626.95	16.38
627.10	91.28
627.25	37.45
627.40	39.79
627.55	72.56
627.70	124.05
627.85	81.92
628.00	88.94
628.15	58.51
628.30	81.92
628.45	56.17
628.60	58.51
628.76	35.11
628.91	9.36
629.06	0.00
629.21	28.09
629.36	30.43
629.51	53.83
629.66	46.81
629.81	126.39
629.96	63.19
630.11	46.81
630.26	14.04
630.41	0.00
630.56	58.51
630.71	0.00
630.86	98.30
631.01	65.54
631.16	39.79
631.31	70.22
631.46	49.15
631.61	35.11
631.76	14.04
631.91	0.00
632.06	35.11
632.21	84.26
632.36	105.32
632.51	107.66
632.66	21.06
632.81	67.88
632.96	16.38
633.10	88.94
633.25	131.07
633.40	23.41
633.55	51.49
633.70	58.51
633.85	107.66
634.00	63.19
634.15	131.07
634.30	53.83
634.45	72.56
634.60	88.94
634.75	77.24
634.90	65.54
635.05	72.56
635.19	46.81
635.34	44.47
635.49	9.36
635.64	81.92
635.79	91.28
635.94	0.00
636.09	72.56
636.24	39.79
636.39	74.90
636.53	56.17
636.68	51.49
636.83	9.36
636.98	163.84
637.13	114.69
637.28	77.24
637.43	42.13
637.57	107.66
637.72	37.45
637.87	35.11
638.02	51.49
638.17	42.13
638.32	100.64
638.46	42.13
638.61	39.79
638.76	67.88
638.91	121.71
639.06	46.81
639.20	14.04
639.35	0.00
639.50	51.49
639.65	100.64
639.80	18.72
639.94	0.00
640.09	35.11
640.24	107.66
640.39	84.26
640.54	51.49
640.68	14.04
640.83	46.81
640.98	135.75
641.13	58.51
641.27	67.88
641.42	149.79
641.57	77.24
641.72	32.77
641.86	32.77
642.01	63.19
642.16	51.49
642.31	65.54
642.45	9.36
642.60	16.38
642.75	107.66
642.90	119.37
643.04	49.15
643.19	37.45
643.34	35.11
643.48	60.85
643.63	23.41
643.78	18.72
643.93	58.51
644.07	72.56
644.22	51.49
644.37	46.81
644.51	23.41
644.66	140.43
644.81	60.85
644.95	51.49
645.10	72.56
645.25	30.43
645.39	72.56
645.54	53.83
645.69	98.30
645.83	25.75
645.98	72.56
646.13	81.92
646.27	42.13
646.42	133.41
646.57	112.35
646.71	86.60
646.86	74.90
647.00	79.58
647.15	0.00
647.30	81.92
647.44	0.00
647.59	58.51
647.74	11.70
647.88	51.49
648.03	84.26
648.17	63.19
648.32	131.07
648.47	46.81
648.61	51.49
648.76	102.98
648.90	112.35
649.05	0.00
649.20	67.88
649.34	72.56
649.49	79.58
649.63	46.81
649.78	56.17
649.92	16.38
650.07	100.64
650.21	86.60
650.36	28.09
650.51	79.58
650.65	44.47
650.80	86.60
650.94	21.06
651.09	124.05
651.23	91.28
651.38	74.90
651.52	58.51
651.67	0.00
651.81	53.83
651.96	98.30
652.10	56.17
652.25	42.13
652.39	51.49
652.54	65.54
652.68	32.77
652.83	28.09
652.97	51.49
653.12	4.68
653.26	14.04
653.41	74.90
653.55	7.02
653.70	63.19
653.84	0.00
653.99	86.60
654.13	93.62
654.27	86.60
654.42	28.09
654.56	84.26
654.71	56.17
654.85	0.00
655.00	9.36
655.14	14.04
655.29	32.77
655.43	11.70
655.57	51.49
655.72	65.54
655.86	67.88
656.01	14.04
656.15	42.13
656.30	0.00
656.44	21.06
656.58	18.72
656.73	0.00
656.87	49.15
657.01	72.56
657.16	11.70
657.30	42.13
657.45	21.06
657.59	70.22
657.73	4.68
657.88	16.38
658.02	4.68
658.16	28.09
658.31	65.54
658.45	91.28
658.60	100.64
658.74	18.72
658.88	91.28
659.03	119.37
659.17	46.81
659.31	23.41
659.46	11.70
659.60	58.51
659.74	77.24
659.89	65.54
660.03	112.35
660.17	72.56
660.32	88.94
660.46	11.70
660.60	77.24
660.74	86.60
660.89	72.56
661.03	79.58
661.17	18.72
661.32	35.11
661.46	86.60
661.60	0.00
661.74	112.35
661.89	42.13
662.03	60.85
662.17	35.11
662.31	49.15
662.46	30.43
662.60	72.56
662.74	95.96
662.88	154.48
663.03	91.28
663.17	70.22
663.31	60.85
663.45	180.22
663.60	4.68
663.74	53.83
663.88	0.00
664.02	60.85
664.17	74.90
664.31	88.94
664.45	16.38
664.59	18.72
664.73	25.75
664.88	65.54
665.02	37.45
665.16	32.77
665.30	0.00
665.44	86.60
665.59	65.54
665.73	95.96
665.87	72.56
666.01	67.88
666.15	98.30
666.29	77.24
666.44	60.85
666.58	11.70
666.72	95.96
666.86	70.22
667.00	21.06
667.14	65.54
667.28	86.60
667.43	0.00
667.57	56.17
667.71	32.77
667.85	37.45
667.99	25.75
668.13	105.32
668.27	28.09
668.41	46.81
668.56	14.04
668.70	93.62
668.84	86.60
668.98	9.36
669.12	46.81
669.26	107.66
669.40	16.38
669.54	60.85
669.68	63.19
669.82	53.83
669.96	72.56
670.10	39.79
670.25	49.15
670.39	74.90
670.53	30.43
670.67	79.58
670.81	60.85
670.95	77.24
671.09	49.15
671.23	21.06
671.37	51.49
671.51	42.13
671.65	23.41
671.79	56.17
671.93	0.00
672.07	74.90
672.21	42.13
672.35	14.04
672.49	0.00
672.63	46.81
672.77	98.30
672.91	18.72
673.05	170.86
673.19	114.69
673.33	49.15
673.47	84.26
673.61	28.09
673.75	65.54
673.89	0.00
674.03	53.83
674.17	0.00
674.31	4.68
674.45	51.49
674.59	11.70
674.73	0.00
674.87	58.51
675.01	46.81
675.15	44.47
675.29	126.39
675.43	56.17
675.56	35.11
675.70	84.26
675.84	98.30
675.98	0.00
676.12	84.26
676.26	79.58
676.40	39.79
676.54	16.38
676.68	56.17
676.82	91.28
676.96	114.69
677.10	91.28
677.23	0.00
677.37	0.00
677.51	70.22
677.65	35.11
677.79	0.00
677.93	77.24
678.07	102.98
678.21	35.11
678.34	0.00
678.48	95.96
678.62	65.54
678.76	77.24
678.90	39.79
679.04	37.45
679.18	2.34
679.31	11.70
679.45	0.00
679.59	58.51
679.73	91.28
679.87	124.05
680.00	39.79
680.14	30.43
680.28	4.68
680.42	72.56
680.56	11.70
680.70	28.09
680.83	32.77
680.97	60.85
681.11	79.58
681.25	37.45
681.39	124.05
681.52	63.19
681.66	0.00
681.80	63.19
681.94	98.30
682.07	30.43
682.21	86.60
682.35	67.88
682.49	0.00
682.62	58.51
682.76	32.77
682.90	11.70
683.04	58.51
683.17	35.11
683.31	7.02
683.45	0.00
683.59	86.60
683.72	23.41
683.86	0.00
684.00	21.06
684.13	56.17
684.27	63.19
684.41	0.00
684.55	67.88
684.68	21.06
684.82	39.79
684.96	51.49
685.09	49.15
685.23	114.69
685.37	65.54
685.50	79.58
685.64	4.68
685.78	37.45
685.91	119.37
686.05	42.13
686.19	60.85
686.32	42.13
686.46	65.54
686.60	21.06
686.73	35.11
686.87	42.13
687.01	117.03
687.14	23.41
687.28	32.77
687.42	0.00
687.55	0.00
687.69	51.49
687.82	32.77
687.96	51.49
688.10	35.11
688.23	72.56
688.37	25.75
688.50	65.54
688.64	35.11
688.78	32.77
688.91	72.56
689.05	95.96
689.18	0.00
689.32	88.94
689.46	0.00
689.59	53.83
689.73	44.47
689.86	56.17
690.00	81.92
690.13	79.58
690.27	63.19
690.41	0.00
690.54	56.17
690.68	74.90
690.81	58.51
690.95	63.19
691.08	102.98
691.22	23.41
691.35	49.15
691.49	0.00
691.62	0.00
691.76	39.79
691.89	70.22
692.03	39.79
692.16	11.70
692.30	0.00
692.43	0.00
692.57	16.38
692.70	25.75
692.84	21.06
692.97	0.00
693.11	0.00
693.24	63.19
693.38	56.17
693.51	23.41
693.65	0.00
693.78	7.02
693.92	37.45
694.05	56.17
694.19	46.81
694.32	4.68
694.45	58.51
694.59	77.24
694.72	30.43
694.86	65.54
694.99	4.68
695.13	0.00
695.26	25.75
695.39	30.43
695.53	51.49
695.66	30.43
695.80	91.28
695.93	0.00
696.07	86.60
696.20	0.00
696.33	23.41
696.47	77.24
696.60	4.68
696.73	60.85
696.87	128.73
697.00	112.35
697.14	9.36
697.27	65.54
697.40	112.35
697.54	0.00
697.67	56.17
697.80	2.34
697.94	77.24
698.07	32.77
698.21	37.45
698.34	0.00
698.47	0.00
698.61	11.70
698.74	58.51
698.87	58.51
699.01	0.00
699.14	53.83
699.27	39.79
699.40	37.45
699.54	28.09
699.67	46.81
699.80	25.75
699.94	28.09
700.07	2.34
700.20	0.00
700.34	65.54
700.47	58.51
700.60	88.94
700.73	58.51
700.87	86.60
701.00	46.81
701.13	25.75
701.26	0.00
701.40	14.04
701.53	35.11
701.66	51.49
701.79	70.22
701.93	49.15
702.06	28.09
702.19	65.54
702.32	53.83
702.46	72.56
702.59	49.15
702.72	44.47
702.85	9.36
702.99	72.56
703.12	4.68
703.25	53.83
703.38	0.00
703.51	0.00
703.65	46.81
703.78	0.00
703.91	23.41
704.04	35.11
704.17	58.51
704.31	58.51
704.44	42.13
704.57	58.51
704.70	35.11
704.83	16.38
704.96	2.34
705.10	21.06
705.23	77.24
>>>>>End Processed Spectral Data<<<<<
