SpectraSuite Data File
++++++++++++++++++++++++++++++++++++
Date: Fri Oct 04 12:13:27 GMT-05:00 2013
User: price-jones
Dark Spectrum Present: No
Reference Spectrum Present: No
Number of Sampled Component Spectra: 1
Spectrometers: USB2+H05261
Integration Time (usec): 10000 (USB2+H05261)
Spectra Averaged: 1 (USB2+H05261)
Boxcar Smoothing: 0 (USB2+H05261)
Correct for Electrical Dark: No (USB2+H05261)
Strobe/Lamp Enabled: No (USB2+H05261)
Correct for Detector Non-linearity: No (USB2+H05261)
Correct for Stray Light: No (USB2+H05261)
Number of Pixels in Processed Spectrum: 2048
>>>>>Begin Processed Spectral Data<<<<<
365.73	0.00
365.92	0.00
366.12	0.00
366.32	0.00
366.52	0.00
366.72	0.00
366.91	0.00
367.11	0.00
367.31	0.00
367.51	0.00
367.70	0.00
367.90	0.00
368.10	0.00
368.30	0.00
368.49	0.00
368.69	0.00
368.89	0.00
369.09	0.00
369.28	0.00
369.48	0.00
369.68	0.00
369.87	0.00
370.07	0.00
370.27	0.00
370.47	0.00
370.66	0.00
370.86	0.00
371.06	0.00
371.25	0.00
371.45	0.00
371.65	44.47
371.84	0.00
372.04	21.06
372.24	0.00
372.44	0.00
372.63	18.72
372.83	0.00
373.03	21.06
373.22	0.00
373.42	18.72
373.62	25.75
373.81	21.06
374.01	37.45
374.21	49.15
374.40	39.79
374.60	0.00
374.79	0.00
374.99	39.79
375.19	0.00
375.38	0.00
375.58	0.00
375.78	70.22
375.97	35.11
376.17	44.47
376.37	21.06
376.56	0.00
376.76	4.68
376.95	46.81
377.15	84.26
377.35	35.11
377.54	35.11
377.74	23.41
377.93	0.00
378.13	7.02
378.33	9.36
378.52	32.77
378.72	42.13
378.91	9.36
379.11	0.00
379.31	0.00
379.50	0.00
379.70	0.00
379.89	0.00
380.09	100.64
380.28	0.00
380.48	0.00
380.68	18.72
380.87	35.11
381.07	0.00
381.26	46.81
381.46	0.00
381.65	0.00
381.85	9.36
382.04	16.38
382.24	7.02
382.43	18.72
382.63	86.60
382.83	25.75
383.02	0.00
383.22	11.70
383.41	56.17
383.61	42.13
383.80	0.00
384.00	0.00
384.19	0.00
384.39	14.04
384.58	0.00
384.78	63.19
384.97	0.00
385.17	51.49
385.36	0.00
385.56	0.00
385.75	23.41
385.95	0.00
386.14	18.72
386.34	0.00
386.53	18.72
386.72	65.54
386.92	0.00
387.11	28.09
387.31	67.88
387.50	0.00
387.70	53.83
387.89	0.00
388.09	14.04
388.28	30.43
388.48	2.34
388.67	0.00
388.86	49.15
389.06	0.00
389.25	63.19
389.45	0.00
389.64	0.00
389.84	46.81
390.03	30.43
390.22	14.04
390.42	74.90
390.61	0.00
390.81	58.51
391.00	30.43
391.19	105.32
391.39	0.00
391.58	23.41
391.78	56.17
391.97	11.70
392.16	0.00
392.36	93.62
392.55	18.72
392.75	32.77
392.94	0.00
393.13	4.68
393.33	0.00
393.52	7.02
393.71	23.41
393.91	42.13
394.10	7.02
394.29	32.77
394.49	39.79
394.68	14.04
394.88	42.13
395.07	49.15
395.26	0.00
395.46	23.41
395.65	44.47
395.84	35.11
396.04	0.00
396.23	14.04
396.42	51.49
396.62	23.41
396.81	23.41
397.00	49.15
397.19	16.38
397.39	7.02
397.58	16.38
397.77	7.02
397.97	39.79
398.16	84.26
398.35	23.41
398.55	25.75
398.74	0.00
398.93	0.00
399.12	11.70
399.32	46.81
399.51	14.04
399.70	9.36
399.90	25.75
400.09	91.28
400.28	30.43
400.47	42.13
400.67	0.00
400.86	0.00
401.05	7.02
401.24	0.00
401.44	0.00
401.63	49.15
401.82	58.51
402.01	42.13
402.21	16.38
402.40	9.36
402.59	18.72
402.78	100.64
402.97	63.19
403.17	14.04
403.36	44.47
403.55	28.09
403.74	44.47
403.93	79.58
404.13	25.75
404.32	51.49
404.51	21.06
404.70	0.00
404.89	23.41
405.09	58.51
405.28	9.36
405.47	49.15
405.66	0.00
405.85	0.00
406.05	21.06
406.24	0.00
406.43	72.56
406.62	46.81
406.81	42.13
407.00	72.56
407.20	0.00
407.39	0.00
407.58	44.47
407.77	86.60
407.96	95.96
408.15	0.00
408.34	0.00
408.54	0.00
408.73	0.00
408.92	21.06
409.11	35.11
409.30	0.00
409.49	39.79
409.68	0.00
409.87	65.54
410.07	0.00
410.26	56.17
410.45	88.94
410.64	60.85
410.83	65.54
411.02	11.70
411.21	0.00
411.40	0.00
411.59	11.70
411.78	32.77
411.98	44.47
412.17	51.49
412.36	44.47
412.55	35.11
412.74	0.00
412.93	35.11
413.12	21.06
413.31	32.77
413.50	39.79
413.69	102.98
413.88	0.00
414.07	88.94
414.26	0.00
414.45	39.79
414.64	0.00
414.83	11.70
415.02	9.36
415.22	9.36
415.41	35.11
415.60	0.00
415.79	44.47
415.98	0.00
416.17	49.15
416.36	37.45
416.55	0.00
416.74	35.11
416.93	58.51
417.12	0.00
417.31	0.00
417.50	30.43
417.69	28.09
417.88	9.36
418.07	0.00
418.26	14.04
418.45	0.00
418.64	67.88
418.83	70.22
419.02	86.60
419.21	35.11
419.39	86.60
419.58	0.00
419.77	0.00
419.96	98.30
420.15	39.79
420.34	37.45
420.53	0.00
420.72	42.13
420.91	0.00
421.10	14.04
421.29	7.02
421.48	28.09
421.67	37.45
421.86	56.17
422.05	44.47
422.24	7.02
422.43	23.41
422.61	74.90
422.80	44.47
422.99	37.45
423.18	18.72
423.37	44.47
423.56	42.13
423.75	4.68
423.94	63.19
424.13	53.83
424.32	70.22
424.50	35.11
424.69	91.28
424.88	65.54
425.07	7.02
425.26	37.45
425.45	93.62
425.64	0.00
425.83	63.19
426.01	16.38
426.20	0.00
426.39	30.43
426.58	79.58
426.77	46.81
426.96	18.72
427.15	39.79
427.33	0.00
427.52	51.49
427.71	51.49
427.90	53.83
428.09	0.00
428.28	18.72
428.46	23.41
428.65	0.00
428.84	9.36
429.03	7.02
429.22	0.00
429.40	102.98
429.59	0.00
429.78	4.68
429.97	28.09
430.16	67.88
430.34	16.38
430.53	49.15
430.72	70.22
430.91	32.77
431.10	0.00
431.28	49.15
431.47	23.41
431.66	49.15
431.85	39.79
432.03	0.00
432.22	63.19
432.41	9.36
432.60	88.94
432.79	79.58
432.97	51.49
433.16	25.75
433.35	0.00
433.54	0.00
433.72	14.04
433.91	23.41
434.10	11.70
434.28	0.00
434.47	21.06
434.66	70.22
434.85	21.06
435.03	0.00
435.22	28.09
435.41	32.77
435.59	25.75
435.78	30.43
435.97	9.36
436.16	0.00
436.34	0.00
436.53	53.83
436.72	0.00
436.90	63.19
437.09	18.72
437.28	67.88
437.46	2.34
437.65	138.09
437.84	0.00
438.02	44.47
438.21	65.54
438.40	44.47
438.58	9.36
438.77	39.79
438.96	30.43
439.14	72.56
439.33	0.00
439.52	60.85
439.70	14.04
439.89	16.38
440.08	23.41
440.26	14.04
440.45	74.90
440.63	9.36
440.82	60.85
441.01	23.41
441.19	18.72
441.38	4.68
441.57	25.75
441.75	11.70
441.94	30.43
442.12	0.00
442.31	51.49
442.50	21.06
442.68	11.70
442.87	60.85
443.05	42.13
443.24	21.06
443.43	18.72
443.61	32.77
443.80	84.26
443.98	44.47
444.17	0.00
444.35	44.47
444.54	58.51
444.73	67.88
444.91	93.62
445.10	0.00
445.28	0.00
445.47	65.54
445.65	44.47
445.84	23.41
446.02	30.43
446.21	72.56
446.39	56.17
446.58	65.54
446.77	0.00
446.95	0.00
447.14	35.11
447.32	60.85
447.51	18.72
447.69	28.09
447.88	35.11
448.06	23.41
448.25	32.77
448.43	11.70
448.62	0.00
448.80	0.00
448.99	11.70
449.17	49.15
449.36	11.70
449.54	63.19
449.73	25.75
449.91	0.00
450.10	42.13
450.28	88.94
450.46	46.81
450.65	16.38
450.83	58.51
451.02	0.00
451.20	7.02
451.39	51.49
451.57	7.02
451.76	0.00
451.94	32.77
452.13	102.98
452.31	44.47
452.49	37.45
452.68	28.09
452.86	35.11
453.05	70.22
453.23	112.35
453.42	21.06
453.60	58.51
453.78	18.72
453.97	35.11
454.15	18.72
454.34	0.00
454.52	72.56
454.70	119.37
454.89	11.70
455.07	0.00
455.26	0.00
455.44	0.00
455.62	16.38
455.81	37.45
455.99	67.88
456.17	0.00
456.36	23.41
456.54	9.36
456.73	28.09
456.91	2.34
457.09	128.73
457.28	53.83
457.46	51.49
457.64	67.88
457.83	42.13
458.01	16.38
458.19	18.72
458.38	18.72
458.56	2.34
458.74	0.00
458.93	0.00
459.11	74.90
459.29	0.00
459.48	0.00
459.66	7.02
459.84	32.77
460.03	51.49
460.21	93.62
460.39	30.43
460.57	84.26
460.76	79.58
460.94	35.11
461.12	0.00
461.31	0.00
461.49	79.58
461.67	14.04
461.85	2.34
462.04	0.00
462.22	2.34
462.40	81.92
462.59	74.90
462.77	0.00
462.95	9.36
463.13	65.54
463.32	0.00
463.50	0.00
463.68	25.75
463.86	0.00
464.05	0.00
464.23	28.09
464.41	32.77
464.59	51.49
464.78	25.75
464.96	0.00
465.14	0.00
465.32	0.00
465.50	0.00
465.69	42.13
465.87	81.92
466.05	14.04
466.23	25.75
466.41	16.38
466.60	35.11
466.78	23.41
466.96	21.06
467.14	56.17
467.32	46.81
467.51	67.88
467.69	0.00
467.87	0.00
468.05	74.90
468.23	35.11
468.41	67.88
468.60	35.11
468.78	0.00
468.96	0.00
469.14	51.49
469.32	72.56
469.50	70.22
469.69	53.83
469.87	30.43
470.05	0.00
470.23	0.00
470.41	44.47
470.59	77.24
470.77	0.00
470.95	100.64
471.14	32.77
471.32	23.41
471.50	7.02
471.68	2.34
471.86	28.09
472.04	0.00
472.22	0.00
472.40	46.81
472.58	53.83
472.77	30.43
472.95	9.36
473.13	18.72
473.31	70.22
473.49	63.19
473.67	58.51
473.85	14.04
474.03	86.60
474.21	72.56
474.39	0.00
474.57	51.49
474.75	56.17
474.93	0.00
475.12	28.09
475.30	25.75
475.48	7.02
475.66	9.36
475.84	74.90
476.02	0.00
476.20	42.13
476.38	18.72
476.56	105.32
476.74	74.90
476.92	14.04
477.10	23.41
477.28	21.06
477.46	49.15
477.64	21.06
477.82	32.77
478.00	32.77
478.18	63.19
478.36	0.00
478.54	53.83
478.72	16.38
478.90	16.38
479.08	53.83
479.26	0.00
479.44	0.00
479.62	0.00
479.80	30.43
479.98	9.36
480.16	42.13
480.34	37.45
480.52	51.49
480.70	60.85
480.88	84.26
481.06	63.19
481.24	4.68
481.41	70.22
481.59	67.88
481.77	7.02
481.95	0.00
482.13	14.04
482.31	81.92
482.49	7.02
482.67	0.00
482.85	4.68
483.03	56.17
483.21	35.11
483.39	18.72
483.57	7.02
483.74	37.45
483.92	23.41
484.10	51.49
484.28	51.49
484.46	30.43
484.64	42.13
484.82	46.81
485.00	4.68
485.18	0.00
485.35	0.00
485.53	51.49
485.71	44.47
485.89	46.81
486.07	14.04
486.25	0.00
486.43	11.70
486.61	0.00
486.78	4.68
486.96	0.00
487.14	0.00
487.32	0.00
487.50	21.06
487.68	30.43
487.85	44.47
488.03	0.00
488.21	86.60
488.39	16.38
488.57	86.60
488.75	58.51
488.92	107.66
489.10	49.15
489.28	42.13
489.46	0.00
489.64	0.00
489.81	14.04
489.99	9.36
490.17	56.17
490.35	9.36
490.53	2.34
490.70	0.00
490.88	16.38
491.06	16.38
491.24	11.70
491.41	11.70
491.59	21.06
491.77	72.56
491.95	18.72
492.13	0.00
492.30	0.00
492.48	23.41
492.66	84.26
492.84	9.36
493.01	72.56
493.19	9.36
493.37	77.24
493.54	9.36
493.72	42.13
493.90	23.41
494.08	0.00
494.25	28.09
494.43	0.00
494.61	35.11
494.79	63.19
494.96	11.70
495.14	60.85
495.32	74.90
495.49	37.45
495.67	63.19
495.85	58.51
496.02	0.00
496.20	58.51
496.38	37.45
496.55	70.22
496.73	0.00
496.91	16.38
497.09	95.96
497.26	35.11
497.44	110.01
497.62	0.00
497.79	25.75
497.97	124.05
498.14	0.00
498.32	46.81
498.50	2.34
498.67	32.77
498.85	0.00
499.03	42.13
499.20	32.77
499.38	79.58
499.56	65.54
499.73	91.28
499.91	81.92
500.08	86.60
500.26	42.13
500.44	65.54
500.61	0.00
500.79	70.22
500.97	79.58
501.14	16.38
501.32	56.17
501.49	39.79
501.67	0.00
501.84	0.00
502.02	11.70
502.20	60.85
502.37	32.77
502.55	131.07
502.72	11.70
502.90	49.15
503.07	88.94
503.25	91.28
503.43	51.49
503.60	39.79
503.78	0.00
503.95	58.51
504.13	14.04
504.30	0.00
504.48	0.00
504.65	23.41
504.83	49.15
505.01	46.81
505.18	25.75
505.36	77.24
505.53	11.70
505.71	77.24
505.88	14.04
506.06	0.00
506.23	65.54
506.41	0.00
506.58	21.06
506.76	86.60
506.93	105.32
507.11	70.22
507.28	35.11
507.46	7.02
507.63	9.36
507.81	65.54
507.98	39.79
508.16	67.88
508.33	18.72
508.50	23.41
508.68	51.49
508.85	0.00
509.03	11.70
509.20	0.00
509.38	0.00
509.55	98.30
509.73	25.75
509.90	46.81
510.08	37.45
510.25	49.15
510.42	2.34
510.60	0.00
510.77	14.04
510.95	9.36
511.12	25.75
511.30	65.54
511.47	102.98
511.64	91.28
511.82	0.00
511.99	0.00
512.17	42.13
512.34	25.75
512.51	18.72
512.69	60.85
512.86	21.06
513.04	84.26
513.21	53.83
513.38	9.36
513.56	4.68
513.73	110.01
513.90	0.00
514.08	65.54
514.25	14.04
514.43	39.79
514.60	77.24
514.77	9.36
514.95	0.00
515.12	0.00
515.29	65.54
515.47	23.41
515.64	77.24
515.81	0.00
515.99	25.75
516.16	112.35
516.33	32.77
516.51	42.13
516.68	91.28
516.85	44.47
517.03	23.41
517.20	74.90
517.37	81.92
517.54	18.72
517.72	81.92
517.89	88.94
518.06	58.51
518.24	28.09
518.41	39.79
518.58	39.79
518.75	37.45
518.93	51.49
519.10	77.24
519.27	14.04
519.45	42.13
519.62	30.43
519.79	44.47
519.96	72.56
520.14	9.36
520.31	42.13
520.48	37.45
520.65	0.00
520.83	18.72
521.00	93.62
521.17	21.06
521.34	46.81
521.52	63.19
521.69	11.70
521.86	42.13
522.03	77.24
522.20	81.92
522.38	23.41
522.55	16.38
522.72	28.09
522.89	49.15
523.07	32.77
523.24	74.90
523.41	28.09
523.58	105.32
523.75	86.60
523.92	11.70
524.10	84.26
524.27	21.06
524.44	51.49
524.61	14.04
524.78	23.41
524.96	70.22
525.13	65.54
525.30	51.49
525.47	58.51
525.64	39.79
525.81	0.00
525.98	2.34
526.16	44.47
526.33	25.75
526.50	65.54
526.67	23.41
526.84	0.00
527.01	86.60
527.18	14.04
527.36	42.13
527.53	0.00
527.70	51.49
527.87	23.41
528.04	105.32
528.21	28.09
528.38	53.83
528.55	0.00
528.72	74.90
528.89	9.36
529.07	0.00
529.24	16.38
529.41	0.00
529.58	9.36
529.75	0.00
529.92	0.00
530.09	65.54
530.26	65.54
530.43	84.26
530.60	44.47
530.77	0.00
530.94	88.94
531.11	56.17
531.28	79.58
531.46	28.09
531.63	28.09
531.80	25.75
531.97	4.68
532.14	65.54
532.31	32.77
532.48	0.00
532.65	39.79
532.82	65.54
532.99	79.58
533.16	32.77
533.33	102.98
533.50	63.19
533.67	11.70
533.84	98.30
534.01	93.62
534.18	11.70
534.35	11.70
534.52	84.26
534.69	53.83
534.86	0.00
535.03	0.00
535.20	58.51
535.37	56.17
535.54	88.94
535.71	37.45
535.88	44.47
536.05	56.17
536.22	32.77
536.38	81.92
536.55	32.77
536.72	77.24
536.89	32.77
537.06	42.13
537.23	46.81
537.40	32.77
537.57	14.04
537.74	32.77
537.91	32.77
538.08	58.51
538.25	56.17
538.42	0.00
538.59	0.00
538.75	72.56
538.92	0.00
539.09	35.11
539.26	0.00
539.43	0.00
539.60	142.77
539.77	140.43
539.94	313.63
540.11	135.75
540.28	74.90
540.44	25.75
540.61	39.79
540.78	67.88
540.95	0.00
541.12	58.51
541.29	9.36
541.46	60.85
541.62	91.28
541.79	0.00
541.96	25.75
542.13	60.85
542.30	35.11
542.47	35.11
542.63	53.83
542.80	11.70
542.97	0.00
543.14	110.01
543.31	0.00
543.48	28.09
543.64	0.00
543.81	28.09
543.98	28.09
544.15	37.45
544.32	67.88
544.48	32.77
544.65	35.11
544.82	84.26
544.99	9.36
545.16	28.09
545.32	0.00
545.49	63.19
545.66	60.85
545.83	42.13
546.00	4.68
546.16	11.70
546.33	28.09
546.50	0.00
546.67	77.24
546.83	0.00
547.00	98.30
547.17	95.96
547.34	0.00
547.50	53.83
547.67	23.41
547.84	110.01
548.00	25.75
548.17	133.41
548.34	0.00
548.51	112.35
548.67	0.00
548.84	67.88
549.01	0.00
549.18	91.28
549.34	65.54
549.51	32.77
549.68	4.68
549.84	93.62
550.01	65.54
550.18	84.26
550.34	37.45
550.51	58.51
550.68	70.22
550.84	0.00
551.01	39.79
551.18	4.68
551.34	46.81
551.51	21.06
551.68	16.38
551.84	95.96
552.01	0.00
552.18	49.15
552.34	60.85
552.51	91.28
552.68	72.56
552.84	102.98
553.01	44.47
553.18	23.41
553.34	21.06
553.51	14.04
553.67	30.43
553.84	65.54
554.01	53.83
554.17	0.00
554.34	46.81
554.51	25.75
554.67	51.49
554.84	37.45
555.00	65.54
555.17	124.05
555.33	70.22
555.50	91.28
555.67	0.00
555.83	0.00
556.00	0.00
556.16	14.04
556.33	0.00
556.50	32.77
556.66	0.00
556.83	0.00
556.99	0.00
557.16	18.72
557.32	0.00
557.49	28.09
557.65	7.02
557.82	32.77
557.98	58.51
558.15	93.62
558.32	28.09
558.48	42.13
558.65	23.41
558.81	23.41
558.98	35.11
559.14	46.81
559.31	117.03
559.47	37.45
559.64	0.00
559.80	28.09
559.97	60.85
560.13	65.54
560.30	0.00
560.46	44.47
560.63	58.51
560.79	37.45
560.96	65.54
561.12	35.11
561.29	9.36
561.45	44.47
561.61	156.82
561.78	74.90
561.94	44.47
562.11	84.26
562.27	46.81
562.44	63.19
562.60	0.00
562.77	11.70
562.93	25.75
563.10	28.09
563.26	0.00
563.42	60.85
563.59	74.90
563.75	0.00
563.92	114.69
564.08	84.26
564.24	86.60
564.41	25.75
564.57	49.15
564.74	70.22
564.90	2.34
565.07	95.96
565.23	98.30
565.39	70.22
565.56	70.22
565.72	138.09
565.88	4.68
566.05	79.58
566.21	0.00
566.38	98.30
566.54	67.88
566.70	11.70
566.87	0.00
567.03	23.41
567.19	70.22
567.36	110.01
567.52	0.00
567.68	93.62
567.85	0.00
568.01	0.00
568.17	51.49
568.34	86.60
568.50	60.85
568.66	67.88
568.83	91.28
568.99	0.00
569.15	23.41
569.32	60.85
569.48	154.48
569.64	77.24
569.81	51.49
569.97	65.54
570.13	32.77
570.30	37.45
570.46	51.49
570.62	63.19
570.78	0.00
570.95	7.02
571.11	72.56
571.27	84.26
571.43	105.32
571.60	46.81
571.76	77.24
571.92	32.77
572.09	42.13
572.25	0.00
572.41	0.00
572.57	56.17
572.74	56.17
572.90	56.17
573.06	0.00
573.22	107.66
573.38	86.60
573.55	32.77
573.71	70.22
573.87	42.13
574.03	60.85
574.20	65.54
574.36	51.49
574.52	0.00
574.68	49.15
574.84	28.09
575.01	58.51
575.17	74.90
575.33	39.79
575.49	86.60
575.65	67.88
575.82	42.13
575.98	42.13
576.14	117.03
576.30	128.73
576.46	98.30
576.62	53.83
576.79	23.41
576.95	77.24
577.11	95.96
577.27	126.39
577.43	81.92
577.59	0.00
577.75	18.72
577.92	107.66
578.08	28.09
578.24	35.11
578.40	0.00
578.56	28.09
578.72	67.88
578.88	67.88
579.04	86.60
579.21	91.28
579.37	35.11
579.53	74.90
579.69	25.75
579.85	60.85
580.01	32.77
580.17	0.00
580.33	18.72
580.49	39.79
580.65	74.90
580.82	46.81
580.98	18.72
581.14	0.00
581.30	0.00
581.46	72.56
581.62	112.35
581.78	124.05
581.94	67.88
582.10	100.64
582.26	91.28
582.42	95.96
582.58	11.70
582.74	63.19
582.90	58.51
583.06	58.51
583.22	107.66
583.38	72.56
583.54	119.37
583.70	37.45
583.86	117.03
584.02	70.22
584.18	161.50
584.34	220.01
584.50	451.72
584.66	2890.56
584.82	7435.88
584.98	11302.45
585.14	10265.59
585.30	6415.41
585.46	3606.77
585.62	2228.19
585.78	1086.01
585.94	533.64
586.10	191.92
586.26	145.11
586.42	112.35
586.58	187.24
586.74	107.66
586.90	86.60
587.06	105.32
587.22	60.85
587.38	28.09
587.54	191.92
587.70	449.38
587.86	732.59
588.02	908.13
588.18	599.18
588.34	425.98
588.49	236.39
588.65	189.58
588.81	156.82
588.97	39.79
589.13	60.85
589.29	49.15
589.45	30.43
589.61	60.85
589.77	49.15
589.93	63.19
590.08	67.88
590.24	77.24
590.40	107.66
590.56	84.26
590.72	67.88
590.88	49.15
591.04	35.11
591.20	117.03
591.35	133.41
591.51	39.79
591.67	65.54
591.83	79.58
591.99	11.70
592.15	60.85
592.31	65.54
592.46	53.83
592.62	72.56
592.78	35.11
592.94	0.00
593.10	30.43
593.26	74.90
593.41	67.88
593.57	56.17
593.73	91.28
593.89	430.66
594.05	917.49
594.20	1406.66
594.36	1350.49
594.52	961.96
594.68	505.56
594.84	447.04
594.99	278.52
595.15	51.49
595.31	88.94
595.47	46.81
595.62	0.00
595.78	72.56
595.94	0.00
596.10	56.17
596.25	35.11
596.41	58.51
596.57	49.15
596.73	9.36
596.88	49.15
597.04	196.60
597.20	299.59
597.36	369.80
597.51	313.63
597.67	243.42
597.83	163.84
597.99	117.03
598.14	58.51
598.30	23.41
598.46	4.68
598.61	56.17
598.77	16.38
598.93	86.60
599.09	32.77
599.24	0.00
599.40	100.64
599.56	72.56
599.71	21.06
599.87	0.00
600.03	74.90
600.18	35.11
600.34	46.81
600.50	11.70
600.65	84.26
600.81	79.58
600.97	0.00
601.12	53.83
601.28	100.64
601.44	25.75
601.59	23.41
601.75	56.17
601.91	84.26
602.06	9.36
602.22	81.92
602.37	79.58
602.53	292.57
602.69	423.64
602.84	409.59
603.00	215.33
603.16	241.08
603.31	93.62
603.47	74.90
603.62	70.22
603.78	67.88
603.94	44.47
604.09	51.49
604.25	0.00
604.40	44.47
604.56	23.41
604.71	2.34
604.87	49.15
605.03	0.00
605.18	0.00
605.34	42.13
605.49	70.22
605.65	28.09
605.80	28.09
605.96	4.68
606.12	0.00
606.27	51.49
606.43	100.64
606.58	49.15
606.74	131.07
606.89	428.32
607.05	828.55
607.20	1212.40
607.36	1029.84
607.51	727.91
607.67	400.23
607.82	252.78
607.98	173.20
608.13	42.13
608.29	21.06
608.44	37.45
608.60	46.81
608.75	147.45
608.91	114.69
609.06	622.58
609.22	1432.41
609.37	2125.21
609.53	1827.96
609.68	1282.61
609.84	763.01
609.99	592.16
610.15	224.69
610.30	112.35
610.46	110.01
610.61	58.51
610.76	0.00
610.92	58.51
611.07	30.43
611.23	51.49
611.38	39.79
611.54	95.96
611.69	49.15
611.84	21.06
612.00	0.00
612.15	84.26
612.31	102.98
612.46	147.45
612.62	110.01
612.77	112.35
612.92	37.45
613.08	98.30
613.23	86.60
613.39	100.64
613.54	128.73
613.69	695.14
613.85	1727.32
614.00	3002.91
614.15	3262.71
614.31	2392.03
614.46	1575.18
614.62	1076.65
614.77	615.56
614.92	299.59
615.08	128.73
615.23	35.11
615.38	51.49
615.54	81.92
615.69	147.45
615.84	388.53
616.00	699.82
616.15	945.58
616.30	732.59
616.46	414.27
616.61	344.06
616.76	201.29
616.92	215.33
617.07	72.56
617.22	7.02
617.37	7.02
617.53	56.17
617.68	0.00
617.83	102.98
617.99	117.03
618.14	0.00
618.29	58.51
618.45	35.11
618.60	39.79
618.75	49.15
618.90	65.54
619.06	117.03
619.21	77.24
619.36	32.77
619.51	42.13
619.67	91.28
619.82	67.88
619.97	49.15
620.12	65.54
620.28	86.60
620.43	44.47
620.58	4.68
620.73	35.11
620.89	21.06
621.04	63.19
621.19	212.99
621.34	395.55
621.49	571.09
621.65	461.09
621.80	337.04
621.95	212.99
622.10	159.16
622.25	49.15
622.41	30.43
622.56	7.02
622.71	81.92
622.86	58.51
623.01	14.04
623.16	98.30
623.32	0.00
623.47	79.58
623.62	2.34
623.77	18.72
623.92	0.00
624.07	77.24
624.23	145.11
624.38	67.88
624.53	81.92
624.68	30.43
624.83	44.47
624.98	42.13
625.13	100.64
625.29	79.58
625.44	112.35
625.59	53.83
625.74	25.75
625.89	91.28
626.04	315.97
626.19	926.85
626.34	1523.69
626.49	1706.25
626.65	1376.24
626.80	910.47
626.95	559.39
627.10	428.32
627.25	196.60
627.40	119.37
627.55	88.94
627.70	51.49
627.85	37.45
628.00	0.00
628.15	88.94
628.30	79.58
628.45	32.77
628.60	72.56
628.76	25.75
628.91	67.88
629.06	72.56
629.21	11.70
629.36	65.54
629.51	0.00
629.66	77.24
629.81	79.58
629.96	140.43
630.11	402.57
630.26	475.13
630.41	507.90
630.56	320.65
630.71	149.79
630.86	212.99
631.01	39.79
631.16	30.43
631.31	25.75
631.46	44.47
631.61	0.00
631.76	91.28
631.91	88.94
632.06	112.35
632.21	67.88
632.36	95.96
632.51	25.75
632.66	14.04
632.81	212.99
632.96	528.96
633.10	968.98
633.25	1137.50
633.40	1015.79
633.55	702.16
633.70	463.43
633.85	306.61
634.00	191.92
634.15	145.11
634.30	105.32
634.45	30.43
634.60	79.58
634.75	14.04
634.90	51.49
635.05	49.15
635.19	88.94
635.34	110.01
635.49	161.50
635.64	49.15
635.79	56.17
635.94	30.43
636.09	58.51
636.24	110.01
636.39	131.07
636.53	16.38
636.68	46.81
636.83	58.51
636.98	58.51
637.13	42.13
637.28	114.69
637.43	49.15
637.57	46.81
637.72	472.79
637.87	1198.35
638.02	1954.35
638.17	2197.76
638.32	1699.23
638.46	1086.01
638.61	802.80
638.76	475.13
638.91	315.97
639.06	135.75
639.20	110.01
639.35	0.00
639.50	133.41
639.65	692.80
639.80	1834.98
639.94	3183.13
640.09	3562.30
640.24	2663.53
640.39	1778.81
640.54	1158.57
640.68	781.74
640.83	388.53
640.98	245.76
641.13	138.09
641.27	105.32
641.42	95.96
641.57	11.70
641.72	9.36
641.86	65.54
642.01	35.11
642.16	86.60
642.31	23.41
642.45	44.47
642.60	102.98
642.75	105.32
642.90	51.49
643.04	46.81
643.19	7.02
643.34	91.28
643.48	86.60
643.63	7.02
643.78	63.19
643.93	72.56
644.07	84.26
644.22	56.17
644.37	30.43
644.51	0.00
644.66	65.54
644.81	53.83
644.95	4.68
645.10	56.17
645.25	32.77
645.39	9.36
645.54	39.79
645.69	28.09
645.83	77.24
645.98	84.26
646.13	2.34
646.27	32.77
646.42	37.45
646.57	0.00
646.71	0.00
646.86	25.75
647.00	11.70
647.15	84.26
647.30	121.71
647.44	79.58
647.59	16.38
647.74	42.13
647.88	79.58
648.03	18.72
648.17	53.83
648.32	14.04
648.47	60.85
648.61	105.32
648.76	25.75
648.90	70.22
649.05	0.00
649.20	7.02
649.34	0.00
649.49	86.60
649.63	88.94
649.78	84.26
649.92	21.06
650.07	315.97
650.21	777.06
650.36	1460.49
650.51	1802.21
650.65	1413.68
650.80	1046.22
650.94	727.91
651.09	425.98
651.23	269.16
651.38	95.96
651.52	37.45
651.67	81.92
651.81	60.85
651.96	25.75
652.10	0.00
652.25	84.26
652.39	21.06
652.54	9.36
652.68	86.60
652.83	191.92
652.97	444.70
653.12	690.46
653.26	641.31
653.41	372.15
653.55	266.82
653.70	170.86
653.84	128.73
653.99	133.41
654.13	63.19
654.27	93.62
654.42	0.00
654.56	0.00
654.71	126.39
654.85	67.88
655.00	91.28
655.14	44.47
655.29	46.81
655.43	53.83
655.57	0.00
655.72	42.13
655.86	102.98
656.01	0.00
656.15	0.00
656.30	23.41
656.44	91.28
656.58	46.81
656.73	100.64
656.87	23.41
657.01	105.32
657.16	124.05
657.30	35.11
657.45	86.60
657.59	2.34
657.73	39.79
657.88	88.94
658.02	44.47
658.16	46.81
658.31	11.70
658.45	131.07
658.60	49.15
658.74	0.00
658.88	37.45
659.03	0.00
659.17	79.58
659.31	159.16
659.46	397.89
659.60	634.29
659.74	840.25
659.89	809.83
660.03	622.58
660.17	388.53
660.32	208.31
660.46	95.96
660.60	35.11
660.74	84.26
660.89	37.45
661.03	11.70
661.17	2.34
661.32	58.51
661.46	49.15
661.60	0.00
661.74	42.13
661.89	88.94
662.03	112.35
662.17	49.15
662.31	16.38
662.46	2.34
662.60	14.04
662.74	79.58
662.88	70.22
663.03	21.06
663.17	0.00
663.31	0.00
663.45	42.13
663.60	74.90
663.74	58.51
663.88	0.00
664.02	25.75
664.17	0.00
664.31	4.68
664.45	35.11
664.59	23.41
664.73	21.06
664.88	44.47
665.02	74.90
665.16	28.09
665.30	18.72
665.44	65.54
665.59	11.70
665.73	0.00
665.87	35.11
666.01	7.02
666.15	63.19
666.29	100.64
666.44	0.00
666.58	86.60
666.72	53.83
666.86	9.36
667.00	37.45
667.14	77.24
667.28	283.20
667.43	622.58
667.57	1186.65
667.71	1631.35
667.85	1299.00
667.99	896.43
668.13	664.71
668.27	456.40
668.41	194.26
668.56	126.39
668.70	42.13
668.84	58.51
668.98	23.41
669.12	30.43
669.26	70.22
669.40	18.72
669.54	0.00
669.68	51.49
669.82	44.47
669.96	37.45
670.10	51.49
670.25	53.83
670.39	0.00
670.53	0.00
670.67	49.15
670.81	98.30
670.95	0.00
671.09	74.90
671.23	245.76
671.37	622.58
671.51	844.93
671.65	1020.47
671.79	734.93
671.93	578.11
672.07	250.44
672.21	140.43
672.35	93.62
672.49	67.88
672.63	77.24
672.77	0.00
672.91	74.90
673.05	58.51
673.19	16.38
673.33	28.09
673.47	51.49
673.61	25.75
673.75	18.72
673.89	7.02
674.03	60.85
674.17	67.88
674.31	60.85
674.45	60.85
674.59	65.54
674.73	30.43
674.87	4.68
675.01	107.66
675.15	65.54
675.29	2.34
675.43	39.79
675.56	126.39
675.70	51.49
675.84	21.06
675.98	9.36
676.12	0.00
676.26	18.72
676.40	7.02
676.54	46.81
676.68	0.00
676.82	53.83
676.96	0.00
677.10	0.00
677.23	58.51
677.37	74.90
677.51	16.38
677.65	95.96
677.79	25.75
677.93	0.00
678.07	7.02
678.21	0.00
678.34	72.56
678.48	28.09
678.62	30.43
678.76	0.00
678.90	53.83
679.04	77.24
679.18	35.11
679.31	18.72
679.45	23.41
679.59	28.09
679.73	28.09
679.87	58.51
680.00	2.34
680.14	0.00
680.28	37.45
680.42	32.77
680.56	53.83
680.70	63.19
680.83	58.51
680.97	56.17
681.11	65.54
681.25	28.09
681.39	30.43
681.52	0.00
681.66	74.90
681.80	49.15
681.94	58.51
682.07	0.00
682.21	72.56
682.35	37.45
682.49	35.11
682.62	30.43
682.76	2.34
682.90	77.24
683.04	77.24
683.17	0.00
683.31	25.75
683.45	56.17
683.59	2.34
683.72	14.04
683.86	42.13
684.00	84.26
684.13	28.09
684.27	53.83
684.41	65.54
684.55	42.13
684.68	0.00
684.82	46.81
684.96	7.02
685.09	0.00
685.23	77.24
685.37	39.79
685.50	0.00
685.64	60.85
685.78	63.19
685.91	0.00
686.05	58.51
686.19	0.00
686.32	16.38
686.46	44.47
686.60	28.09
686.73	53.83
686.87	58.51
687.01	25.75
687.14	46.81
687.28	25.75
687.42	28.09
687.55	37.45
687.69	0.00
687.82	21.06
687.96	30.43
688.10	23.41
688.23	84.26
688.37	39.79
688.50	0.00
688.64	60.85
688.78	28.09
688.91	42.13
689.05	35.11
689.18	14.04
689.32	14.04
689.46	30.43
689.59	9.36
689.73	14.04
689.86	14.04
690.00	37.45
690.13	32.77
690.27	39.79
690.41	0.00
690.54	86.60
690.68	21.06
690.81	0.00
690.95	65.54
691.08	79.58
691.22	28.09
691.35	28.09
691.49	46.81
691.62	18.72
691.76	72.56
691.89	56.17
692.03	4.68
692.16	42.13
692.30	30.43
692.43	107.66
692.57	353.42
692.70	559.39
692.84	671.73
692.97	706.84
693.11	435.34
693.24	292.57
693.38	299.59
693.51	166.18
693.65	152.13
693.78	67.88
693.92	63.19
694.05	23.41
694.19	0.00
694.32	23.41
694.45	9.36
694.59	18.72
694.72	25.75
694.86	0.00
694.99	0.00
695.13	23.41
695.26	18.72
695.39	67.88
695.53	35.11
695.66	7.02
695.80	37.45
695.93	72.56
696.07	102.98
696.20	95.96
696.33	60.85
696.47	86.60
696.60	42.13
696.73	145.11
696.87	105.32
697.00	4.68
697.14	95.96
697.27	9.36
697.40	0.00
697.54	14.04
697.67	14.04
697.80	0.00
697.94	2.34
698.07	28.09
698.21	46.81
698.34	51.49
698.47	35.11
698.61	0.00
698.74	28.09
698.87	0.00
699.01	44.47
699.14	0.00
699.27	0.00
699.40	35.11
699.54	0.00
699.67	84.26
699.80	77.24
699.94	93.62
700.07	0.00
700.20	46.81
700.34	2.34
700.47	49.15
700.60	21.06
700.73	30.43
700.87	9.36
701.00	63.19
701.13	84.26
701.26	84.26
701.40	44.47
701.53	63.19
701.66	11.70
701.79	56.17
701.93	65.54
702.06	77.24
702.19	74.90
702.32	49.15
702.46	16.38
702.59	51.49
702.72	95.96
702.85	381.51
702.99	734.93
703.12	1240.48
703.25	1404.32
703.38	1151.54
703.51	961.96
703.65	744.29
703.78	554.71
703.91	320.65
704.04	163.84
704.17	159.16
704.31	133.41
704.44	0.00
704.57	63.19
704.70	9.36
704.83	0.00
704.96	0.00
705.10	23.41
705.23	23.41
>>>>>End Processed Spectral Data<<<<<
