SpectraSuite Data File
++++++++++++++++++++++++++++++++++++
Date: Fri Oct 04 12:13:39 GMT-05:00 2013
User: price-jones
Dark Spectrum Present: No
Reference Spectrum Present: No
Number of Sampled Component Spectra: 1
Spectrometers: USB2+H05261
Integration Time (usec): 10000 (USB2+H05261)
Spectra Averaged: 1 (USB2+H05261)
Boxcar Smoothing: 0 (USB2+H05261)
Correct for Electrical Dark: No (USB2+H05261)
Strobe/Lamp Enabled: No (USB2+H05261)
Correct for Detector Non-linearity: No (USB2+H05261)
Correct for Stray Light: No (USB2+H05261)
Number of Pixels in Processed Spectrum: 2048
>>>>>Begin Processed Spectral Data<<<<<
365.73	65.54
365.92	65.54
366.12	65.54
366.32	0.00
366.52	0.00
366.72	0.00
366.91	0.00
367.11	0.00
367.31	0.00
367.51	0.00
367.70	0.00
367.90	0.00
368.10	0.00
368.30	0.00
368.49	0.00
368.69	0.00
368.89	0.00
369.09	0.00
369.28	0.00
369.48	0.00
369.68	0.00
369.87	0.00
370.07	0.00
370.27	0.00
370.47	0.00
370.66	0.00
370.86	0.00
371.06	0.00
371.25	18.72
371.45	0.00
371.65	16.38
371.84	0.00
372.04	0.00
372.24	0.00
372.44	51.49
372.63	16.38
372.83	37.45
373.03	0.00
373.22	0.00
373.42	0.00
373.62	58.51
373.81	0.00
374.01	81.92
374.21	49.15
374.40	77.24
374.60	39.79
374.79	49.15
374.99	28.09
375.19	56.17
375.38	16.38
375.58	60.85
375.78	0.00
375.97	25.75
376.17	112.35
376.37	0.00
376.56	58.51
376.76	23.41
376.95	0.00
377.15	49.15
377.35	0.00
377.54	77.24
377.74	0.00
377.93	7.02
378.13	0.00
378.33	0.00
378.52	51.49
378.72	53.83
378.91	0.00
379.11	49.15
379.31	14.04
379.50	86.60
379.70	0.00
379.89	0.00
380.09	0.00
380.28	21.06
380.48	0.00
380.68	9.36
380.87	7.02
381.07	25.75
381.26	0.00
381.46	0.00
381.65	0.00
381.85	7.02
382.04	2.34
382.24	58.51
382.43	0.00
382.63	84.26
382.83	35.11
383.02	0.00
383.22	0.00
383.41	0.00
383.61	39.79
383.80	0.00
384.00	21.06
384.19	28.09
384.39	14.04
384.58	0.00
384.78	77.24
384.97	0.00
385.17	39.79
385.36	18.72
385.56	4.68
385.75	100.64
385.95	16.38
386.14	53.83
386.34	72.56
386.53	49.15
386.72	14.04
386.92	60.85
387.11	0.00
387.31	49.15
387.50	42.13
387.70	84.26
387.89	65.54
388.09	88.94
388.28	0.00
388.48	23.41
388.67	23.41
388.86	63.19
389.06	2.34
389.25	0.00
389.45	39.79
389.64	0.00
389.84	0.00
390.03	2.34
390.22	49.15
390.42	70.22
390.61	53.83
390.81	0.00
391.00	18.72
391.19	58.51
391.39	0.00
391.58	4.68
391.78	0.00
391.97	9.36
392.16	25.75
392.36	51.49
392.55	9.36
392.75	21.06
392.94	11.70
393.13	0.00
393.33	14.04
393.52	23.41
393.71	86.60
393.91	49.15
394.10	58.51
394.29	21.06
394.49	14.04
394.68	4.68
394.88	37.45
395.07	44.47
395.26	79.58
395.46	46.81
395.65	74.90
395.84	56.17
396.04	11.70
396.23	0.00
396.42	14.04
396.62	53.83
396.81	58.51
397.00	53.83
397.19	39.79
397.39	32.77
397.58	25.75
397.77	70.22
397.97	23.41
398.16	28.09
398.35	0.00
398.55	42.13
398.74	0.00
398.93	0.00
399.12	70.22
399.32	11.70
399.51	53.83
399.70	74.90
399.90	16.38
400.09	9.36
400.28	0.00
400.47	7.02
400.67	35.11
400.86	46.81
401.05	49.15
401.24	35.11
401.44	0.00
401.63	65.54
401.82	79.58
402.01	16.38
402.21	60.85
402.40	81.92
402.59	42.13
402.78	25.75
402.97	35.11
403.17	74.90
403.36	60.85
403.55	32.77
403.74	58.51
403.93	37.45
404.13	28.09
404.32	44.47
404.51	60.85
404.70	49.15
404.89	58.51
405.09	0.00
405.28	0.00
405.47	0.00
405.66	0.00
405.85	23.41
406.05	39.79
406.24	72.56
406.43	2.34
406.62	63.19
406.81	18.72
407.00	7.02
407.20	84.26
407.39	0.00
407.58	28.09
407.77	0.00
407.96	53.83
408.15	0.00
408.34	0.00
408.54	7.02
408.73	9.36
408.92	0.00
409.11	25.75
409.30	28.09
409.49	53.83
409.68	16.38
409.87	16.38
410.07	77.24
410.26	58.51
410.45	37.45
410.64	0.00
410.83	53.83
411.02	60.85
411.21	0.00
411.40	56.17
411.59	65.54
411.78	49.15
411.98	74.90
412.17	0.00
412.36	74.90
412.55	0.00
412.74	53.83
412.93	0.00
413.12	128.73
413.31	79.58
413.50	0.00
413.69	0.00
413.88	84.26
414.07	51.49
414.26	35.11
414.45	65.54
414.64	105.32
414.83	39.79
415.02	7.02
415.22	70.22
415.41	53.83
415.60	60.85
415.79	79.58
415.98	44.47
416.17	0.00
416.36	42.13
416.55	37.45
416.74	65.54
416.93	28.09
417.12	65.54
417.31	67.88
417.50	46.81
417.69	44.47
417.88	0.00
418.07	21.06
418.26	30.43
418.45	135.75
418.64	56.17
418.83	84.26
419.02	0.00
419.21	84.26
419.39	95.96
419.58	72.56
419.77	58.51
419.96	30.43
420.15	79.58
420.34	32.77
420.53	63.19
420.72	0.00
420.91	30.43
421.10	30.43
421.29	30.43
421.48	110.01
421.67	32.77
421.86	32.77
422.05	18.72
422.24	117.03
422.43	79.58
422.61	2.34
422.80	21.06
422.99	74.90
423.18	49.15
423.37	46.81
423.56	11.70
423.75	91.28
423.94	0.00
424.13	0.00
424.32	46.81
424.50	100.64
424.69	0.00
424.88	84.26
425.07	39.79
425.26	60.85
425.45	46.81
425.64	93.62
425.83	0.00
426.01	63.19
426.20	35.11
426.39	81.92
426.58	91.28
426.77	42.13
426.96	63.19
427.15	28.09
427.33	58.51
427.52	39.79
427.71	37.45
427.90	9.36
428.09	35.11
428.28	0.00
428.46	0.00
428.65	28.09
428.84	100.64
429.03	0.00
429.22	21.06
429.40	81.92
429.59	112.35
429.78	9.36
429.97	79.58
430.16	42.13
430.34	60.85
430.53	44.47
430.72	35.11
430.91	70.22
431.10	110.01
431.28	46.81
431.47	0.00
431.66	42.13
431.85	21.06
432.03	2.34
432.22	35.11
432.41	39.79
432.60	2.34
432.79	102.98
432.97	44.47
433.16	46.81
433.35	30.43
433.54	51.49
433.72	4.68
433.91	44.47
434.10	46.81
434.28	60.85
434.47	49.15
434.66	60.85
434.85	0.00
435.03	9.36
435.22	0.00
435.41	9.36
435.59	32.77
435.78	91.28
435.97	4.68
436.16	0.00
436.34	98.30
436.53	67.88
436.72	142.77
436.90	79.58
437.09	21.06
437.28	0.00
437.46	110.01
437.65	63.19
437.84	4.68
438.02	0.00
438.21	86.60
438.40	30.43
438.58	65.54
438.77	105.32
438.96	25.75
439.14	72.56
439.33	16.38
439.52	51.49
439.70	91.28
439.89	18.72
440.08	117.03
440.26	16.38
440.45	0.00
440.63	65.54
440.82	44.47
441.01	32.77
441.19	133.41
441.38	49.15
441.57	7.02
441.75	28.09
441.94	49.15
442.12	93.62
442.31	44.47
442.50	39.79
442.68	58.51
442.87	74.90
443.05	124.05
443.24	63.19
443.43	28.09
443.61	32.77
443.80	77.24
443.98	14.04
444.17	65.54
444.35	9.36
444.54	25.75
444.73	65.54
444.91	88.94
445.10	138.09
445.28	0.00
445.47	11.70
445.65	98.30
445.84	44.47
446.02	79.58
446.21	107.66
446.39	53.83
446.58	0.00
446.77	0.00
446.95	42.13
447.14	4.68
447.32	110.01
447.51	98.30
447.69	46.81
447.88	65.54
448.06	46.81
448.25	49.15
448.43	0.00
448.62	60.85
448.80	0.00
448.99	46.81
449.17	23.41
449.36	23.41
449.54	16.38
449.73	23.41
449.91	91.28
450.10	0.00
450.28	133.41
450.46	39.79
450.65	74.90
450.83	86.60
451.02	63.19
451.20	81.92
451.39	51.49
451.57	49.15
451.76	4.68
451.94	37.45
452.13	25.75
452.31	0.00
452.49	30.43
452.68	119.37
452.86	11.70
453.05	42.13
453.23	60.85
453.42	37.45
453.60	32.77
453.78	2.34
453.97	49.15
454.15	0.00
454.34	0.00
454.52	0.00
454.70	42.13
454.89	51.49
455.07	28.09
455.26	84.26
455.44	14.04
455.62	18.72
455.81	91.28
455.99	56.17
456.17	58.51
456.36	0.00
456.54	72.56
456.73	0.00
456.91	25.75
457.09	98.30
457.28	74.90
457.46	30.43
457.64	39.79
457.83	77.24
458.01	117.03
458.19	102.98
458.38	86.60
458.56	72.56
458.74	131.07
458.93	65.54
459.11	14.04
459.29	58.51
459.48	44.47
459.66	7.02
459.84	70.22
460.03	112.35
460.21	86.60
460.39	72.56
460.57	42.13
460.76	63.19
460.94	58.51
461.12	74.90
461.31	21.06
461.49	35.11
461.67	49.15
461.85	112.35
462.04	77.24
462.22	175.54
462.40	28.09
462.59	30.43
462.77	0.00
462.95	84.26
463.13	0.00
463.32	84.26
463.50	86.60
463.68	77.24
463.86	98.30
464.05	21.06
464.23	102.98
464.41	0.00
464.59	14.04
464.78	56.17
464.96	32.77
465.14	21.06
465.32	86.60
465.50	46.81
465.69	0.00
465.87	28.09
466.05	37.45
466.23	21.06
466.41	91.28
466.60	58.51
466.78	39.79
466.96	35.11
467.14	51.49
467.32	65.54
467.51	70.22
467.69	0.00
467.87	42.13
468.05	114.69
468.23	72.56
468.41	37.45
468.60	49.15
468.78	56.17
468.96	30.43
469.14	0.00
469.32	39.79
469.50	51.49
469.69	7.02
469.87	60.85
470.05	124.05
470.23	4.68
470.41	30.43
470.59	0.00
470.77	39.79
470.95	81.92
471.14	56.17
471.32	2.34
471.50	35.11
471.68	49.15
471.86	16.38
472.04	28.09
472.22	67.88
472.40	18.72
472.58	0.00
472.77	81.92
472.95	105.32
473.13	65.54
473.31	58.51
473.49	9.36
473.67	63.19
473.85	102.98
474.03	16.38
474.21	0.00
474.39	70.22
474.57	2.34
474.75	95.96
474.93	81.92
475.12	65.54
475.30	67.88
475.48	60.85
475.66	128.73
475.84	39.79
476.02	86.60
476.20	67.88
476.38	53.83
476.56	79.58
476.74	51.49
476.92	100.64
477.10	32.77
477.28	114.69
477.46	91.28
477.64	121.71
477.82	74.90
478.00	7.02
478.18	7.02
478.36	39.79
478.54	65.54
478.72	49.15
478.90	39.79
479.08	42.13
479.26	74.90
479.44	112.35
479.62	131.07
479.80	37.45
479.98	39.79
480.16	102.98
480.34	72.56
480.52	49.15
480.70	133.41
480.88	84.26
481.06	138.09
481.24	49.15
481.41	46.81
481.59	23.41
481.77	25.75
481.95	0.00
482.13	81.92
482.31	84.26
482.49	95.96
482.67	102.98
482.85	84.26
483.03	74.90
483.21	91.28
483.39	91.28
483.57	100.64
483.74	39.79
483.92	4.68
484.10	70.22
484.28	140.43
484.46	28.09
484.64	107.66
484.82	0.00
485.00	46.81
485.18	77.24
485.35	65.54
485.53	18.72
485.71	51.49
485.89	86.60
486.07	21.06
486.25	56.17
486.43	74.90
486.61	46.81
486.78	46.81
486.96	16.38
487.14	28.09
487.32	114.69
487.50	51.49
487.68	63.19
487.85	79.58
488.03	65.54
488.21	44.47
488.39	93.62
488.57	39.79
488.75	0.00
488.92	72.56
489.10	86.60
489.28	51.49
489.46	53.83
489.64	95.96
489.81	95.96
489.99	46.81
490.17	135.75
490.35	170.86
490.53	14.04
490.70	51.49
490.88	58.51
491.06	53.83
491.24	84.26
491.41	93.62
491.59	65.54
491.77	84.26
491.95	138.09
492.13	35.11
492.30	91.28
492.48	84.26
492.66	149.79
492.84	39.79
493.01	0.00
493.19	93.62
493.37	70.22
493.54	79.58
493.72	93.62
493.90	51.49
494.08	135.75
494.25	32.77
494.43	93.62
494.61	53.83
494.79	0.00
494.96	28.09
495.14	105.32
495.32	51.49
495.49	46.81
495.67	81.92
495.85	70.22
496.02	70.22
496.20	114.69
496.38	114.69
496.55	140.43
496.73	51.49
496.91	44.47
497.09	25.75
497.26	63.19
497.44	56.17
497.62	88.94
497.79	56.17
497.97	32.77
498.14	39.79
498.32	74.90
498.50	79.58
498.67	72.56
498.85	145.11
499.03	135.75
499.20	63.19
499.38	32.77
499.56	46.81
499.73	147.45
499.91	98.30
500.08	56.17
500.26	91.28
500.44	65.54
500.61	100.64
500.79	53.83
500.97	81.92
501.14	98.30
501.32	42.13
501.49	14.04
501.67	39.79
501.84	46.81
502.02	53.83
502.20	37.45
502.37	102.98
502.55	81.92
502.72	100.64
502.90	93.62
503.07	112.35
503.25	84.26
503.43	105.32
503.60	0.00
503.78	46.81
503.95	145.11
504.13	58.51
504.30	107.66
504.48	58.51
504.65	86.60
504.83	37.45
505.01	95.96
505.18	53.83
505.36	105.32
505.53	46.81
505.71	60.85
505.88	112.35
506.06	28.09
506.23	21.06
506.41	77.24
506.58	18.72
506.76	72.56
506.93	21.06
507.11	53.83
507.28	156.82
507.46	84.26
507.63	110.01
507.81	0.00
507.98	37.45
508.16	46.81
508.33	63.19
508.50	16.38
508.68	42.13
508.85	93.62
509.03	72.56
509.20	4.68
509.38	84.26
509.55	88.94
509.73	51.49
509.90	91.28
510.08	28.09
510.25	56.17
510.42	46.81
510.60	28.09
510.77	56.17
510.95	95.96
511.12	131.07
511.30	107.66
511.47	46.81
511.64	86.60
511.82	37.45
511.99	110.01
512.17	16.38
512.34	81.92
512.51	14.04
512.69	149.79
512.86	81.92
513.04	98.30
513.21	44.47
513.38	65.54
513.56	88.94
513.73	49.15
513.90	131.07
514.08	142.77
514.25	39.79
514.43	67.88
514.60	74.90
514.77	88.94
514.95	65.54
515.12	74.90
515.29	98.30
515.47	79.58
515.64	112.35
515.81	107.66
515.99	102.98
516.16	84.26
516.33	30.43
516.51	67.88
516.68	63.19
516.85	42.13
517.03	65.54
517.20	49.15
517.37	74.90
517.54	60.85
517.72	135.75
517.89	117.03
518.06	67.88
518.24	60.85
518.41	117.03
518.58	65.54
518.75	121.71
518.93	86.60
519.10	79.58
519.27	9.36
519.45	102.98
519.62	25.75
519.79	131.07
519.96	128.73
520.14	25.75
520.31	95.96
520.48	119.37
520.65	114.69
520.83	84.26
521.00	58.51
521.17	135.75
521.34	65.54
521.52	67.88
521.69	63.19
521.86	102.98
522.03	149.79
522.20	63.19
522.38	51.49
522.55	98.30
522.72	63.19
522.89	21.06
523.07	37.45
523.24	93.62
523.41	81.92
523.58	110.01
523.75	112.35
523.92	84.26
524.10	124.05
524.27	70.22
524.44	72.56
524.61	58.51
524.78	32.77
524.96	98.30
525.13	0.00
525.30	21.06
525.47	140.43
525.64	124.05
525.81	32.77
525.98	14.04
526.16	81.92
526.33	84.26
526.50	135.75
526.67	72.56
526.84	67.88
527.01	86.60
527.18	100.64
527.36	124.05
527.53	51.49
527.70	74.90
527.87	117.03
528.04	91.28
528.21	58.51
528.38	131.07
528.55	58.51
528.72	60.85
528.89	56.17
529.07	91.28
529.24	145.11
529.41	114.69
529.58	77.24
529.75	84.26
529.92	79.58
530.09	67.88
530.26	100.64
530.43	184.90
530.60	88.94
530.77	37.45
530.94	4.68
531.11	154.48
531.28	74.90
531.46	86.60
531.63	70.22
531.80	42.13
531.97	79.58
532.14	74.90
532.31	98.30
532.48	58.51
532.65	128.73
532.82	53.83
532.99	88.94
533.16	74.90
533.33	7.02
533.50	21.06
533.67	77.24
533.84	53.83
534.01	58.51
534.18	117.03
534.35	112.35
534.52	51.49
534.69	100.64
534.86	49.15
535.03	117.03
535.20	135.75
535.37	42.13
535.54	35.11
535.71	65.54
535.88	79.58
536.05	72.56
536.22	91.28
536.38	70.22
536.55	107.66
536.72	100.64
536.89	147.45
537.06	74.90
537.23	105.32
537.40	74.90
537.57	86.60
537.74	42.13
537.91	112.35
538.08	95.96
538.25	198.95
538.42	100.64
538.59	95.96
538.75	170.86
538.92	49.15
539.09	21.06
539.26	65.54
539.43	60.85
539.60	117.03
539.77	117.03
539.94	81.92
540.11	84.26
540.28	79.58
540.44	74.90
540.61	72.56
540.78	84.26
540.95	95.96
541.12	102.98
541.29	56.17
541.46	98.30
541.62	65.54
541.79	133.41
541.96	49.15
542.13	79.58
542.30	84.26
542.47	114.69
542.63	23.41
542.80	168.52
542.97	128.73
543.14	119.37
543.31	63.19
543.48	88.94
543.64	37.45
543.81	72.56
543.98	98.30
544.15	58.51
544.32	58.51
544.48	72.56
544.65	93.62
544.82	51.49
544.99	70.22
545.16	88.94
545.32	81.92
545.49	107.66
545.66	95.96
545.83	51.49
546.00	51.49
546.16	126.39
546.33	110.01
546.50	119.37
546.67	88.94
546.83	114.69
547.00	110.01
547.17	95.96
547.34	65.54
547.50	77.24
547.67	49.15
547.84	56.17
548.00	0.00
548.17	67.88
548.34	81.92
548.51	81.92
548.67	95.96
548.84	21.06
549.01	102.98
549.18	121.71
549.34	79.58
549.51	126.39
549.68	124.05
549.84	74.90
550.01	32.77
550.18	7.02
550.34	138.09
550.51	142.77
550.68	121.71
550.84	70.22
551.01	98.30
551.18	110.01
551.34	81.92
551.51	2.34
551.68	135.75
551.84	58.51
552.01	32.77
552.18	91.28
552.34	138.09
552.51	65.54
552.68	70.22
552.84	117.03
553.01	42.13
553.18	112.35
553.34	105.32
553.51	100.64
553.67	105.32
553.84	156.82
554.01	60.85
554.17	35.11
554.34	11.70
554.51	60.85
554.67	72.56
554.84	100.64
555.00	100.64
555.17	138.09
555.33	79.58
555.50	112.35
555.67	81.92
555.83	74.90
556.00	74.90
556.16	112.35
556.33	126.39
556.50	84.26
556.66	18.72
556.83	65.54
556.99	65.54
557.16	119.37
557.32	46.81
557.49	77.24
557.65	44.47
557.82	98.30
557.98	98.30
558.15	102.98
558.32	67.88
558.48	42.13
558.65	138.09
558.81	51.49
558.98	77.24
559.14	58.51
559.31	133.41
559.47	110.01
559.64	102.98
559.80	51.49
559.97	126.39
560.13	131.07
560.30	74.90
560.46	81.92
560.63	39.79
560.79	37.45
560.96	98.30
561.12	88.94
561.29	88.94
561.45	86.60
561.61	117.03
561.78	142.77
561.94	77.24
562.11	79.58
562.27	86.60
562.44	117.03
562.60	135.75
562.77	28.09
562.93	114.69
563.10	65.54
563.26	23.41
563.42	65.54
563.59	102.98
563.75	77.24
563.92	63.19
564.08	86.60
564.24	86.60
564.41	119.37
564.57	105.32
564.74	51.49
564.90	84.26
565.07	56.17
565.23	42.13
565.39	65.54
565.56	135.75
565.72	65.54
565.88	81.92
566.05	93.62
566.21	98.30
566.38	72.56
566.54	110.01
566.70	81.92
566.87	102.98
567.03	70.22
567.19	0.00
567.36	16.38
567.52	32.77
567.68	0.00
567.85	65.54
568.01	84.26
568.17	84.26
568.34	39.79
568.50	28.09
568.66	56.17
568.83	60.85
568.99	35.11
569.15	51.49
569.32	102.98
569.48	88.94
569.64	110.01
569.81	18.72
569.97	79.58
570.13	53.83
570.30	98.30
570.46	105.32
570.62	138.09
570.78	86.60
570.95	25.75
571.11	79.58
571.27	23.41
571.43	114.69
571.60	65.54
571.76	72.56
571.92	77.24
572.09	86.60
572.25	44.47
572.41	149.79
572.57	112.35
572.74	119.37
572.90	72.56
573.06	93.62
573.22	121.71
573.38	84.26
573.55	114.69
573.71	67.88
573.87	30.43
574.03	95.96
574.20	95.96
574.36	30.43
574.52	84.26
574.68	51.49
574.84	93.62
575.01	91.28
575.17	119.37
575.33	138.09
575.49	53.83
575.65	98.30
575.82	72.56
575.98	44.47
576.14	149.79
576.30	131.07
576.46	65.54
576.62	117.03
576.79	88.94
576.95	84.26
577.11	56.17
577.27	67.88
577.43	18.72
577.59	100.64
577.75	53.83
577.92	121.71
578.08	102.98
578.24	77.24
578.40	128.73
578.56	84.26
578.72	117.03
578.88	56.17
579.04	121.71
579.21	21.06
579.37	81.92
579.53	119.37
579.69	154.48
579.85	56.17
580.01	110.01
580.17	121.71
580.33	117.03
580.49	25.75
580.65	72.56
580.82	67.88
580.98	63.19
581.14	70.22
581.30	81.92
581.46	95.96
581.62	28.09
581.78	74.90
581.94	28.09
582.10	117.03
582.26	107.66
582.42	23.41
582.58	88.94
582.74	95.96
582.90	70.22
583.06	44.47
583.22	72.56
583.38	72.56
583.54	81.92
583.70	124.05
583.86	91.28
584.02	7.02
584.18	28.09
584.34	126.39
584.50	107.66
584.66	140.43
584.82	124.05
584.98	86.60
585.14	112.35
585.30	131.07
585.46	102.98
585.62	70.22
585.78	53.83
585.94	86.60
586.10	93.62
586.26	102.98
586.42	91.28
586.58	4.68
586.74	60.85
586.90	53.83
587.06	110.01
587.22	16.38
587.38	95.96
587.54	58.51
587.70	117.03
587.86	58.51
588.02	86.60
588.18	63.19
588.34	37.45
588.49	63.19
588.65	18.72
588.81	105.32
588.97	100.64
589.13	53.83
589.29	91.28
589.45	135.75
589.61	72.56
589.77	30.43
589.93	102.98
590.08	16.38
590.24	53.83
590.40	95.96
590.56	60.85
590.72	102.98
590.88	21.06
591.04	28.09
591.20	119.37
591.35	32.77
591.51	67.88
591.67	102.98
591.83	91.28
591.99	49.15
592.15	72.56
592.31	112.35
592.46	25.75
592.62	32.77
592.78	21.06
592.94	114.69
593.10	63.19
593.26	100.64
593.41	81.92
593.57	67.88
593.73	63.19
593.89	4.68
594.05	93.62
594.20	65.54
594.36	23.41
594.52	86.60
594.68	58.51
594.84	124.05
594.99	67.88
595.15	93.62
595.31	79.58
595.47	81.92
595.62	110.01
595.78	0.00
595.94	65.54
596.10	30.43
596.25	117.03
596.41	77.24
596.57	91.28
596.73	74.90
596.88	2.34
597.04	30.43
597.20	63.19
597.36	126.39
597.51	100.64
597.67	18.72
597.83	60.85
597.99	65.54
598.14	35.11
598.30	74.90
598.46	65.54
598.61	95.96
598.77	7.02
598.93	18.72
599.09	72.56
599.24	32.77
599.40	42.13
599.56	37.45
599.71	53.83
599.87	49.15
600.03	37.45
600.18	23.41
600.34	0.00
600.50	98.30
600.65	32.77
600.81	67.88
600.97	77.24
601.12	86.60
601.28	28.09
601.44	95.96
601.59	53.83
601.75	70.22
601.91	11.70
602.06	117.03
602.22	44.47
602.37	46.81
602.53	60.85
602.69	93.62
602.84	95.96
603.00	56.17
603.16	46.81
603.31	58.51
603.47	58.51
603.62	7.02
603.78	63.19
603.94	98.30
604.09	93.62
604.25	21.06
604.40	70.22
604.56	88.94
604.71	70.22
604.87	32.77
605.03	100.64
605.18	107.66
605.34	42.13
605.49	117.03
605.65	53.83
605.80	65.54
605.96	70.22
606.12	133.41
606.27	154.48
606.43	93.62
606.58	86.60
606.74	79.58
606.89	79.58
607.05	138.09
607.20	81.92
607.36	100.64
607.51	117.03
607.67	65.54
607.82	35.11
607.98	44.47
608.13	102.98
608.29	81.92
608.44	42.13
608.60	49.15
608.75	44.47
608.91	114.69
609.06	105.32
609.22	39.79
609.37	65.54
609.53	35.11
609.68	0.00
609.84	65.54
609.99	23.41
610.15	39.79
610.30	46.81
610.46	131.07
610.61	91.28
610.76	100.64
610.92	107.66
611.07	46.81
611.23	84.26
611.38	16.38
611.54	39.79
611.69	84.26
611.84	60.85
612.00	21.06
612.15	0.00
612.31	102.98
612.46	84.26
612.62	72.56
612.77	0.00
612.92	28.09
613.08	74.90
613.23	86.60
613.39	72.56
613.54	30.43
613.69	65.54
613.85	30.43
614.00	30.43
614.15	37.45
614.31	37.45
614.46	18.72
614.62	63.19
614.77	81.92
614.92	9.36
615.08	72.56
615.23	81.92
615.38	79.58
615.54	95.96
615.69	86.60
615.84	88.94
616.00	131.07
616.15	46.81
616.30	49.15
616.46	98.30
616.61	56.17
616.76	56.17
616.92	65.54
617.07	81.92
617.22	35.11
617.37	39.79
617.53	39.79
617.68	63.19
617.83	35.11
617.99	98.30
618.14	70.22
618.29	37.45
618.45	32.77
618.60	0.00
618.75	9.36
618.90	0.00
619.06	91.28
619.21	102.98
619.36	58.51
619.51	65.54
619.67	102.98
619.82	35.11
619.97	117.03
620.12	93.62
620.28	93.62
620.43	84.26
620.58	121.71
620.73	128.73
620.89	133.41
621.04	37.45
621.19	46.81
621.34	77.24
621.49	37.45
621.65	98.30
621.80	107.66
621.95	107.66
622.10	70.22
622.25	51.49
622.41	67.88
622.56	9.36
622.71	98.30
622.86	4.68
623.01	58.51
623.16	58.51
623.32	79.58
623.47	74.90
623.62	63.19
623.77	0.00
623.92	42.13
624.07	46.81
624.23	156.82
624.38	46.81
624.53	25.75
624.68	79.58
624.83	42.13
624.98	95.96
625.13	65.54
625.29	39.79
625.44	63.19
625.59	84.26
625.74	84.26
625.89	72.56
626.04	65.54
626.19	93.62
626.34	102.98
626.49	49.15
626.65	81.92
626.80	58.51
626.95	72.56
627.10	11.70
627.25	51.49
627.40	0.00
627.55	121.71
627.70	0.00
627.85	67.88
628.00	44.47
628.15	4.68
628.30	84.26
628.45	28.09
628.60	51.49
628.76	58.51
628.91	46.81
629.06	37.45
629.21	39.79
629.36	56.17
629.51	0.00
629.66	56.17
629.81	16.38
629.96	46.81
630.11	93.62
630.26	65.54
630.41	84.26
630.56	63.19
630.71	35.11
630.86	42.13
631.01	16.38
631.16	49.15
631.31	53.83
631.46	88.94
631.61	70.22
631.76	39.79
631.91	98.30
632.06	86.60
632.21	58.51
632.36	25.75
632.51	9.36
632.66	14.04
632.81	77.24
632.96	65.54
633.10	21.06
633.25	79.58
633.40	39.79
633.55	35.11
633.70	51.49
633.85	95.96
634.00	74.90
634.15	63.19
634.30	44.47
634.45	42.13
634.60	56.17
634.75	25.75
634.90	28.09
635.05	46.81
635.19	46.81
635.34	42.13
635.49	37.45
635.64	28.09
635.79	51.49
635.94	42.13
636.09	65.54
636.24	63.19
636.39	7.02
636.53	72.56
636.68	81.92
636.83	86.60
636.98	28.09
637.13	11.70
637.28	74.90
637.43	46.81
637.57	35.11
637.72	65.54
637.87	88.94
638.02	81.92
638.17	39.79
638.32	67.88
638.46	79.58
638.61	72.56
638.76	25.75
638.91	117.03
639.06	77.24
639.20	67.88
639.35	32.77
639.50	0.00
639.65	39.79
639.80	60.85
639.94	107.66
640.09	91.28
640.24	14.04
640.39	51.49
640.54	0.00
640.68	25.75
640.83	56.17
640.98	42.13
641.13	42.13
641.27	114.69
641.42	0.00
641.57	63.19
641.72	102.98
641.86	119.37
642.01	81.92
642.16	23.41
642.31	28.09
642.45	49.15
642.60	39.79
642.75	44.47
642.90	63.19
643.04	0.00
643.19	112.35
643.34	23.41
643.48	25.75
643.63	53.83
643.78	30.43
643.93	42.13
644.07	107.66
644.22	11.70
644.37	37.45
644.51	70.22
644.66	21.06
644.81	56.17
644.95	105.32
645.10	70.22
645.25	4.68
645.39	37.45
645.54	39.79
645.69	138.09
645.83	37.45
645.98	16.38
646.13	37.45
646.27	84.26
646.42	86.60
646.57	39.79
646.71	9.36
646.86	44.47
647.00	51.49
647.15	53.83
647.30	65.54
647.44	60.85
647.59	39.79
647.74	21.06
647.88	39.79
648.03	35.11
648.17	42.13
648.32	53.83
648.47	131.07
648.61	42.13
648.76	7.02
648.90	0.00
649.05	25.75
649.20	4.68
649.34	65.54
649.49	102.98
649.63	32.77
649.78	7.02
649.92	65.54
650.07	0.00
650.21	107.66
650.36	25.75
650.51	14.04
650.65	98.30
650.80	51.49
650.94	16.38
651.09	25.75
651.23	42.13
651.38	63.19
651.52	21.06
651.67	56.17
651.81	88.94
651.96	100.64
652.10	39.79
652.25	18.72
652.39	110.01
652.54	77.24
652.68	30.43
652.83	58.51
652.97	154.48
653.12	79.58
653.26	74.90
653.41	107.66
653.55	53.83
653.70	65.54
653.84	128.73
653.99	119.37
654.13	105.32
654.27	72.56
654.42	60.85
654.56	81.92
654.71	102.98
654.85	60.85
655.00	81.92
655.14	4.68
655.29	105.32
655.43	0.00
655.57	21.06
655.72	58.51
655.86	0.00
656.01	70.22
656.15	25.75
656.30	0.00
656.44	60.85
656.58	138.09
656.73	28.09
656.87	98.30
657.01	63.19
657.16	44.47
657.30	32.77
657.45	14.04
657.59	51.49
657.73	67.88
657.88	46.81
658.02	18.72
658.16	0.00
658.31	81.92
658.45	16.38
658.60	72.56
658.74	42.13
658.88	28.09
659.03	16.38
659.17	35.11
659.31	30.43
659.46	0.00
659.60	60.85
659.74	53.83
659.89	28.09
660.03	140.43
660.17	14.04
660.32	135.75
660.46	86.60
660.60	56.17
660.74	0.00
660.89	121.71
661.03	70.22
661.17	21.06
661.32	58.51
661.46	21.06
661.60	79.58
661.74	58.51
661.89	49.15
662.03	42.13
662.17	46.81
662.31	9.36
662.46	72.56
662.60	74.90
662.74	58.51
662.88	79.58
663.03	16.38
663.17	56.17
663.31	67.88
663.45	35.11
663.60	0.00
663.74	16.38
663.88	63.19
664.02	28.09
664.17	11.70
664.31	95.96
664.45	16.38
664.59	105.32
664.73	67.88
664.88	32.77
665.02	32.77
665.16	18.72
665.30	0.00
665.44	14.04
665.59	67.88
665.73	131.07
665.87	91.28
666.01	58.51
666.15	0.00
666.29	60.85
666.44	70.22
666.58	114.69
666.72	53.83
666.86	30.43
667.00	84.26
667.14	77.24
667.28	110.01
667.43	37.45
667.57	102.98
667.71	0.00
667.85	60.85
667.99	70.22
668.13	39.79
668.27	56.17
668.41	65.54
668.56	44.47
668.70	112.35
668.84	49.15
668.98	86.60
669.12	67.88
669.26	0.00
669.40	88.94
669.54	0.00
669.68	49.15
669.82	49.15
669.96	0.00
670.10	114.69
670.25	2.34
670.39	88.94
670.53	63.19
670.67	117.03
670.81	4.68
670.95	28.09
671.09	37.45
671.23	18.72
671.37	51.49
671.51	25.75
671.65	44.47
671.79	93.62
671.93	58.51
672.07	28.09
672.21	25.75
672.35	16.38
672.49	67.88
672.63	2.34
672.77	18.72
672.91	42.13
673.05	42.13
673.19	74.90
673.33	44.47
673.47	23.41
673.61	14.04
673.75	30.43
673.89	100.64
674.03	117.03
674.17	7.02
674.31	4.68
674.45	88.94
674.59	67.88
674.73	46.81
674.87	63.19
675.01	4.68
675.15	93.62
675.29	9.36
675.43	35.11
675.56	42.13
675.70	72.56
675.84	84.26
675.98	23.41
676.12	35.11
676.26	14.04
676.40	93.62
676.54	35.11
676.68	114.69
676.82	60.85
676.96	105.32
677.10	77.24
677.23	42.13
677.37	21.06
677.51	79.58
677.65	70.22
677.79	70.22
677.93	60.85
678.07	28.09
678.21	149.79
678.34	65.54
678.48	2.34
678.62	37.45
678.76	30.43
678.90	65.54
679.04	35.11
679.18	63.19
679.31	49.15
679.45	23.41
679.59	67.88
679.73	21.06
679.87	2.34
680.00	65.54
680.14	42.13
680.28	44.47
680.42	21.06
680.56	98.30
680.70	65.54
680.83	0.00
680.97	21.06
681.11	4.68
681.25	0.00
681.39	53.83
681.52	74.90
681.66	9.36
681.80	35.11
681.94	63.19
682.07	39.79
682.21	51.49
682.35	42.13
682.49	16.38
682.62	63.19
682.76	58.51
682.90	23.41
683.04	93.62
683.17	42.13
683.31	93.62
683.45	70.22
683.59	67.88
683.72	72.56
683.86	23.41
684.00	65.54
684.13	67.88
684.27	42.13
684.41	0.00
684.55	0.00
684.68	0.00
684.82	46.81
684.96	30.43
685.09	35.11
685.23	77.24
685.37	88.94
685.50	100.64
685.64	91.28
685.78	30.43
685.91	11.70
686.05	0.00
686.19	14.04
686.32	51.49
686.46	28.09
686.60	0.00
686.73	46.81
686.87	53.83
687.01	0.00
687.14	98.30
687.28	46.81
687.42	70.22
687.55	0.00
687.69	11.70
687.82	14.04
687.96	0.00
688.10	42.13
688.23	44.47
688.37	9.36
688.50	9.36
688.64	2.34
688.78	51.49
688.91	23.41
689.05	81.92
689.18	0.00
689.32	91.28
689.46	11.70
689.59	9.36
689.73	51.49
689.86	124.05
690.00	0.00
690.13	7.02
690.27	18.72
690.41	74.90
690.54	42.13
690.68	46.81
690.81	32.77
690.95	60.85
691.08	49.15
691.22	65.54
691.35	84.26
691.49	44.47
691.62	39.79
691.76	77.24
691.89	0.00
692.03	0.00
692.16	70.22
692.30	49.15
692.43	58.51
692.57	32.77
692.70	79.58
692.84	77.24
692.97	39.79
693.11	56.17
693.24	0.00
693.38	60.85
693.51	65.54
693.65	44.47
693.78	86.60
693.92	30.43
694.05	74.90
694.19	46.81
694.32	14.04
694.45	30.43
694.59	42.13
694.72	65.54
694.86	44.47
694.99	18.72
695.13	65.54
695.26	53.83
695.39	74.90
695.53	60.85
695.66	2.34
695.80	0.00
695.93	4.68
696.07	84.26
696.20	84.26
696.33	65.54
696.47	21.06
696.60	25.75
696.73	42.13
696.87	35.11
697.00	16.38
697.14	49.15
697.27	9.36
697.40	0.00
697.54	37.45
697.67	56.17
697.80	0.00
697.94	58.51
698.07	25.75
698.21	98.30
698.34	37.45
698.47	16.38
698.61	114.69
698.74	0.00
698.87	63.19
699.01	37.45
699.14	72.56
699.27	46.81
699.40	79.58
699.54	25.75
699.67	7.02
699.80	11.70
699.94	0.00
700.07	16.38
700.20	119.37
700.34	0.00
700.47	86.60
700.60	0.00
700.73	65.54
700.87	49.15
701.00	0.00
701.13	84.26
701.26	91.28
701.40	60.85
701.53	11.70
701.66	0.00
701.79	37.45
701.93	0.00
702.06	0.00
702.19	4.68
702.32	53.83
702.46	70.22
702.59	11.70
702.72	95.96
702.85	91.28
702.99	49.15
703.12	46.81
703.25	9.36
703.38	25.75
703.51	25.75
703.65	79.58
703.78	0.00
703.91	56.17
704.04	25.75
704.17	18.72
704.31	95.96
704.44	4.68
704.57	79.58
704.70	60.85
704.83	81.92
704.96	16.38
705.10	0.00
705.23	21.06
>>>>>End Processed Spectral Data<<<<<
