SpectraSuite Data File
++++++++++++++++++++++++++++++++++++
Date: Fri Oct 04 12:13:45 GMT-05:00 2013
User: price-jones
Dark Spectrum Present: No
Reference Spectrum Present: No
Number of Sampled Component Spectra: 1
Spectrometers: USB2+H05261
Integration Time (usec): 10000 (USB2+H05261)
Spectra Averaged: 1 (USB2+H05261)
Boxcar Smoothing: 0 (USB2+H05261)
Correct for Electrical Dark: No (USB2+H05261)
Strobe/Lamp Enabled: No (USB2+H05261)
Correct for Detector Non-linearity: No (USB2+H05261)
Correct for Stray Light: No (USB2+H05261)
Number of Pixels in Processed Spectrum: 2048
>>>>>Begin Processed Spectral Data<<<<<
365.73	25.75
365.92	25.75
366.12	25.75
366.32	0.00
366.52	0.00
366.72	0.00
366.91	0.00
367.11	0.00
367.31	0.00
367.51	0.00
367.70	0.00
367.90	0.00
368.10	0.00
368.30	0.00
368.49	0.00
368.69	0.00
368.89	0.00
369.09	0.00
369.28	0.00
369.48	0.00
369.68	0.00
369.87	0.00
370.07	0.00
370.27	0.00
370.47	0.00
370.66	0.00
370.86	0.00
371.06	0.00
371.25	0.00
371.45	0.00
371.65	0.00
371.84	0.00
372.04	16.38
372.24	23.41
372.44	35.11
372.63	0.00
372.83	11.70
373.03	0.00
373.22	21.06
373.42	28.09
373.62	117.03
373.81	0.00
374.01	46.81
374.21	21.06
374.40	44.47
374.60	42.13
374.79	0.00
374.99	32.77
375.19	4.68
375.38	14.04
375.58	28.09
375.78	25.75
375.97	102.98
376.17	65.54
376.37	46.81
376.56	30.43
376.76	44.47
376.95	7.02
377.15	30.43
377.35	100.64
377.54	35.11
377.74	23.41
377.93	18.72
378.13	21.06
378.33	44.47
378.52	0.00
378.72	2.34
378.91	23.41
379.11	51.49
379.31	0.00
379.50	16.38
379.70	18.72
379.89	37.45
380.09	0.00
380.28	49.15
380.48	4.68
380.68	42.13
380.87	21.06
381.07	21.06
381.26	9.36
381.46	18.72
381.65	0.00
381.85	51.49
382.04	49.15
382.24	0.00
382.43	77.24
382.63	0.00
382.83	14.04
383.02	25.75
383.22	42.13
383.41	35.11
383.61	51.49
383.80	32.77
384.00	0.00
384.19	23.41
384.39	14.04
384.58	4.68
384.78	42.13
384.97	32.77
385.17	9.36
385.36	25.75
385.56	9.36
385.75	9.36
385.95	18.72
386.14	28.09
386.34	14.04
386.53	7.02
386.72	7.02
386.92	9.36
387.11	53.83
387.31	65.54
387.50	0.00
387.70	65.54
387.89	74.90
388.09	0.00
388.28	28.09
388.48	4.68
388.67	0.00
388.86	42.13
389.06	63.19
389.25	0.00
389.45	77.24
389.64	25.75
389.84	44.47
390.03	0.00
390.22	44.47
390.42	77.24
390.61	37.45
390.81	18.72
391.00	0.00
391.19	0.00
391.39	37.45
391.58	32.77
391.78	0.00
391.97	72.56
392.16	58.51
392.36	28.09
392.55	0.00
392.75	0.00
392.94	44.47
393.13	88.94
393.33	23.41
393.52	35.11
393.71	81.92
393.91	16.38
394.10	65.54
394.29	21.06
394.49	0.00
394.68	11.70
394.88	51.49
395.07	14.04
395.26	67.88
395.46	65.54
395.65	0.00
395.84	7.02
396.04	0.00
396.23	0.00
396.42	46.81
396.62	14.04
396.81	63.19
397.00	23.41
397.19	0.00
397.39	0.00
397.58	0.00
397.77	42.13
397.97	0.00
398.16	30.43
398.35	9.36
398.55	51.49
398.74	14.04
398.93	0.00
399.12	65.54
399.32	2.34
399.51	23.41
399.70	0.00
399.90	0.00
400.09	0.00
400.28	0.00
400.47	2.34
400.67	0.00
400.86	0.00
401.05	0.00
401.24	0.00
401.44	74.90
401.63	9.36
401.82	65.54
402.01	88.94
402.21	51.49
402.40	39.79
402.59	16.38
402.78	11.70
402.97	44.47
403.17	14.04
403.36	23.41
403.55	0.00
403.74	91.28
403.93	102.98
404.13	0.00
404.32	0.00
404.51	46.81
404.70	72.56
404.89	0.00
405.09	4.68
405.28	0.00
405.47	46.81
405.66	11.70
405.85	39.79
406.05	23.41
406.24	0.00
406.43	74.90
406.62	126.39
406.81	0.00
407.00	0.00
407.20	84.26
407.39	28.09
407.58	4.68
407.77	53.83
407.96	0.00
408.15	28.09
408.34	39.79
408.54	25.75
408.73	30.43
408.92	0.00
409.11	42.13
409.30	44.47
409.49	11.70
409.68	0.00
409.87	53.83
410.07	25.75
410.26	0.00
410.45	0.00
410.64	23.41
410.83	0.00
411.02	110.01
411.21	0.00
411.40	0.00
411.59	60.85
411.78	53.83
411.98	105.32
412.17	44.47
412.36	79.58
412.55	0.00
412.74	46.81
412.93	14.04
413.12	0.00
413.31	0.00
413.50	79.58
413.69	0.00
413.88	72.56
414.07	11.70
414.26	44.47
414.45	23.41
414.64	0.00
414.83	86.60
415.02	4.68
415.22	2.34
415.41	44.47
415.60	0.00
415.79	0.00
415.98	28.09
416.17	0.00
416.36	21.06
416.55	0.00
416.74	28.09
416.93	30.43
417.12	0.00
417.31	30.43
417.50	18.72
417.69	21.06
417.88	11.70
418.07	67.88
418.26	53.83
418.45	18.72
418.64	25.75
418.83	42.13
419.02	0.00
419.21	79.58
419.39	0.00
419.58	0.00
419.77	39.79
419.96	0.00
420.15	42.13
420.34	16.38
420.53	44.47
420.72	58.51
420.91	0.00
421.10	102.98
421.29	42.13
421.48	28.09
421.67	46.81
421.86	77.24
422.05	32.77
422.24	74.90
422.43	32.77
422.61	0.00
422.80	18.72
422.99	23.41
423.18	70.22
423.37	70.22
423.56	0.00
423.75	16.38
423.94	0.00
424.13	0.00
424.32	51.49
424.50	60.85
424.69	35.11
424.88	0.00
425.07	95.96
425.26	2.34
425.45	14.04
425.64	0.00
425.83	30.43
426.01	72.56
426.20	0.00
426.39	11.70
426.58	2.34
426.77	147.45
426.96	7.02
427.15	42.13
427.33	37.45
427.52	49.15
427.71	49.15
427.90	35.11
428.09	0.00
428.28	37.45
428.46	49.15
428.65	9.36
428.84	32.77
429.03	37.45
429.22	0.00
429.40	7.02
429.59	0.00
429.78	32.77
429.97	58.51
430.16	28.09
430.34	4.68
430.53	25.75
430.72	51.49
430.91	0.00
431.10	2.34
431.28	14.04
431.47	58.51
431.66	63.19
431.85	0.00
432.03	30.43
432.22	74.90
432.41	4.68
432.60	0.00
432.79	2.34
432.97	11.70
433.16	0.00
433.35	28.09
433.54	16.38
433.72	18.72
433.91	0.00
434.10	58.51
434.28	11.70
434.47	0.00
434.66	60.85
434.85	0.00
435.03	42.13
435.22	74.90
435.41	0.00
435.59	0.00
435.78	35.11
435.97	56.17
436.16	42.13
436.34	21.06
436.53	0.00
436.72	49.15
436.90	42.13
437.09	9.36
437.28	58.51
437.46	39.79
437.65	72.56
437.84	65.54
438.02	2.34
438.21	51.49
438.40	28.09
438.58	56.17
438.77	42.13
438.96	0.00
439.14	9.36
439.33	79.58
439.52	46.81
439.70	39.79
439.89	0.00
440.08	0.00
440.26	28.09
440.45	28.09
440.63	53.83
440.82	35.11
441.01	30.43
441.19	93.62
441.38	67.88
441.57	35.11
441.75	46.81
441.94	58.51
442.12	37.45
442.31	28.09
442.50	56.17
442.68	0.00
442.87	4.68
443.05	56.17
443.24	9.36
443.43	0.00
443.61	49.15
443.80	98.30
443.98	14.04
444.17	35.11
444.35	28.09
444.54	16.38
444.73	0.00
444.91	39.79
445.10	9.36
445.28	0.00
445.47	35.11
445.65	95.96
445.84	37.45
446.02	18.72
446.21	42.13
446.39	37.45
446.58	0.00
446.77	16.38
446.95	30.43
447.14	0.00
447.32	86.60
447.51	2.34
447.69	28.09
447.88	35.11
448.06	25.75
448.25	65.54
448.43	0.00
448.62	58.51
448.80	51.49
448.99	28.09
449.17	0.00
449.36	37.45
449.54	16.38
449.73	0.00
449.91	93.62
450.10	4.68
450.28	42.13
450.46	32.77
450.65	16.38
450.83	72.56
451.02	14.04
451.20	4.68
451.39	23.41
451.57	28.09
451.76	65.54
451.94	63.19
452.13	53.83
452.31	0.00
452.49	86.60
452.68	0.00
452.86	0.00
453.05	74.90
453.23	0.00
453.42	28.09
453.60	0.00
453.78	77.24
453.97	63.19
454.15	51.49
454.34	18.72
454.52	32.77
454.70	67.88
454.89	0.00
455.07	56.17
455.26	77.24
455.44	51.49
455.62	51.49
455.81	9.36
455.99	32.77
456.17	18.72
456.36	53.83
456.54	86.60
456.73	21.06
456.91	2.34
457.09	0.00
457.28	23.41
457.46	72.56
457.64	11.70
457.83	0.00
458.01	42.13
458.19	9.36
458.38	37.45
458.56	11.70
458.74	0.00
458.93	60.85
459.11	63.19
459.29	4.68
459.48	0.00
459.66	18.72
459.84	98.30
460.03	79.58
460.21	93.62
460.39	51.49
460.57	53.83
460.76	53.83
460.94	65.54
461.12	0.00
461.31	51.49
461.49	7.02
461.67	39.79
461.85	2.34
462.04	49.15
462.22	135.75
462.40	107.66
462.59	30.43
462.77	2.34
462.95	81.92
463.13	23.41
463.32	46.81
463.50	21.06
463.68	42.13
463.86	0.00
464.05	23.41
464.23	100.64
464.41	16.38
464.59	0.00
464.78	42.13
464.96	0.00
465.14	16.38
465.32	0.00
465.50	81.92
465.69	65.54
465.87	11.70
466.05	0.00
466.23	11.70
466.41	16.38
466.60	21.06
466.78	91.28
466.96	0.00
467.14	4.68
467.32	0.00
467.51	30.43
467.69	0.00
467.87	21.06
468.05	44.47
468.23	98.30
468.41	67.88
468.60	16.38
468.78	60.85
468.96	77.24
469.14	44.47
469.32	42.13
469.50	74.90
469.69	0.00
469.87	0.00
470.05	21.06
470.23	30.43
470.41	58.51
470.59	37.45
470.77	102.98
470.95	0.00
471.14	84.26
471.32	91.28
471.50	32.77
471.68	37.45
471.86	49.15
472.04	88.94
472.22	93.62
472.40	9.36
472.58	21.06
472.77	70.22
472.95	18.72
473.13	51.49
473.31	93.62
473.49	28.09
473.67	0.00
473.85	44.47
474.03	0.00
474.21	58.51
474.39	39.79
474.57	84.26
474.75	28.09
474.93	23.41
475.12	0.00
475.30	35.11
475.48	16.38
475.66	72.56
475.84	67.88
476.02	16.38
476.20	0.00
476.38	44.47
476.56	30.43
476.74	14.04
476.92	72.56
477.10	65.54
477.28	0.00
477.46	42.13
477.64	70.22
477.82	79.58
478.00	7.02
478.18	32.77
478.36	7.02
478.54	0.00
478.72	0.00
478.90	81.92
479.08	51.49
479.26	30.43
479.44	46.81
479.62	37.45
479.80	44.47
479.98	23.41
480.16	35.11
480.34	21.06
480.52	7.02
480.70	42.13
480.88	63.19
481.06	11.70
481.24	37.45
481.41	51.49
481.59	0.00
481.77	70.22
481.95	56.17
482.13	65.54
482.31	14.04
482.49	0.00
482.67	100.64
482.85	51.49
483.03	39.79
483.21	51.49
483.39	56.17
483.57	23.41
483.74	51.49
483.92	16.38
484.10	105.32
484.28	23.41
484.46	2.34
484.64	154.48
484.82	88.94
485.00	74.90
485.18	37.45
485.35	0.00
485.53	0.00
485.71	32.77
485.89	0.00
486.07	30.43
486.25	77.24
486.43	35.11
486.61	0.00
486.78	105.32
486.96	53.83
487.14	0.00
487.32	37.45
487.50	74.90
487.68	0.00
487.85	0.00
488.03	30.43
488.21	49.15
488.39	65.54
488.57	35.11
488.75	14.04
488.92	28.09
489.10	53.83
489.28	30.43
489.46	56.17
489.64	14.04
489.81	93.62
489.99	105.32
490.17	51.49
490.35	77.24
490.53	2.34
490.70	25.75
490.88	49.15
491.06	65.54
491.24	37.45
491.41	35.11
491.59	23.41
491.77	28.09
491.95	0.00
492.13	119.37
492.30	30.43
492.48	88.94
492.66	0.00
492.84	140.43
493.01	63.19
493.19	86.60
493.37	35.11
493.54	16.38
493.72	37.45
493.90	46.81
494.08	142.77
494.25	65.54
494.43	18.72
494.61	4.68
494.79	0.00
494.96	0.00
495.14	30.43
495.32	11.70
495.49	65.54
495.67	51.49
495.85	23.41
496.02	0.00
496.20	91.28
496.38	42.13
496.55	81.92
496.73	63.19
496.91	79.58
497.09	51.49
497.26	30.43
497.44	60.85
497.62	98.30
497.79	98.30
497.97	114.69
498.14	79.58
498.32	14.04
498.50	14.04
498.67	98.30
498.85	0.00
499.03	53.83
499.20	56.17
499.38	32.77
499.56	51.49
499.73	93.62
499.91	77.24
500.08	23.41
500.26	46.81
500.44	30.43
500.61	25.75
500.79	30.43
500.97	77.24
501.14	28.09
501.32	88.94
501.49	28.09
501.67	119.37
501.84	39.79
502.02	25.75
502.20	32.77
502.37	67.88
502.55	9.36
502.72	88.94
502.90	39.79
503.07	0.00
503.25	25.75
503.43	63.19
503.60	126.39
503.78	77.24
503.95	67.88
504.13	77.24
504.30	93.62
504.48	49.15
504.65	72.56
504.83	28.09
505.01	0.00
505.18	49.15
505.36	0.00
505.53	84.26
505.71	35.11
505.88	112.35
506.06	95.96
506.23	28.09
506.41	86.60
506.58	49.15
506.76	42.13
506.93	46.81
507.11	28.09
507.28	4.68
507.46	56.17
507.63	60.85
507.81	0.00
507.98	70.22
508.16	100.64
508.33	74.90
508.50	93.62
508.68	72.56
508.85	32.77
509.03	23.41
509.20	0.00
509.38	44.47
509.55	0.00
509.73	72.56
509.90	56.17
510.08	39.79
510.25	0.00
510.42	84.26
510.60	35.11
510.77	14.04
510.95	58.51
511.12	51.49
511.30	58.51
511.47	0.00
511.64	51.49
511.82	56.17
511.99	56.17
512.17	51.49
512.34	18.72
512.51	84.26
512.69	23.41
512.86	51.49
513.04	0.00
513.21	53.83
513.38	39.79
513.56	49.15
513.73	16.38
513.90	4.68
514.08	37.45
514.25	0.00
514.43	35.11
514.60	105.32
514.77	65.54
514.95	16.38
515.12	49.15
515.29	4.68
515.47	16.38
515.64	0.00
515.81	14.04
515.99	35.11
516.16	37.45
516.33	117.03
516.51	0.00
516.68	72.56
516.85	56.17
517.03	60.85
517.20	58.51
517.37	32.77
517.54	131.07
517.72	79.58
517.89	95.96
518.06	39.79
518.24	51.49
518.41	28.09
518.58	0.00
518.75	65.54
518.93	14.04
519.10	88.94
519.27	121.71
519.45	74.90
519.62	67.88
519.79	84.26
519.96	25.75
520.14	72.56
520.31	74.90
520.48	117.03
520.65	46.81
520.83	42.13
521.00	138.09
521.17	0.00
521.34	32.77
521.52	9.36
521.69	0.00
521.86	124.05
522.03	95.96
522.20	56.17
522.38	44.47
522.55	56.17
522.72	37.45
522.89	93.62
523.07	4.68
523.24	46.81
523.41	51.49
523.58	0.00
523.75	126.39
523.92	0.00
524.10	56.17
524.27	51.49
524.44	25.75
524.61	74.90
524.78	30.43
524.96	56.17
525.13	65.54
525.30	124.05
525.47	93.62
525.64	0.00
525.81	74.90
525.98	16.38
526.16	0.00
526.33	16.38
526.50	39.79
526.67	18.72
526.84	32.77
527.01	72.56
527.18	63.19
527.36	0.00
527.53	28.09
527.70	42.13
527.87	65.54
528.04	98.30
528.21	23.41
528.38	74.90
528.55	28.09
528.72	65.54
528.89	53.83
529.07	37.45
529.24	81.92
529.41	0.00
529.58	60.85
529.75	23.41
529.92	16.38
530.09	63.19
530.26	0.00
530.43	18.72
530.60	0.00
530.77	49.15
530.94	35.11
531.11	21.06
531.28	35.11
531.46	35.11
531.63	32.77
531.80	119.37
531.97	95.96
532.14	0.00
532.31	88.94
532.48	32.77
532.65	81.92
532.82	28.09
532.99	21.06
533.16	79.58
533.33	56.17
533.50	70.22
533.67	67.88
533.84	98.30
534.01	107.66
534.18	49.15
534.35	74.90
534.52	60.85
534.69	56.17
534.86	46.81
535.03	100.64
535.20	0.00
535.37	23.41
535.54	74.90
535.71	0.00
535.88	81.92
536.05	23.41
536.22	7.02
536.38	142.77
536.55	65.54
536.72	44.47
536.89	11.70
537.06	0.00
537.23	0.00
537.40	37.45
537.57	16.38
537.74	98.30
537.91	9.36
538.08	44.47
538.25	44.47
538.42	81.92
538.59	72.56
538.75	102.98
538.92	0.00
539.09	56.17
539.26	7.02
539.43	23.41
539.60	42.13
539.77	28.09
539.94	51.49
540.11	88.94
540.28	30.43
540.44	0.00
540.61	42.13
540.78	119.37
540.95	0.00
541.12	7.02
541.29	58.51
541.46	14.04
541.62	32.77
541.79	37.45
541.96	32.77
542.13	35.11
542.30	0.00
542.47	65.54
542.63	25.75
542.80	46.81
542.97	30.43
543.14	32.77
543.31	56.17
543.48	28.09
543.64	44.47
543.81	11.70
543.98	81.92
544.15	53.83
544.32	0.00
544.48	49.15
544.65	60.85
544.82	49.15
544.99	86.60
545.16	51.49
545.32	0.00
545.49	51.49
545.66	51.49
545.83	56.17
546.00	53.83
546.16	0.00
546.33	42.13
546.50	102.98
546.67	49.15
546.83	117.03
547.00	37.45
547.17	53.83
547.34	84.26
547.50	100.64
547.67	0.00
547.84	23.41
548.00	81.92
548.17	63.19
548.34	49.15
548.51	63.19
548.67	23.41
548.84	58.51
549.01	46.81
549.18	67.88
549.34	9.36
549.51	0.00
549.68	23.41
549.84	11.70
550.01	105.32
550.18	107.66
550.34	28.09
550.51	140.43
550.68	63.19
550.84	14.04
551.01	53.83
551.18	23.41
551.34	37.45
551.51	2.34
551.68	86.60
551.84	77.24
552.01	70.22
552.18	0.00
552.34	4.68
552.51	42.13
552.68	77.24
552.84	86.60
553.01	65.54
553.18	98.30
553.34	0.00
553.51	81.92
553.67	30.43
553.84	42.13
554.01	65.54
554.17	60.85
554.34	110.01
554.51	65.54
554.67	0.00
554.84	70.22
555.00	16.38
555.17	77.24
555.33	51.49
555.50	70.22
555.67	93.62
555.83	56.17
556.00	110.01
556.16	72.56
556.33	0.00
556.50	9.36
556.66	67.88
556.83	72.56
556.99	16.38
557.16	18.72
557.32	88.94
557.49	0.00
557.65	11.70
557.82	156.82
557.98	67.88
558.15	114.69
558.32	42.13
558.48	53.83
558.65	44.47
558.81	37.45
558.98	67.88
559.14	0.00
559.31	42.13
559.47	63.19
559.64	0.00
559.80	37.45
559.97	4.68
560.13	46.81
560.30	128.73
560.46	53.83
560.63	46.81
560.79	98.30
560.96	72.56
561.12	86.60
561.29	0.00
561.45	0.00
561.61	16.38
561.78	95.96
561.94	42.13
562.11	14.04
562.27	74.90
562.44	0.00
562.60	79.58
562.77	0.00
562.93	32.77
563.10	60.85
563.26	51.49
563.42	37.45
563.59	28.09
563.75	30.43
563.92	37.45
564.08	32.77
564.24	110.01
564.41	63.19
564.57	2.34
564.74	53.83
564.90	37.45
565.07	74.90
565.23	30.43
565.39	93.62
565.56	0.00
565.72	53.83
565.88	0.00
566.05	0.00
566.21	0.00
566.38	56.17
566.54	65.54
566.70	0.00
566.87	32.77
567.03	84.26
567.19	63.19
567.36	51.49
567.52	79.58
567.68	74.90
567.85	117.03
568.01	25.75
568.17	77.24
568.34	49.15
568.50	79.58
568.66	114.69
568.83	42.13
568.99	58.51
569.15	63.19
569.32	35.11
569.48	79.58
569.64	32.77
569.81	0.00
569.97	74.90
570.13	114.69
570.30	42.13
570.46	0.00
570.62	74.90
570.78	9.36
570.95	18.72
571.11	30.43
571.27	0.00
571.43	95.96
571.60	18.72
571.76	23.41
571.92	39.79
572.09	49.15
572.25	35.11
572.41	72.56
572.57	11.70
572.74	79.58
572.90	81.92
573.06	51.49
573.22	51.49
573.38	30.43
573.55	72.56
573.71	84.26
573.87	0.00
574.03	0.00
574.20	42.13
574.36	42.13
574.52	128.73
574.68	0.00
574.84	100.64
575.01	32.77
575.17	79.58
575.33	37.45
575.49	44.47
575.65	42.13
575.82	35.11
575.98	107.66
576.14	0.00
576.30	81.92
576.46	124.05
576.62	67.88
576.79	46.81
576.95	77.24
577.11	67.88
577.27	67.88
577.43	74.90
577.59	65.54
577.75	93.62
577.92	58.51
578.08	51.49
578.24	88.94
578.40	65.54
578.56	23.41
578.72	67.88
578.88	63.19
579.04	0.00
579.21	9.36
579.37	0.00
579.53	42.13
579.69	25.75
579.85	93.62
580.01	0.00
580.17	42.13
580.33	0.00
580.49	9.36
580.65	53.83
580.82	7.02
580.98	25.75
581.14	56.17
581.30	81.92
581.46	58.51
581.62	0.00
581.78	65.54
581.94	91.28
582.10	0.00
582.26	35.11
582.42	74.90
582.58	107.66
582.74	14.04
582.90	58.51
583.06	58.51
583.22	14.04
583.38	37.45
583.54	63.19
583.70	23.41
583.86	0.00
584.02	53.83
584.18	30.43
584.34	53.83
584.50	30.43
584.66	0.00
584.82	67.88
584.98	93.62
585.14	42.13
585.30	28.09
585.46	28.09
585.62	4.68
585.78	39.79
585.94	14.04
586.10	9.36
586.26	91.28
586.42	42.13
586.58	23.41
586.74	37.45
586.90	93.62
587.06	35.11
587.22	63.19
587.38	0.00
587.54	30.43
587.70	53.83
587.86	77.24
588.02	7.02
588.18	32.77
588.34	18.72
588.49	0.00
588.65	0.00
588.81	0.00
588.97	0.00
589.13	56.17
589.29	30.43
589.45	32.77
589.61	25.75
589.77	88.94
589.93	46.81
590.08	7.02
590.24	0.00
590.40	51.49
590.56	4.68
590.72	44.47
590.88	28.09
591.04	42.13
591.20	46.81
591.35	37.45
591.51	0.00
591.67	35.11
591.83	0.00
591.99	63.19
592.15	32.77
592.31	65.54
592.46	110.01
592.62	98.30
592.78	51.49
592.94	56.17
593.10	14.04
593.26	88.94
593.41	70.22
593.57	60.85
593.73	0.00
593.89	42.13
594.05	0.00
594.20	0.00
594.36	32.77
594.52	37.45
594.68	30.43
594.84	0.00
594.99	60.85
595.15	39.79
595.31	70.22
595.47	23.41
595.62	32.77
595.78	65.54
595.94	0.00
596.10	25.75
596.25	0.00
596.41	53.83
596.57	84.26
596.73	0.00
596.88	58.51
597.04	9.36
597.20	72.56
597.36	18.72
597.51	0.00
597.67	70.22
597.83	67.88
597.99	79.58
598.14	25.75
598.30	86.60
598.46	18.72
598.61	60.85
598.77	39.79
598.93	49.15
599.09	37.45
599.24	58.51
599.40	81.92
599.56	30.43
599.71	0.00
599.87	53.83
600.03	32.77
600.18	4.68
600.34	154.48
600.50	58.51
600.65	0.00
600.81	0.00
600.97	93.62
601.12	95.96
601.28	14.04
601.44	30.43
601.59	117.03
601.75	0.00
601.91	7.02
602.06	74.90
602.22	84.26
602.37	93.62
602.53	112.35
602.69	23.41
602.84	60.85
603.00	30.43
603.16	98.30
603.31	0.00
603.47	60.85
603.62	42.13
603.78	28.09
603.94	0.00
604.09	4.68
604.25	7.02
604.40	63.19
604.56	30.43
604.71	28.09
604.87	0.00
605.03	0.00
605.18	21.06
605.34	65.54
605.49	56.17
605.65	28.09
605.80	86.60
605.96	0.00
606.12	88.94
606.27	23.41
606.43	9.36
606.58	58.51
606.74	18.72
606.89	16.38
607.05	14.04
607.20	65.54
607.36	25.75
607.51	0.00
607.67	25.75
607.82	25.75
607.98	4.68
608.13	44.47
608.29	28.09
608.44	95.96
608.60	23.41
608.75	21.06
608.91	49.15
609.06	56.17
609.22	18.72
609.37	60.85
609.53	7.02
609.68	30.43
609.84	0.00
609.99	7.02
610.15	11.70
610.30	37.45
610.46	0.00
610.61	32.77
610.76	58.51
610.92	39.79
611.07	30.43
611.23	0.00
611.38	0.00
611.54	0.00
611.69	30.43
611.84	77.24
612.00	74.90
612.15	65.54
612.31	72.56
612.46	77.24
612.62	25.75
612.77	56.17
612.92	21.06
613.08	84.26
613.23	0.00
613.39	30.43
613.54	35.11
613.69	100.64
613.85	2.34
614.00	67.88
614.15	0.00
614.31	79.58
614.46	49.15
614.62	77.24
614.77	2.34
614.92	7.02
615.08	7.02
615.23	0.00
615.38	56.17
615.54	121.71
615.69	79.58
615.84	0.00
616.00	65.54
616.15	35.11
616.30	9.36
616.46	0.00
616.61	32.77
616.76	37.45
616.92	98.30
617.07	0.00
617.22	14.04
617.37	72.56
617.53	18.72
617.68	4.68
617.83	14.04
617.99	60.85
618.14	58.51
618.29	93.62
618.45	4.68
618.60	91.28
618.75	4.68
618.90	0.00
619.06	16.38
619.21	16.38
619.36	0.00
619.51	28.09
619.67	0.00
619.82	37.45
619.97	72.56
620.12	114.69
620.28	100.64
620.43	44.47
620.58	18.72
620.73	72.56
620.89	79.58
621.04	65.54
621.19	2.34
621.34	0.00
621.49	39.79
621.65	0.00
621.80	30.43
621.95	7.02
622.10	0.00
622.25	9.36
622.41	86.60
622.56	0.00
622.71	25.75
622.86	11.70
623.01	35.11
623.16	84.26
623.32	102.98
623.47	7.02
623.62	58.51
623.77	46.81
623.92	37.45
624.07	74.90
624.23	44.47
624.38	7.02
624.53	56.17
624.68	70.22
624.83	70.22
624.98	28.09
625.13	37.45
625.29	49.15
625.44	74.90
625.59	18.72
625.74	49.15
625.89	0.00
626.04	77.24
626.19	16.38
626.34	0.00
626.49	37.45
626.65	35.11
626.80	53.83
626.95	37.45
627.10	16.38
627.25	42.13
627.40	7.02
627.55	18.72
627.70	14.04
627.85	72.56
628.00	30.43
628.15	49.15
628.30	0.00
628.45	0.00
628.60	37.45
628.76	39.79
628.91	0.00
629.06	93.62
629.21	51.49
629.36	25.75
629.51	84.26
629.66	35.11
629.81	39.79
629.96	60.85
630.11	93.62
630.26	67.88
630.41	7.02
630.56	65.54
630.71	18.72
630.86	39.79
631.01	37.45
631.16	53.83
631.31	42.13
631.46	23.41
631.61	0.00
631.76	0.00
631.91	23.41
632.06	39.79
632.21	37.45
632.36	60.85
632.51	63.19
632.66	135.75
632.81	39.79
632.96	79.58
633.10	14.04
633.25	0.00
633.40	37.45
633.55	0.00
633.70	86.60
633.85	67.88
634.00	100.64
634.15	7.02
634.30	51.49
634.45	16.38
634.60	51.49
634.75	21.06
634.90	81.92
635.05	79.58
635.19	58.51
635.34	138.09
635.49	0.00
635.64	32.77
635.79	18.72
635.94	21.06
636.09	0.00
636.24	58.51
636.39	88.94
636.53	35.11
636.68	0.00
636.83	44.47
636.98	51.49
637.13	95.96
637.28	46.81
637.43	98.30
637.57	58.51
637.72	49.15
637.87	4.68
638.02	46.81
638.17	56.17
638.32	0.00
638.46	14.04
638.61	21.06
638.76	0.00
638.91	30.43
639.06	14.04
639.20	9.36
639.35	107.66
639.50	121.71
639.65	142.77
639.80	30.43
639.94	21.06
640.09	65.54
640.24	51.49
640.39	0.00
640.54	0.00
640.68	63.19
640.83	60.85
640.98	16.38
641.13	42.13
641.27	51.49
641.42	25.75
641.57	49.15
641.72	0.00
641.86	35.11
642.01	18.72
642.16	9.36
642.31	25.75
642.45	114.69
642.60	7.02
642.75	53.83
642.90	37.45
643.04	51.49
643.19	16.38
643.34	60.85
643.48	0.00
643.63	49.15
643.78	0.00
643.93	25.75
644.07	4.68
644.22	60.85
644.37	100.64
644.51	46.81
644.66	4.68
644.81	140.43
644.95	77.24
645.10	44.47
645.25	0.00
645.39	30.43
645.54	9.36
645.69	65.54
645.83	23.41
645.98	100.64
646.13	119.37
646.27	126.39
646.42	2.34
646.57	63.19
646.71	49.15
646.86	60.85
647.00	84.26
647.15	0.00
647.30	60.85
647.44	18.72
647.59	4.68
647.74	25.75
647.88	32.77
648.03	79.58
648.17	84.26
648.32	16.38
648.47	25.75
648.61	0.00
648.76	70.22
648.90	9.36
649.05	18.72
649.20	0.00
649.34	72.56
649.49	32.77
649.63	0.00
649.78	56.17
649.92	18.72
650.07	7.02
650.21	4.68
650.36	60.85
650.51	7.02
650.65	56.17
650.80	74.90
650.94	0.00
651.09	51.49
651.23	0.00
651.38	25.75
651.52	9.36
651.67	91.28
651.81	0.00
651.96	60.85
652.10	25.75
652.25	42.13
652.39	58.51
652.54	65.54
652.68	51.49
652.83	4.68
652.97	25.75
653.12	79.58
653.26	79.58
653.41	44.47
653.55	28.09
653.70	4.68
653.84	11.70
653.99	65.54
654.13	35.11
654.27	81.92
654.42	72.56
654.56	44.47
654.71	49.15
654.85	46.81
655.00	32.77
655.14	67.88
655.29	21.06
655.43	0.00
655.57	91.28
655.72	49.15
655.86	16.38
656.01	44.47
656.15	65.54
656.30	49.15
656.44	100.64
656.58	65.54
656.73	35.11
656.87	35.11
657.01	53.83
657.16	51.49
657.30	0.00
657.45	67.88
657.59	0.00
657.73	37.45
657.88	9.36
658.02	14.04
658.16	51.49
658.31	0.00
658.45	4.68
658.60	32.77
658.74	0.00
658.88	35.11
659.03	11.70
659.17	9.36
659.31	70.22
659.46	56.17
659.60	51.49
659.74	14.04
659.89	0.00
660.03	93.62
660.17	2.34
660.32	0.00
660.46	70.22
660.60	79.58
660.74	86.60
660.89	39.79
661.03	124.05
661.17	0.00
661.32	0.00
661.46	11.70
661.60	0.00
661.74	16.38
661.89	37.45
662.03	28.09
662.17	0.00
662.31	28.09
662.46	28.09
662.60	63.19
662.74	37.45
662.88	100.64
663.03	49.15
663.17	53.83
663.31	58.51
663.45	46.81
663.60	74.90
663.74	0.00
663.88	28.09
664.02	0.00
664.17	58.51
664.31	42.13
664.45	9.36
664.59	72.56
664.73	11.70
664.88	30.43
665.02	7.02
665.16	37.45
665.30	28.09
665.44	0.00
665.59	11.70
665.73	32.77
665.87	0.00
666.01	107.66
666.15	0.00
666.29	9.36
666.44	0.00
666.58	0.00
666.72	105.32
666.86	0.00
667.00	11.70
667.14	53.83
667.28	0.00
667.43	37.45
667.57	11.70
667.71	51.49
667.85	42.13
667.99	58.51
668.13	14.04
668.27	81.92
668.41	0.00
668.56	9.36
668.70	23.41
668.84	81.92
668.98	117.03
669.12	49.15
669.26	63.19
669.40	86.60
669.54	0.00
669.68	44.47
669.82	91.28
669.96	18.72
670.10	0.00
670.25	46.81
670.39	46.81
670.53	11.70
670.67	37.45
670.81	32.77
670.95	58.51
671.09	0.00
671.23	46.81
671.37	35.11
671.51	65.54
671.65	42.13
671.79	72.56
671.93	0.00
672.07	28.09
672.21	74.90
672.35	110.01
672.49	0.00
672.63	23.41
672.77	37.45
672.91	46.81
673.05	81.92
673.19	0.00
673.33	35.11
673.47	0.00
673.61	32.77
673.75	11.70
673.89	53.83
674.03	30.43
674.17	53.83
674.31	9.36
674.45	35.11
674.59	58.51
674.73	65.54
674.87	21.06
675.01	0.00
675.15	107.66
675.29	2.34
675.43	100.64
675.56	37.45
675.70	77.24
675.84	46.81
675.98	42.13
676.12	21.06
676.26	39.79
676.40	58.51
676.54	35.11
676.68	42.13
676.82	35.11
676.96	14.04
677.10	0.00
677.23	70.22
677.37	4.68
677.51	37.45
677.65	51.49
677.79	30.43
677.93	46.81
678.07	44.47
678.21	0.00
678.34	2.34
678.48	0.00
678.62	58.51
678.76	60.85
678.90	0.00
679.04	4.68
679.18	0.00
679.31	53.83
679.45	0.00
679.59	56.17
679.73	28.09
679.87	35.11
680.00	14.04
680.14	23.41
680.28	0.00
680.42	51.49
680.56	35.11
680.70	0.00
680.83	56.17
680.97	18.72
681.11	0.00
681.25	28.09
681.39	21.06
681.52	46.81
681.66	81.92
681.80	93.62
681.94	39.79
682.07	39.79
682.21	9.36
682.35	58.51
682.49	25.75
682.62	0.00
682.76	25.75
682.90	53.83
683.04	88.94
683.17	42.13
683.31	0.00
683.45	9.36
683.59	79.58
683.72	4.68
683.86	16.38
684.00	42.13
684.13	39.79
684.27	77.24
684.41	56.17
684.55	58.51
684.68	58.51
684.82	0.00
684.96	77.24
685.09	0.00
685.23	98.30
685.37	21.06
685.50	58.51
685.64	46.81
685.78	46.81
685.91	0.00
686.05	0.00
686.19	37.45
686.32	58.51
686.46	35.11
686.60	58.51
686.73	51.49
686.87	30.43
687.01	4.68
687.14	39.79
687.28	0.00
687.42	21.06
687.55	14.04
687.69	56.17
687.82	39.79
687.96	35.11
688.10	49.15
688.23	0.00
688.37	0.00
688.50	21.06
688.64	2.34
688.78	42.13
688.91	0.00
689.05	7.02
689.18	4.68
689.32	58.51
689.46	25.75
689.59	14.04
689.73	18.72
689.86	21.06
690.00	23.41
690.13	0.00
690.27	7.02
690.41	0.00
690.54	42.13
690.68	23.41
690.81	84.26
690.95	0.00
691.08	93.62
691.22	0.00
691.35	37.45
691.49	0.00
691.62	30.43
691.76	0.00
691.89	81.92
692.03	35.11
692.16	30.43
692.30	2.34
692.43	53.83
692.57	25.75
692.70	51.49
692.84	0.00
692.97	14.04
693.11	7.02
693.24	21.06
693.38	81.92
693.51	2.34
693.65	42.13
693.78	0.00
693.92	28.09
694.05	0.00
694.19	25.75
694.32	2.34
694.45	79.58
694.59	67.88
694.72	91.28
694.86	100.64
694.99	21.06
695.13	9.36
695.26	0.00
695.39	0.00
695.53	74.90
695.66	84.26
695.80	35.11
695.93	70.22
696.07	67.88
696.20	53.83
696.33	39.79
696.47	7.02
696.60	0.00
696.73	0.00
696.87	51.49
697.00	32.77
697.14	11.70
697.27	30.43
697.40	39.79
697.54	0.00
697.67	0.00
697.80	88.94
697.94	112.35
698.07	14.04
698.21	0.00
698.34	4.68
698.47	16.38
698.61	0.00
698.74	0.00
698.87	72.56
699.01	56.17
699.14	60.85
699.27	21.06
699.40	23.41
699.54	0.00
699.67	0.00
699.80	44.47
699.94	0.00
700.07	102.98
700.20	37.45
700.34	0.00
700.47	23.41
700.60	117.03
700.73	0.00
700.87	74.90
701.00	42.13
701.13	35.11
701.26	23.41
701.40	67.88
701.53	0.00
701.66	9.36
701.79	44.47
701.93	16.38
702.06	32.77
702.19	35.11
702.32	0.00
702.46	44.47
702.59	58.51
702.72	100.64
702.85	9.36
702.99	11.70
703.12	32.77
703.25	4.68
703.38	39.79
703.51	67.88
703.65	79.58
703.78	11.70
703.91	18.72
704.04	81.92
704.17	30.43
704.31	0.00
704.44	4.68
704.57	0.00
704.70	65.54
704.83	60.85
704.96	0.00
705.10	18.72
705.23	18.72
>>>>>End Processed Spectral Data<<<<<
