SpectraSuite Data File
++++++++++++++++++++++++++++++++++++
Date: Fri Oct 04 12:13:26 GMT-05:00 2013
User: price-jones
Dark Spectrum Present: No
Reference Spectrum Present: No
Number of Sampled Component Spectra: 1
Spectrometers: USB2+H05261
Integration Time (usec): 10000 (USB2+H05261)
Spectra Averaged: 1 (USB2+H05261)
Boxcar Smoothing: 0 (USB2+H05261)
Correct for Electrical Dark: No (USB2+H05261)
Strobe/Lamp Enabled: No (USB2+H05261)
Correct for Detector Non-linearity: No (USB2+H05261)
Correct for Stray Light: No (USB2+H05261)
Number of Pixels in Processed Spectrum: 2048
>>>>>Begin Processed Spectral Data<<<<<
365.73	0.00
365.92	0.00
366.12	0.00
366.32	0.00
366.52	0.00
366.72	0.00
366.91	0.00
367.11	0.00
367.31	0.00
367.51	0.00
367.70	0.00
367.90	0.00
368.10	0.00
368.30	0.00
368.49	0.00
368.69	0.00
368.89	0.00
369.09	0.00
369.28	0.00
369.48	0.00
369.68	0.00
369.87	0.00
370.07	0.00
370.27	0.00
370.47	0.00
370.66	0.00
370.86	0.00
371.06	0.00
371.25	0.00
371.45	0.00
371.65	0.00
371.84	0.00
372.04	65.54
372.24	63.19
372.44	63.19
372.63	11.70
372.83	0.00
373.03	23.41
373.22	30.43
373.42	32.77
373.62	58.51
373.81	46.81
374.01	117.03
374.21	51.49
374.40	49.15
374.60	28.09
374.79	4.68
374.99	60.85
375.19	112.35
375.38	46.81
375.58	67.88
375.78	79.58
375.97	81.92
376.17	0.00
376.37	0.00
376.56	25.75
376.76	0.00
376.95	46.81
377.15	21.06
377.35	30.43
377.54	0.00
377.74	35.11
377.93	53.83
378.13	11.70
378.33	2.34
378.52	58.51
378.72	0.00
378.91	0.00
379.11	49.15
379.31	74.90
379.50	107.66
379.70	0.00
379.89	4.68
380.09	44.47
380.28	14.04
380.48	14.04
380.68	30.43
380.87	0.00
381.07	9.36
381.26	2.34
381.46	25.75
381.65	53.83
381.85	7.02
382.04	35.11
382.24	0.00
382.43	0.00
382.63	4.68
382.83	23.41
383.02	0.00
383.22	14.04
383.41	0.00
383.61	0.00
383.80	25.75
384.00	51.49
384.19	67.88
384.39	39.79
384.58	63.19
384.78	65.54
384.97	30.43
385.17	30.43
385.36	4.68
385.56	32.77
385.75	21.06
385.95	0.00
386.14	4.68
386.34	16.38
386.53	81.92
386.72	9.36
386.92	0.00
387.11	0.00
387.31	14.04
387.50	0.00
387.70	53.83
387.89	39.79
388.09	23.41
388.28	0.00
388.48	58.51
388.67	21.06
388.86	11.70
389.06	0.00
389.25	0.00
389.45	0.00
389.64	51.49
389.84	14.04
390.03	60.85
390.22	65.54
390.42	46.81
390.61	4.68
390.81	58.51
391.00	0.00
391.19	28.09
391.39	23.41
391.58	42.13
391.78	16.38
391.97	0.00
392.16	0.00
392.36	18.72
392.55	51.49
392.75	39.79
392.94	0.00
393.13	35.11
393.33	56.17
393.52	32.77
393.71	4.68
393.91	0.00
394.10	14.04
394.29	0.00
394.49	60.85
394.68	42.13
394.88	9.36
395.07	0.00
395.26	37.45
395.46	79.58
395.65	11.70
395.84	81.92
396.04	72.56
396.23	65.54
396.42	60.85
396.62	42.13
396.81	28.09
397.00	25.75
397.19	16.38
397.39	0.00
397.58	46.81
397.77	32.77
397.97	14.04
398.16	60.85
398.35	46.81
398.55	14.04
398.74	9.36
398.93	0.00
399.12	23.41
399.32	65.54
399.51	28.09
399.70	58.51
399.90	51.49
400.09	21.06
400.28	28.09
400.47	39.79
400.67	37.45
400.86	2.34
401.05	32.77
401.24	51.49
401.44	4.68
401.63	28.09
401.82	32.77
402.01	0.00
402.21	30.43
402.40	0.00
402.59	0.00
402.78	0.00
402.97	51.49
403.17	88.94
403.36	0.00
403.55	0.00
403.74	0.00
403.93	35.11
404.13	0.00
404.32	58.51
404.51	86.60
404.70	18.72
404.89	0.00
405.09	46.81
405.28	0.00
405.47	32.77
405.66	84.26
405.85	0.00
406.05	39.79
406.24	0.00
406.43	42.13
406.62	0.00
406.81	79.58
407.00	0.00
407.20	67.88
407.39	23.41
407.58	30.43
407.77	28.09
407.96	30.43
408.15	42.13
408.34	70.22
408.54	65.54
408.73	0.00
408.92	11.70
409.11	70.22
409.30	100.64
409.49	65.54
409.68	72.56
409.87	44.47
410.07	35.11
410.26	28.09
410.45	121.71
410.64	11.70
410.83	0.00
411.02	42.13
411.21	58.51
411.40	67.88
411.59	0.00
411.78	28.09
411.98	4.68
412.17	28.09
412.36	0.00
412.55	28.09
412.74	21.06
412.93	56.17
413.12	84.26
413.31	58.51
413.50	23.41
413.69	112.35
413.88	0.00
414.07	28.09
414.26	0.00
414.45	11.70
414.64	0.00
414.83	23.41
415.02	72.56
415.22	53.83
415.41	25.75
415.60	0.00
415.79	25.75
415.98	56.17
416.17	42.13
416.36	14.04
416.55	67.88
416.74	16.38
416.93	102.98
417.12	0.00
417.31	0.00
417.50	23.41
417.69	98.30
417.88	21.06
418.07	30.43
418.26	30.43
418.45	0.00
418.64	11.70
418.83	30.43
419.02	32.77
419.21	35.11
419.39	11.70
419.58	35.11
419.77	21.06
419.96	56.17
420.15	74.90
420.34	0.00
420.53	37.45
420.72	28.09
420.91	21.06
421.10	51.49
421.29	0.00
421.48	0.00
421.67	35.11
421.86	16.38
422.05	4.68
422.24	23.41
422.43	44.47
422.61	0.00
422.80	86.60
422.99	0.00
423.18	9.36
423.37	39.79
423.56	18.72
423.75	98.30
423.94	0.00
424.13	84.26
424.32	2.34
424.50	93.62
424.69	72.56
424.88	30.43
425.07	21.06
425.26	2.34
425.45	58.51
425.64	72.56
425.83	28.09
426.01	0.00
426.20	11.70
426.39	0.00
426.58	0.00
426.77	0.00
426.96	16.38
427.15	32.77
427.33	23.41
427.52	0.00
427.71	0.00
427.90	65.54
428.09	14.04
428.28	91.28
428.46	65.54
428.65	0.00
428.84	9.36
429.03	7.02
429.22	28.09
429.40	25.75
429.59	0.00
429.78	21.06
429.97	79.58
430.16	14.04
430.34	67.88
430.53	9.36
430.72	37.45
430.91	16.38
431.10	84.26
431.28	18.72
431.47	18.72
431.66	0.00
431.85	25.75
432.03	35.11
432.22	58.51
432.41	9.36
432.60	0.00
432.79	39.79
432.97	39.79
433.16	58.51
433.35	58.51
433.54	39.79
433.72	56.17
433.91	0.00
434.10	0.00
434.28	23.41
434.47	58.51
434.66	30.43
434.85	32.77
435.03	0.00
435.22	51.49
435.41	37.45
435.59	67.88
435.78	67.88
435.97	25.75
436.16	37.45
436.34	2.34
436.53	0.00
436.72	79.58
436.90	0.00
437.09	0.00
437.28	32.77
437.46	9.36
437.65	4.68
437.84	18.72
438.02	32.77
438.21	0.00
438.40	81.92
438.58	32.77
438.77	72.56
438.96	14.04
439.14	9.36
439.33	23.41
439.52	0.00
439.70	0.00
439.89	23.41
440.08	60.85
440.26	18.72
440.45	30.43
440.63	67.88
440.82	39.79
441.01	46.81
441.19	23.41
441.38	79.58
441.57	0.00
441.75	84.26
441.94	30.43
442.12	0.00
442.31	95.96
442.50	56.17
442.68	23.41
442.87	44.47
443.05	0.00
443.24	28.09
443.43	70.22
443.61	65.54
443.80	58.51
443.98	0.00
444.17	0.00
444.35	39.79
444.54	4.68
444.73	0.00
444.91	9.36
445.10	0.00
445.28	4.68
445.47	95.96
445.65	60.85
445.84	16.38
446.02	37.45
446.21	32.77
446.39	35.11
446.58	60.85
446.77	21.06
446.95	30.43
447.14	70.22
447.32	18.72
447.51	39.79
447.69	63.19
447.88	74.90
448.06	30.43
448.25	0.00
448.43	86.60
448.62	53.83
448.80	0.00
448.99	0.00
449.17	9.36
449.36	46.81
449.54	39.79
449.73	7.02
449.91	46.81
450.10	0.00
450.28	49.15
450.46	18.72
450.65	21.06
450.83	49.15
451.02	23.41
451.20	30.43
451.39	124.05
451.57	0.00
451.76	39.79
451.94	4.68
452.13	18.72
452.31	88.94
452.49	25.75
452.68	2.34
452.86	4.68
453.05	9.36
453.23	102.98
453.42	0.00
453.60	67.88
453.78	25.75
453.97	0.00
454.15	35.11
454.34	67.88
454.52	39.79
454.70	0.00
454.89	18.72
455.07	56.17
455.26	0.00
455.44	42.13
455.62	60.85
455.81	32.77
455.99	37.45
456.17	7.02
456.36	25.75
456.54	58.51
456.73	23.41
456.91	18.72
457.09	4.68
457.28	18.72
457.46	37.45
457.64	28.09
457.83	2.34
458.01	81.92
458.19	30.43
458.38	91.28
458.56	25.75
458.74	39.79
458.93	0.00
459.11	65.54
459.29	39.79
459.48	0.00
459.66	58.51
459.84	2.34
460.03	30.43
460.21	100.64
460.39	110.01
460.57	28.09
460.76	21.06
460.94	119.37
461.12	18.72
461.31	72.56
461.49	58.51
461.67	14.04
461.85	35.11
462.04	131.07
462.22	84.26
462.40	18.72
462.59	30.43
462.77	58.51
462.95	11.70
463.13	56.17
463.32	0.00
463.50	25.75
463.68	7.02
463.86	0.00
464.05	18.72
464.23	70.22
464.41	95.96
464.59	0.00
464.78	77.24
464.96	88.94
465.14	2.34
465.32	37.45
465.50	21.06
465.69	0.00
465.87	0.00
466.05	2.34
466.23	42.13
466.41	7.02
466.60	65.54
466.78	0.00
466.96	2.34
467.14	72.56
467.32	0.00
467.51	23.41
467.69	0.00
467.87	4.68
468.05	37.45
468.23	93.62
468.41	39.79
468.60	18.72
468.78	0.00
468.96	0.00
469.14	51.49
469.32	25.75
469.50	49.15
469.69	25.75
469.87	70.22
470.05	0.00
470.23	56.17
470.41	28.09
470.59	0.00
470.77	0.00
470.95	37.45
471.14	0.00
471.32	0.00
471.50	30.43
471.68	7.02
471.86	23.41
472.04	11.70
472.22	56.17
472.40	121.71
472.58	126.39
472.77	32.77
472.95	0.00
473.13	67.88
473.31	35.11
473.49	0.00
473.67	18.72
473.85	32.77
474.03	32.77
474.21	28.09
474.39	39.79
474.57	0.00
474.75	39.79
474.93	35.11
475.12	65.54
475.30	25.75
475.48	72.56
475.66	4.68
475.84	28.09
476.02	0.00
476.20	28.09
476.38	0.00
476.56	65.54
476.74	0.00
476.92	28.09
477.10	42.13
477.28	42.13
477.46	95.96
477.64	32.77
477.82	11.70
478.00	0.00
478.18	0.00
478.36	28.09
478.54	46.81
478.72	35.11
478.90	56.17
479.08	107.66
479.26	44.47
479.44	53.83
479.62	35.11
479.80	70.22
479.98	84.26
480.16	37.45
480.34	53.83
480.52	18.72
480.70	56.17
480.88	4.68
481.06	42.13
481.24	0.00
481.41	63.19
481.59	58.51
481.77	21.06
481.95	0.00
482.13	79.58
482.31	81.92
482.49	16.38
482.67	81.92
482.85	58.51
483.03	0.00
483.21	18.72
483.39	21.06
483.57	0.00
483.74	49.15
483.92	46.81
484.10	44.47
484.28	14.04
484.46	0.00
484.64	0.00
484.82	98.30
485.00	0.00
485.18	9.36
485.35	67.88
485.53	131.07
485.71	88.94
485.89	23.41
486.07	14.04
486.25	74.90
486.43	16.38
486.61	46.81
486.78	56.17
486.96	51.49
487.14	7.02
487.32	0.00
487.50	4.68
487.68	32.77
487.85	4.68
488.03	53.83
488.21	0.00
488.39	28.09
488.57	11.70
488.75	81.92
488.92	93.62
489.10	0.00
489.28	42.13
489.46	25.75
489.64	0.00
489.81	117.03
489.99	86.60
490.17	49.15
490.35	53.83
490.53	25.75
490.70	56.17
490.88	46.81
491.06	51.49
491.24	11.70
491.41	25.75
491.59	81.92
491.77	60.85
491.95	9.36
492.13	32.77
492.30	46.81
492.48	0.00
492.66	0.00
492.84	72.56
493.01	53.83
493.19	14.04
493.37	95.96
493.54	0.00
493.72	60.85
493.90	84.26
494.08	46.81
494.25	28.09
494.43	39.79
494.61	16.38
494.79	0.00
494.96	0.00
495.14	42.13
495.32	0.00
495.49	67.88
495.67	16.38
495.85	0.00
496.02	67.88
496.20	30.43
496.38	4.68
496.55	0.00
496.73	86.60
496.91	91.28
497.09	9.36
497.26	9.36
497.44	37.45
497.62	51.49
497.79	86.60
497.97	35.11
498.14	102.98
498.32	23.41
498.50	11.70
498.67	84.26
498.85	0.00
499.03	39.79
499.20	21.06
499.38	60.85
499.56	0.00
499.73	16.38
499.91	16.38
500.08	77.24
500.26	7.02
500.44	102.98
500.61	42.13
500.79	0.00
500.97	42.13
501.14	88.94
501.32	2.34
501.49	37.45
501.67	53.83
501.84	28.09
502.02	49.15
502.20	9.36
502.37	18.72
502.55	0.00
502.72	35.11
502.90	39.79
503.07	56.17
503.25	65.54
503.43	0.00
503.60	65.54
503.78	60.85
503.95	37.45
504.13	67.88
504.30	65.54
504.48	63.19
504.65	0.00
504.83	51.49
505.01	0.00
505.18	23.41
505.36	70.22
505.53	25.75
505.71	159.16
505.88	39.79
506.06	14.04
506.23	28.09
506.41	7.02
506.58	49.15
506.76	32.77
506.93	49.15
507.11	23.41
507.28	0.00
507.46	30.43
507.63	46.81
507.81	37.45
507.98	18.72
508.16	0.00
508.33	74.90
508.50	70.22
508.68	9.36
508.85	98.30
509.03	49.15
509.20	58.51
509.38	0.00
509.55	2.34
509.73	18.72
509.90	0.00
510.08	30.43
510.25	28.09
510.42	0.00
510.60	49.15
510.77	53.83
510.95	25.75
511.12	32.77
511.30	35.11
511.47	30.43
511.64	0.00
511.82	21.06
511.99	18.72
512.17	32.77
512.34	28.09
512.51	37.45
512.69	100.64
512.86	18.72
513.04	0.00
513.21	77.24
513.38	46.81
513.56	30.43
513.73	30.43
513.90	30.43
514.08	93.62
514.25	35.11
514.43	37.45
514.60	77.24
514.77	0.00
514.95	0.00
515.12	63.19
515.29	28.09
515.47	93.62
515.64	0.00
515.81	67.88
515.99	110.01
516.16	102.98
516.33	7.02
516.51	23.41
516.68	39.79
516.85	23.41
517.03	0.00
517.20	63.19
517.37	53.83
517.54	63.19
517.72	42.13
517.89	77.24
518.06	30.43
518.24	0.00
518.41	42.13
518.58	63.19
518.75	0.00
518.93	25.75
519.10	42.13
519.27	32.77
519.45	0.00
519.62	67.88
519.79	0.00
519.96	42.13
520.14	42.13
520.31	46.81
520.48	70.22
520.65	98.30
520.83	77.24
521.00	56.17
521.17	39.79
521.34	58.51
521.52	67.88
521.69	23.41
521.86	53.83
522.03	37.45
522.20	60.85
522.38	0.00
522.55	16.38
522.72	42.13
522.89	93.62
523.07	0.00
523.24	0.00
523.41	0.00
523.58	0.00
523.75	0.00
523.92	0.00
524.10	9.36
524.27	21.06
524.44	51.49
524.61	0.00
524.78	35.11
524.96	4.68
525.13	0.00
525.30	56.17
525.47	11.70
525.64	0.00
525.81	32.77
525.98	42.13
526.16	0.00
526.33	32.77
526.50	67.88
526.67	11.70
526.84	67.88
527.01	46.81
527.18	70.22
527.36	0.00
527.53	35.11
527.70	25.75
527.87	70.22
528.04	93.62
528.21	42.13
528.38	37.45
528.55	53.83
528.72	30.43
528.89	9.36
529.07	56.17
529.24	18.72
529.41	0.00
529.58	30.43
529.75	86.60
529.92	49.15
530.09	0.00
530.26	67.88
530.43	117.03
530.60	0.00
530.77	0.00
530.94	9.36
531.11	39.79
531.28	0.00
531.46	0.00
531.63	23.41
531.80	51.49
531.97	9.36
532.14	49.15
532.31	23.41
532.48	30.43
532.65	0.00
532.82	53.83
532.99	35.11
533.16	67.88
533.33	42.13
533.50	42.13
533.67	98.30
533.84	21.06
534.01	65.54
534.18	0.00
534.35	14.04
534.52	9.36
534.69	18.72
534.86	18.72
535.03	28.09
535.20	100.64
535.37	9.36
535.54	11.70
535.71	39.79
535.88	21.06
536.05	77.24
536.22	110.01
536.38	53.83
536.55	100.64
536.72	58.51
536.89	112.35
537.06	86.60
537.23	37.45
537.40	84.26
537.57	49.15
537.74	74.90
537.91	63.19
538.08	9.36
538.25	42.13
538.42	16.38
538.59	23.41
538.75	102.98
538.92	35.11
539.09	14.04
539.26	28.09
539.43	46.81
539.60	84.26
539.77	126.39
539.94	112.35
540.11	152.13
540.28	51.49
540.44	14.04
540.61	138.09
540.78	60.85
540.95	28.09
541.12	0.00
541.29	72.56
541.46	53.83
541.62	23.41
541.79	0.00
541.96	0.00
542.13	107.66
542.30	88.94
542.47	35.11
542.63	0.00
542.80	21.06
542.97	0.00
543.14	7.02
543.31	49.15
543.48	60.85
543.64	39.79
543.81	0.00
543.98	16.38
544.15	63.19
544.32	23.41
544.48	7.02
544.65	51.49
544.82	58.51
544.99	88.94
545.16	0.00
545.32	74.90
545.49	42.13
545.66	16.38
545.83	21.06
546.00	112.35
546.16	74.90
546.33	42.13
546.50	44.47
546.67	46.81
546.83	72.56
547.00	65.54
547.17	35.11
547.34	37.45
547.50	9.36
547.67	56.17
547.84	4.68
548.00	21.06
548.17	42.13
548.34	93.62
548.51	16.38
548.67	39.79
548.84	44.47
549.01	77.24
549.18	67.88
549.34	63.19
549.51	0.00
549.68	30.43
549.84	37.45
550.01	35.11
550.18	11.70
550.34	67.88
550.51	72.56
550.68	93.62
550.84	100.64
551.01	11.70
551.18	46.81
551.34	65.54
551.51	25.75
551.68	25.75
551.84	53.83
552.01	0.00
552.18	74.90
552.34	72.56
552.51	53.83
552.68	0.00
552.84	0.00
553.01	39.79
553.18	42.13
553.34	0.00
553.51	63.19
553.67	0.00
553.84	35.11
554.01	11.70
554.17	16.38
554.34	88.94
554.51	72.56
554.67	16.38
554.84	67.88
555.00	0.00
555.17	0.00
555.33	16.38
555.50	42.13
555.67	32.77
555.83	91.28
556.00	30.43
556.16	105.32
556.33	21.06
556.50	84.26
556.66	0.00
556.83	46.81
556.99	72.56
557.16	35.11
557.32	58.51
557.49	88.94
557.65	53.83
557.82	14.04
557.98	4.68
558.15	2.34
558.32	39.79
558.48	9.36
558.65	49.15
558.81	25.75
558.98	23.41
559.14	0.00
559.31	32.77
559.47	102.98
559.64	4.68
559.80	23.41
559.97	0.00
560.13	2.34
560.30	91.28
560.46	58.51
560.63	4.68
560.79	2.34
560.96	42.13
561.12	63.19
561.29	0.00
561.45	0.00
561.61	42.13
561.78	56.17
561.94	32.77
562.11	9.36
562.27	35.11
562.44	42.13
562.60	53.83
562.77	28.09
562.93	60.85
563.10	128.73
563.26	11.70
563.42	25.75
563.59	32.77
563.75	32.77
563.92	7.02
564.08	49.15
564.24	60.85
564.41	74.90
564.57	51.49
564.74	84.26
564.90	74.90
565.07	67.88
565.23	65.54
565.39	28.09
565.56	0.00
565.72	4.68
565.88	98.30
566.05	21.06
566.21	0.00
566.38	56.17
566.54	0.00
566.70	32.77
566.87	95.96
567.03	4.68
567.19	79.58
567.36	0.00
567.52	51.49
567.68	9.36
567.85	9.36
568.01	65.54
568.17	11.70
568.34	100.64
568.50	35.11
568.66	110.01
568.83	11.70
568.99	124.05
569.15	16.38
569.32	65.54
569.48	0.00
569.64	0.00
569.81	2.34
569.97	25.75
570.13	28.09
570.30	86.60
570.46	0.00
570.62	39.79
570.78	30.43
570.95	65.54
571.11	51.49
571.27	37.45
571.43	65.54
571.60	37.45
571.76	44.47
571.92	0.00
572.09	9.36
572.25	30.43
572.41	93.62
572.57	25.75
572.74	72.56
572.90	74.90
573.06	56.17
573.22	11.70
573.38	18.72
573.55	0.00
573.71	98.30
573.87	65.54
574.03	56.17
574.20	65.54
574.36	46.81
574.52	100.64
574.68	58.51
574.84	56.17
575.01	74.90
575.17	51.49
575.33	81.92
575.49	16.38
575.65	46.81
575.82	72.56
575.98	67.88
576.14	46.81
576.30	51.49
576.46	32.77
576.62	16.38
576.79	0.00
576.95	44.47
577.11	44.47
577.27	28.09
577.43	46.81
577.59	37.45
577.75	67.88
577.92	42.13
578.08	58.51
578.24	9.36
578.40	21.06
578.56	23.41
578.72	18.72
578.88	0.00
579.04	9.36
579.21	2.34
579.37	79.58
579.53	35.11
579.69	58.51
579.85	131.07
580.01	60.85
580.17	14.04
580.33	14.04
580.49	44.47
580.65	35.11
580.82	51.49
580.98	58.51
581.14	0.00
581.30	44.47
581.46	0.00
581.62	14.04
581.78	86.60
581.94	39.79
582.10	0.00
582.26	121.71
582.42	42.13
582.58	16.38
582.74	79.58
582.90	0.00
583.06	0.00
583.22	60.85
583.38	0.00
583.54	91.28
583.70	18.72
583.86	95.96
584.02	67.88
584.18	91.28
584.34	9.36
584.50	28.09
584.66	685.78
584.82	1542.41
584.98	2122.87
585.14	1666.46
585.30	1064.94
585.46	720.88
585.62	437.68
585.78	276.18
585.94	177.88
586.10	0.00
586.26	58.51
586.42	58.51
586.58	114.69
586.74	9.36
586.90	0.00
587.06	16.38
587.22	46.81
587.38	65.54
587.54	79.58
587.70	81.92
587.86	145.11
588.02	159.16
588.18	170.86
588.34	142.77
588.49	51.49
588.65	56.17
588.81	67.88
588.97	4.68
589.13	42.13
589.29	135.75
589.45	102.98
589.61	56.17
589.77	86.60
589.93	25.75
590.08	72.56
590.24	0.00
590.40	0.00
590.56	65.54
590.72	23.41
590.88	74.90
591.04	53.83
591.20	42.13
591.35	58.51
591.51	72.56
591.67	84.26
591.83	49.15
591.99	9.36
592.15	32.77
592.31	84.26
592.46	49.15
592.62	18.72
592.78	11.70
592.94	21.06
593.10	63.19
593.26	117.03
593.41	79.58
593.57	86.60
593.73	16.38
593.89	105.32
594.05	248.10
594.20	290.23
594.36	210.65
594.52	224.69
594.68	46.81
594.84	131.07
594.99	102.98
595.15	63.19
595.31	7.02
595.47	21.06
595.62	0.00
595.78	53.83
595.94	93.62
596.10	7.02
596.25	49.15
596.41	30.43
596.57	49.15
596.73	91.28
596.88	42.13
597.04	0.00
597.20	102.98
597.36	156.82
597.51	110.01
597.67	37.45
597.83	18.72
597.99	0.00
598.14	72.56
598.30	88.94
598.46	56.17
598.61	86.60
598.77	63.19
598.93	14.04
599.09	16.38
599.24	98.30
599.40	67.88
599.56	79.58
599.71	35.11
599.87	0.00
600.03	0.00
600.18	42.13
600.34	65.54
600.50	30.43
600.65	28.09
600.81	0.00
600.97	88.94
601.12	16.38
601.28	93.62
601.44	25.75
601.59	39.79
601.75	32.77
601.91	0.00
602.06	35.11
602.22	14.04
602.37	51.49
602.53	42.13
602.69	119.37
602.84	86.60
603.00	105.32
603.16	53.83
603.31	77.24
603.47	86.60
603.62	53.83
603.78	79.58
603.94	84.26
604.09	81.92
604.25	88.94
604.40	65.54
604.56	39.79
604.71	124.05
604.87	58.51
605.03	70.22
605.18	32.77
605.34	7.02
605.49	67.88
605.65	0.00
605.80	46.81
605.96	11.70
606.12	9.36
606.27	51.49
606.43	11.70
606.58	35.11
606.74	100.64
606.89	124.05
607.05	215.33
607.20	273.84
607.36	278.52
607.51	198.95
607.67	175.54
607.82	168.52
607.98	67.88
608.13	4.68
608.29	53.83
608.44	23.41
608.60	42.13
608.75	46.81
608.91	56.17
609.06	189.58
609.22	355.76
609.37	465.77
609.53	299.59
609.68	236.39
609.84	196.60
609.99	194.26
610.15	152.13
610.30	39.79
610.46	11.70
610.61	4.68
610.76	0.00
610.92	18.72
611.07	79.58
611.23	39.79
611.38	2.34
611.54	25.75
611.69	53.83
611.84	28.09
612.00	32.77
612.15	16.38
612.31	77.24
612.46	81.92
612.62	4.68
612.77	88.94
612.92	49.15
613.08	23.41
613.23	32.77
613.39	0.00
613.54	28.09
613.69	276.18
613.85	402.57
614.00	629.60
614.15	589.82
614.31	437.68
614.46	292.57
614.62	140.43
614.77	145.11
614.92	102.98
615.08	112.35
615.23	0.00
615.38	21.06
615.54	53.83
615.69	42.13
615.84	102.98
616.00	149.79
616.15	182.56
616.30	86.60
616.46	126.39
616.61	74.90
616.76	98.30
616.92	79.58
617.07	84.26
617.22	77.24
617.37	60.85
617.53	37.45
617.68	32.77
617.83	51.49
617.99	28.09
618.14	23.41
618.29	0.00
618.45	11.70
618.60	98.30
618.75	0.00
618.90	72.56
619.06	42.13
619.21	53.83
619.36	67.88
619.51	0.00
619.67	7.02
619.82	23.41
619.97	147.45
620.12	93.62
620.28	60.85
620.43	25.75
620.58	0.00
620.73	30.43
620.89	32.77
621.04	11.70
621.19	56.17
621.34	124.05
621.49	159.16
621.65	163.84
621.80	25.75
621.95	74.90
622.10	53.83
622.25	49.15
622.41	117.03
622.56	42.13
622.71	0.00
622.86	32.77
623.01	42.13
623.16	11.70
623.32	77.24
623.47	14.04
623.62	0.00
623.77	114.69
623.92	65.54
624.07	16.38
624.23	32.77
624.38	44.47
624.53	21.06
624.68	39.79
624.83	86.60
624.98	32.77
625.13	46.81
625.29	70.22
625.44	25.75
625.59	23.41
625.74	95.96
625.89	79.58
626.04	152.13
626.19	236.39
626.34	245.76
626.49	304.27
626.65	266.82
626.80	243.42
626.95	107.66
627.10	100.64
627.25	100.64
627.40	93.62
627.55	93.62
627.70	30.43
627.85	72.56
628.00	67.88
628.15	77.24
628.30	72.56
628.45	39.79
628.60	9.36
628.76	0.00
628.91	131.07
629.06	28.09
629.21	0.00
629.36	0.00
629.51	35.11
629.66	30.43
629.81	28.09
629.96	37.45
630.11	74.90
630.26	72.56
630.41	156.82
630.56	156.82
630.71	102.98
630.86	53.83
631.01	67.88
631.16	84.26
631.31	35.11
631.46	28.09
631.61	84.26
631.76	0.00
631.91	25.75
632.06	25.75
632.21	35.11
632.36	32.77
632.51	67.88
632.66	0.00
632.81	44.47
632.96	154.48
633.10	208.31
633.25	278.52
633.40	196.60
633.55	93.62
633.70	110.01
633.85	32.77
634.00	65.54
634.15	28.09
634.30	93.62
634.45	60.85
634.60	9.36
634.75	65.54
634.90	0.00
635.05	42.13
635.19	98.30
635.34	49.15
635.49	4.68
635.64	32.77
635.79	16.38
635.94	28.09
636.09	21.06
636.24	65.54
636.39	149.79
636.53	46.81
636.68	42.13
636.83	9.36
636.98	88.94
637.13	98.30
637.28	0.00
637.43	4.68
637.57	9.36
637.72	180.22
637.87	304.27
638.02	353.42
638.17	423.64
638.32	271.50
638.46	227.03
638.61	163.84
638.76	102.98
638.91	23.41
639.06	140.43
639.20	58.51
639.35	112.35
639.50	23.41
639.65	138.09
639.80	425.98
639.94	589.82
640.09	617.90
640.24	411.93
640.39	353.42
640.54	245.76
640.68	131.07
640.83	149.79
640.98	53.83
641.13	72.56
641.27	16.38
641.42	18.72
641.57	0.00
641.72	23.41
641.86	0.00
642.01	60.85
642.16	9.36
642.31	72.56
642.45	30.43
642.60	42.13
642.75	0.00
642.90	0.00
643.04	44.47
643.19	0.00
643.34	86.60
643.48	18.72
643.63	0.00
643.78	11.70
643.93	77.24
644.07	84.26
644.22	126.39
644.37	60.85
644.51	11.70
644.66	32.77
644.81	18.72
644.95	42.13
645.10	84.26
645.25	86.60
645.39	70.22
645.54	2.34
645.69	60.85
645.83	0.00
645.98	58.51
646.13	44.47
646.27	0.00
646.42	74.90
646.57	58.51
646.71	67.88
646.86	21.06
647.00	37.45
647.15	74.90
647.30	0.00
647.44	0.00
647.59	25.75
647.74	0.00
647.88	0.00
648.03	51.49
648.17	0.00
648.32	7.02
648.47	0.00
648.61	7.02
648.76	0.00
648.90	51.49
649.05	67.88
649.20	140.43
649.34	86.60
649.49	65.54
649.63	44.47
649.78	51.49
649.92	0.00
650.07	126.39
650.21	299.59
650.36	334.70
650.51	315.97
650.65	355.76
650.80	287.89
650.94	173.20
651.09	105.32
651.23	58.51
651.38	35.11
651.52	28.09
651.67	53.83
651.81	42.13
651.96	18.72
652.10	9.36
652.25	14.04
652.39	72.56
652.54	72.56
652.68	72.56
652.83	88.94
652.97	152.13
653.12	135.75
653.26	95.96
653.41	145.11
653.55	114.69
653.70	65.54
653.84	32.77
653.99	42.13
654.13	0.00
654.27	0.00
654.42	46.81
654.56	25.75
654.71	28.09
654.85	0.00
655.00	0.00
655.14	56.17
655.29	35.11
655.43	70.22
655.57	0.00
655.72	0.00
655.86	0.00
656.01	46.81
656.15	28.09
656.30	42.13
656.44	0.00
656.58	63.19
656.73	58.51
656.87	37.45
657.01	0.00
657.16	0.00
657.30	0.00
657.45	32.77
657.59	63.19
657.73	51.49
657.88	21.06
658.02	0.00
658.16	0.00
658.31	18.72
658.45	86.60
658.60	39.79
658.74	56.17
658.88	63.19
659.03	25.75
659.17	60.85
659.31	28.09
659.46	102.98
659.60	177.88
659.74	217.67
659.89	227.03
660.03	154.48
660.17	77.24
660.32	110.01
660.46	25.75
660.60	2.34
660.74	32.77
660.89	32.77
661.03	0.00
661.17	49.15
661.32	56.17
661.46	65.54
661.60	49.15
661.74	35.11
661.89	44.47
662.03	32.77
662.17	28.09
662.31	51.49
662.46	42.13
662.60	25.75
662.74	67.88
662.88	95.96
663.03	0.00
663.17	60.85
663.31	74.90
663.45	58.51
663.60	30.43
663.74	2.34
663.88	56.17
664.02	95.96
664.17	32.77
664.31	58.51
664.45	42.13
664.59	32.77
664.73	91.28
664.88	53.83
665.02	0.00
665.16	56.17
665.30	7.02
665.44	51.49
665.59	46.81
665.73	0.00
665.87	35.11
666.01	9.36
666.15	74.90
666.29	77.24
666.44	23.41
666.58	49.15
666.72	65.54
666.86	21.06
667.00	28.09
667.14	0.00
667.28	72.56
667.43	243.42
667.57	327.68
667.71	341.72
667.85	292.57
667.99	208.31
668.13	194.26
668.27	98.30
668.41	42.13
668.56	7.02
668.70	49.15
668.84	95.96
668.98	81.92
669.12	46.81
669.26	7.02
669.40	86.60
669.54	65.54
669.68	42.13
669.82	63.19
669.96	49.15
670.10	63.19
670.25	46.81
670.39	49.15
670.53	39.79
670.67	95.96
670.81	67.88
670.95	86.60
671.09	23.41
671.23	128.73
671.37	149.79
671.51	194.26
671.65	163.84
671.79	135.75
671.93	135.75
672.07	81.92
672.21	37.45
672.35	51.49
672.49	23.41
672.63	74.90
672.77	145.11
672.91	7.02
673.05	56.17
673.19	21.06
673.33	0.00
673.47	67.88
673.61	11.70
673.75	0.00
673.89	65.54
674.03	77.24
674.17	0.00
674.31	2.34
674.45	21.06
674.59	18.72
674.73	86.60
674.87	42.13
675.01	0.00
675.15	2.34
675.29	72.56
675.43	63.19
675.56	11.70
675.70	72.56
675.84	107.66
675.98	0.00
676.12	18.72
676.26	39.79
676.40	37.45
676.54	46.81
676.68	0.00
676.82	67.88
676.96	86.60
677.10	32.77
677.23	60.85
677.37	0.00
677.51	74.90
677.65	91.28
677.79	65.54
677.93	0.00
678.07	30.43
678.21	42.13
678.34	46.81
678.48	18.72
678.62	0.00
678.76	51.49
678.90	65.54
679.04	25.75
679.18	9.36
679.31	0.00
679.45	65.54
679.59	0.00
679.73	0.00
679.87	25.75
680.00	51.49
680.14	0.00
680.28	2.34
680.42	74.90
680.56	11.70
680.70	46.81
680.83	37.45
680.97	65.54
681.11	93.62
681.25	30.43
681.39	0.00
681.52	14.04
681.66	14.04
681.80	0.00
681.94	21.06
682.07	0.00
682.21	0.00
682.35	0.00
682.49	0.00
682.62	35.11
682.76	70.22
682.90	110.01
683.04	37.45
683.17	86.60
683.31	124.05
683.45	93.62
683.59	124.05
683.72	86.60
683.86	51.49
684.00	49.15
684.13	110.01
684.27	21.06
684.41	46.81
684.55	0.00
684.68	11.70
684.82	39.79
684.96	18.72
685.09	63.19
685.23	25.75
685.37	39.79
685.50	25.75
685.64	88.94
685.78	46.81
685.91	0.00
686.05	0.00
686.19	7.02
686.32	46.81
686.46	25.75
686.60	16.38
686.73	133.41
686.87	28.09
687.01	0.00
687.14	0.00
687.28	25.75
687.42	23.41
687.55	49.15
687.69	0.00
687.82	0.00
687.96	23.41
688.10	23.41
688.23	23.41
688.37	72.56
688.50	28.09
688.64	7.02
688.78	42.13
688.91	0.00
689.05	4.68
689.18	60.85
689.32	133.41
689.46	51.49
689.59	53.83
689.73	9.36
689.86	44.47
690.00	30.43
690.13	0.00
690.27	0.00
690.41	0.00
690.54	0.00
690.68	49.15
690.81	0.00
690.95	42.13
691.08	30.43
691.22	63.19
691.35	65.54
691.49	28.09
691.62	21.06
691.76	14.04
691.89	86.60
692.03	65.54
692.16	49.15
692.30	42.13
692.43	16.38
692.57	58.51
692.70	49.15
692.84	117.03
692.97	56.17
693.11	86.60
693.24	138.09
693.38	58.51
693.51	79.58
693.65	49.15
693.78	79.58
693.92	49.15
694.05	0.00
694.19	35.11
694.32	0.00
694.45	9.36
694.59	30.43
694.72	84.26
694.86	0.00
694.99	0.00
695.13	0.00
695.26	25.75
695.39	0.00
695.53	21.06
695.66	0.00
695.80	91.28
695.93	58.51
696.07	0.00
696.20	25.75
696.33	9.36
696.47	0.00
696.60	0.00
696.73	42.13
696.87	37.45
697.00	30.43
697.14	30.43
697.27	18.72
697.40	18.72
697.54	0.00
697.67	21.06
697.80	63.19
697.94	91.28
698.07	7.02
698.21	23.41
698.34	16.38
698.47	0.00
698.61	18.72
698.74	112.35
698.87	0.00
699.01	0.00
699.14	0.00
699.27	46.81
699.40	93.62
699.54	46.81
699.67	49.15
699.80	44.47
699.94	0.00
700.07	4.68
700.20	14.04
700.34	60.85
700.47	9.36
700.60	0.00
700.73	72.56
700.87	84.26
701.00	58.51
701.13	35.11
701.26	0.00
701.40	21.06
701.53	79.58
701.66	0.00
701.79	0.00
701.93	32.77
702.06	58.51
702.19	14.04
702.32	53.83
702.46	18.72
702.59	11.70
702.72	39.79
702.85	114.69
702.99	210.65
703.12	313.63
703.25	285.55
703.38	191.92
703.51	182.56
703.65	124.05
703.78	180.22
703.91	107.66
704.04	0.00
704.17	32.77
704.31	93.62
704.44	60.85
704.57	37.45
704.70	28.09
704.83	0.00
704.96	0.00
705.10	14.04
705.23	21.06
>>>>>End Processed Spectral Data<<<<<
