SpectraSuite Data File
++++++++++++++++++++++++++++++++++++
Date: Fri Oct 04 12:13:32 GMT-05:00 2013
User: price-jones
Dark Spectrum Present: No
Reference Spectrum Present: No
Number of Sampled Component Spectra: 1
Spectrometers: USB2+H05261
Integration Time (usec): 10000 (USB2+H05261)
Spectra Averaged: 1 (USB2+H05261)
Boxcar Smoothing: 0 (USB2+H05261)
Correct for Electrical Dark: No (USB2+H05261)
Strobe/Lamp Enabled: No (USB2+H05261)
Correct for Detector Non-linearity: No (USB2+H05261)
Correct for Stray Light: No (USB2+H05261)
Number of Pixels in Processed Spectrum: 2048
>>>>>Begin Processed Spectral Data<<<<<
365.73	32.77
365.92	32.77
366.12	32.77
366.32	0.00
366.52	0.00
366.72	0.00
366.91	0.00
367.11	0.00
367.31	0.00
367.51	0.00
367.70	0.00
367.90	0.00
368.10	0.00
368.30	0.00
368.49	0.00
368.69	0.00
368.89	0.00
369.09	0.00
369.28	0.00
369.48	0.00
369.68	0.00
369.87	0.00
370.07	0.00
370.27	0.00
370.47	0.00
370.66	0.00
370.86	2.34
371.06	0.00
371.25	0.00
371.45	39.79
371.65	9.36
371.84	0.00
372.04	0.00
372.24	0.00
372.44	0.00
372.63	0.00
372.83	28.09
373.03	49.15
373.22	14.04
373.42	9.36
373.62	65.54
373.81	14.04
374.01	28.09
374.21	18.72
374.40	0.00
374.60	58.51
374.79	7.02
374.99	2.34
375.19	0.00
375.38	23.41
375.58	126.39
375.78	0.00
375.97	0.00
376.17	11.70
376.37	11.70
376.56	16.38
376.76	46.81
376.95	30.43
377.15	98.30
377.35	102.98
377.54	11.70
377.74	28.09
377.93	11.70
378.13	23.41
378.33	65.54
378.52	25.75
378.72	21.06
378.91	0.00
379.11	0.00
379.31	39.79
379.50	0.00
379.70	32.77
379.89	42.13
380.09	37.45
380.28	46.81
380.48	0.00
380.68	16.38
380.87	0.00
381.07	0.00
381.26	0.00
381.46	2.34
381.65	81.92
381.85	23.41
382.04	37.45
382.24	42.13
382.43	39.79
382.63	4.68
382.83	28.09
383.02	0.00
383.22	0.00
383.41	0.00
383.61	0.00
383.80	53.83
384.00	0.00
384.19	32.77
384.39	0.00
384.58	2.34
384.78	0.00
384.97	0.00
385.17	32.77
385.36	32.77
385.56	60.85
385.75	65.54
385.95	0.00
386.14	46.81
386.34	23.41
386.53	4.68
386.72	7.02
386.92	18.72
387.11	44.47
387.31	32.77
387.50	86.60
387.70	70.22
387.89	74.90
388.09	65.54
388.28	18.72
388.48	18.72
388.67	0.00
388.86	0.00
389.06	72.56
389.25	16.38
389.45	0.00
389.64	7.02
389.84	0.00
390.03	42.13
390.22	23.41
390.42	30.43
390.61	0.00
390.81	23.41
391.00	25.75
391.19	28.09
391.39	0.00
391.58	35.11
391.78	0.00
391.97	58.51
392.16	114.69
392.36	0.00
392.55	46.81
392.75	60.85
392.94	0.00
393.13	60.85
393.33	16.38
393.52	9.36
393.71	0.00
393.91	49.15
394.10	21.06
394.29	14.04
394.49	0.00
394.68	65.54
394.88	46.81
395.07	30.43
395.26	23.41
395.46	46.81
395.65	35.11
395.84	4.68
396.04	4.68
396.23	44.47
396.42	7.02
396.62	0.00
396.81	7.02
397.00	32.77
397.19	35.11
397.39	0.00
397.58	18.72
397.77	0.00
397.97	79.58
398.16	0.00
398.35	18.72
398.55	28.09
398.74	56.17
398.93	4.68
399.12	35.11
399.32	0.00
399.51	35.11
399.70	0.00
399.90	60.85
400.09	81.92
400.28	21.06
400.47	0.00
400.67	16.38
400.86	25.75
401.05	11.70
401.24	46.81
401.44	67.88
401.63	30.43
401.82	58.51
402.01	0.00
402.21	16.38
402.40	2.34
402.59	98.30
402.78	0.00
402.97	51.49
403.17	39.79
403.36	9.36
403.55	16.38
403.74	25.75
403.93	39.79
404.13	28.09
404.32	32.77
404.51	44.47
404.70	65.54
404.89	0.00
405.09	37.45
405.28	98.30
405.47	102.98
405.66	93.62
405.85	65.54
406.05	32.77
406.24	44.47
406.43	84.26
406.62	51.49
406.81	16.38
407.00	53.83
407.20	0.00
407.39	0.00
407.58	37.45
407.77	49.15
407.96	39.79
408.15	30.43
408.34	23.41
408.54	28.09
408.73	35.11
408.92	9.36
409.11	16.38
409.30	0.00
409.49	0.00
409.68	0.00
409.87	42.13
410.07	88.94
410.26	30.43
410.45	14.04
410.64	4.68
410.83	4.68
411.02	11.70
411.21	0.00
411.40	0.00
411.59	0.00
411.78	65.54
411.98	0.00
412.17	25.75
412.36	16.38
412.55	2.34
412.74	9.36
412.93	147.45
413.12	0.00
413.31	37.45
413.50	39.79
413.69	0.00
413.88	35.11
414.07	25.75
414.26	72.56
414.45	91.28
414.64	28.09
414.83	86.60
415.02	63.19
415.22	0.00
415.41	0.00
415.60	35.11
415.79	0.00
415.98	63.19
416.17	74.90
416.36	0.00
416.55	0.00
416.74	58.51
416.93	28.09
417.12	0.00
417.31	58.51
417.50	23.41
417.69	28.09
417.88	35.11
418.07	30.43
418.26	23.41
418.45	46.81
418.64	74.90
418.83	11.70
419.02	0.00
419.21	77.24
419.39	18.72
419.58	37.45
419.77	0.00
419.96	11.70
420.15	63.19
420.34	30.43
420.53	35.11
420.72	4.68
420.91	21.06
421.10	2.34
421.29	7.02
421.48	46.81
421.67	58.51
421.86	60.85
422.05	32.77
422.24	0.00
422.43	18.72
422.61	58.51
422.80	0.00
422.99	30.43
423.18	117.03
423.37	37.45
423.56	49.15
423.75	86.60
423.94	63.19
424.13	4.68
424.32	53.83
424.50	0.00
424.69	0.00
424.88	4.68
425.07	51.49
425.26	25.75
425.45	11.70
425.64	44.47
425.83	7.02
426.01	0.00
426.20	53.83
426.39	9.36
426.58	46.81
426.77	39.79
426.96	0.00
427.15	4.68
427.33	9.36
427.52	25.75
427.71	14.04
427.90	0.00
428.09	60.85
428.28	16.38
428.46	56.17
428.65	39.79
428.84	0.00
429.03	7.02
429.22	37.45
429.40	49.15
429.59	88.94
429.78	23.41
429.97	18.72
430.16	4.68
430.34	30.43
430.53	42.13
430.72	35.11
430.91	25.75
431.10	49.15
431.28	23.41
431.47	2.34
431.66	46.81
431.85	70.22
432.03	0.00
432.22	53.83
432.41	0.00
432.60	37.45
432.79	56.17
432.97	7.02
433.16	0.00
433.35	0.00
433.54	51.49
433.72	9.36
433.91	86.60
434.10	74.90
434.28	42.13
434.47	70.22
434.66	39.79
434.85	25.75
435.03	21.06
435.22	25.75
435.41	30.43
435.59	7.02
435.78	65.54
435.97	60.85
436.16	9.36
436.34	65.54
436.53	0.00
436.72	51.49
436.90	18.72
437.09	46.81
437.28	95.96
437.46	102.98
437.65	2.34
437.84	42.13
438.02	2.34
438.21	93.62
438.40	44.47
438.58	23.41
438.77	23.41
438.96	72.56
439.14	0.00
439.33	30.43
439.52	77.24
439.70	25.75
439.89	0.00
440.08	0.00
440.26	84.26
440.45	25.75
440.63	21.06
440.82	70.22
441.01	56.17
441.19	72.56
441.38	105.32
441.57	28.09
441.75	18.72
441.94	18.72
442.12	98.30
442.31	60.85
442.50	46.81
442.68	60.85
442.87	100.64
443.05	105.32
443.24	35.11
443.43	0.00
443.61	86.60
443.80	7.02
443.98	14.04
444.17	37.45
444.35	32.77
444.54	79.58
444.73	37.45
444.91	42.13
445.10	0.00
445.28	0.00
445.47	46.81
445.65	70.22
445.84	70.22
446.02	44.47
446.21	0.00
446.39	32.77
446.58	23.41
446.77	14.04
446.95	21.06
447.14	0.00
447.32	100.64
447.51	18.72
447.69	21.06
447.88	25.75
448.06	37.45
448.25	53.83
448.43	11.70
448.62	30.43
448.80	25.75
448.99	9.36
449.17	79.58
449.36	32.77
449.54	0.00
449.73	0.00
449.91	0.00
450.10	42.13
450.28	44.47
450.46	7.02
450.65	49.15
450.83	0.00
451.02	35.11
451.20	72.56
451.39	53.83
451.57	11.70
451.76	0.00
451.94	93.62
452.13	35.11
452.31	35.11
452.49	23.41
452.68	14.04
452.86	56.17
453.05	0.00
453.23	23.41
453.42	39.79
453.60	25.75
453.78	72.56
453.97	7.02
454.15	39.79
454.34	0.00
454.52	0.00
454.70	7.02
454.89	30.43
455.07	18.72
455.26	0.00
455.44	39.79
455.62	63.19
455.81	16.38
455.99	18.72
456.17	0.00
456.36	42.13
456.54	131.07
456.73	14.04
456.91	133.41
457.09	63.19
457.28	42.13
457.46	28.09
457.64	28.09
457.83	25.75
458.01	4.68
458.19	0.00
458.38	86.60
458.56	56.17
458.74	53.83
458.93	84.26
459.11	81.92
459.29	51.49
459.48	100.64
459.66	11.70
459.84	63.19
460.03	0.00
460.21	7.02
460.39	21.06
460.57	2.34
460.76	21.06
460.94	0.00
461.12	70.22
461.31	4.68
461.49	56.17
461.67	2.34
461.85	44.47
462.04	23.41
462.22	93.62
462.40	79.58
462.59	39.79
462.77	0.00
462.95	39.79
463.13	0.00
463.32	32.77
463.50	58.51
463.68	74.90
463.86	30.43
464.05	0.00
464.23	74.90
464.41	9.36
464.59	79.58
464.78	0.00
464.96	35.11
465.14	21.06
465.32	21.06
465.50	67.88
465.69	95.96
465.87	4.68
466.05	0.00
466.23	23.41
466.41	93.62
466.60	4.68
466.78	95.96
466.96	0.00
467.14	93.62
467.32	18.72
467.51	0.00
467.69	51.49
467.87	88.94
468.05	138.09
468.23	133.41
468.41	0.00
468.60	18.72
468.78	56.17
468.96	70.22
469.14	77.24
469.32	74.90
469.50	72.56
469.69	56.17
469.87	18.72
470.05	56.17
470.23	72.56
470.41	0.00
470.59	60.85
470.77	0.00
470.95	44.47
471.14	23.41
471.32	35.11
471.50	88.94
471.68	84.26
471.86	18.72
472.04	18.72
472.22	51.49
472.40	28.09
472.58	0.00
472.77	28.09
472.95	60.85
473.13	46.81
473.31	77.24
473.49	7.02
473.67	86.60
473.85	39.79
474.03	2.34
474.21	4.68
474.39	117.03
474.57	95.96
474.75	49.15
474.93	77.24
475.12	44.47
475.30	9.36
475.48	16.38
475.66	0.00
475.84	16.38
476.02	25.75
476.20	21.06
476.38	0.00
476.56	112.35
476.74	0.00
476.92	32.77
477.10	25.75
477.28	51.49
477.46	53.83
477.64	30.43
477.82	21.06
478.00	23.41
478.18	53.83
478.36	30.43
478.54	0.00
478.72	11.70
478.90	30.43
479.08	46.81
479.26	0.00
479.44	49.15
479.62	0.00
479.80	58.51
479.98	49.15
480.16	0.00
480.34	0.00
480.52	0.00
480.70	11.70
480.88	44.47
481.06	107.66
481.24	44.47
481.41	74.90
481.59	88.94
481.77	102.98
481.95	25.75
482.13	58.51
482.31	0.00
482.49	7.02
482.67	0.00
482.85	30.43
483.03	32.77
483.21	126.39
483.39	84.26
483.57	60.85
483.74	67.88
483.92	30.43
484.10	53.83
484.28	16.38
484.46	32.77
484.64	72.56
484.82	58.51
485.00	37.45
485.18	58.51
485.35	0.00
485.53	65.54
485.71	39.79
485.89	7.02
486.07	7.02
486.25	42.13
486.43	0.00
486.61	39.79
486.78	21.06
486.96	39.79
487.14	60.85
487.32	60.85
487.50	79.58
487.68	32.77
487.85	0.00
488.03	0.00
488.21	88.94
488.39	14.04
488.57	0.00
488.75	49.15
488.92	37.45
489.10	0.00
489.28	0.00
489.46	74.90
489.64	7.02
489.81	9.36
489.99	56.17
490.17	46.81
490.35	0.00
490.53	0.00
490.70	51.49
490.88	18.72
491.06	9.36
491.24	32.77
491.41	51.49
491.59	114.69
491.77	110.01
491.95	4.68
492.13	0.00
492.30	16.38
492.48	0.00
492.66	7.02
492.84	4.68
493.01	0.00
493.19	14.04
493.37	65.54
493.54	14.04
493.72	81.92
493.90	63.19
494.08	21.06
494.25	21.06
494.43	81.92
494.61	18.72
494.79	0.00
494.96	30.43
495.14	16.38
495.32	56.17
495.49	67.88
495.67	51.49
495.85	60.85
496.02	35.11
496.20	44.47
496.38	0.00
496.55	14.04
496.73	42.13
496.91	63.19
497.09	11.70
497.26	63.19
497.44	86.60
497.62	0.00
497.79	0.00
497.97	37.45
498.14	42.13
498.32	37.45
498.50	72.56
498.67	86.60
498.85	60.85
499.03	77.24
499.20	42.13
499.38	0.00
499.56	30.43
499.73	42.13
499.91	32.77
500.08	11.70
500.26	56.17
500.44	51.49
500.61	0.00
500.79	0.00
500.97	58.51
501.14	74.90
501.32	0.00
501.49	119.37
501.67	37.45
501.84	7.02
502.02	18.72
502.20	21.06
502.37	91.28
502.55	4.68
502.72	70.22
502.90	11.70
503.07	102.98
503.25	37.45
503.43	49.15
503.60	39.79
503.78	37.45
503.95	88.94
504.13	28.09
504.30	23.41
504.48	58.51
504.65	18.72
504.83	65.54
505.01	51.49
505.18	0.00
505.36	35.11
505.53	32.77
505.71	37.45
505.88	0.00
506.06	145.11
506.23	72.56
506.41	7.02
506.58	0.00
506.76	2.34
506.93	0.00
507.11	67.88
507.28	32.77
507.46	84.26
507.63	98.30
507.81	4.68
507.98	18.72
508.16	53.83
508.33	4.68
508.50	30.43
508.68	18.72
508.85	72.56
509.03	18.72
509.20	53.83
509.38	4.68
509.55	70.22
509.73	35.11
509.90	74.90
510.08	35.11
510.25	11.70
510.42	42.13
510.60	30.43
510.77	60.85
510.95	117.03
511.12	53.83
511.30	112.35
511.47	79.58
511.64	23.41
511.82	23.41
511.99	0.00
512.17	2.34
512.34	18.72
512.51	0.00
512.69	56.17
512.86	49.15
513.04	37.45
513.21	58.51
513.38	16.38
513.56	65.54
513.73	56.17
513.90	51.49
514.08	60.85
514.25	42.13
514.43	37.45
514.60	0.00
514.77	79.58
514.95	72.56
515.12	32.77
515.29	46.81
515.47	2.34
515.64	0.00
515.81	37.45
515.99	63.19
516.16	49.15
516.33	9.36
516.51	0.00
516.68	25.75
516.85	21.06
517.03	114.69
517.20	53.83
517.37	0.00
517.54	46.81
517.72	88.94
517.89	25.75
518.06	0.00
518.24	11.70
518.41	0.00
518.58	0.00
518.75	65.54
518.93	79.58
519.10	39.79
519.27	35.11
519.45	46.81
519.62	98.30
519.79	86.60
519.96	49.15
520.14	51.49
520.31	95.96
520.48	0.00
520.65	74.90
520.83	0.00
521.00	30.43
521.17	0.00
521.34	0.00
521.52	0.00
521.69	72.56
521.86	79.58
522.03	42.13
522.20	39.79
522.38	67.88
522.55	0.00
522.72	42.13
522.89	30.43
523.07	91.28
523.24	46.81
523.41	28.09
523.58	86.60
523.75	0.00
523.92	0.00
524.10	88.94
524.27	91.28
524.44	18.72
524.61	44.47
524.78	0.00
524.96	14.04
525.13	0.00
525.30	133.41
525.47	7.02
525.64	32.77
525.81	51.49
525.98	37.45
526.16	23.41
526.33	51.49
526.50	9.36
526.67	39.79
526.84	84.26
527.01	67.88
527.18	0.00
527.36	7.02
527.53	0.00
527.70	35.11
527.87	72.56
528.04	0.00
528.21	14.04
528.38	74.90
528.55	58.51
528.72	42.13
528.89	0.00
529.07	39.79
529.24	53.83
529.41	53.83
529.58	21.06
529.75	35.11
529.92	0.00
530.09	0.00
530.26	81.92
530.43	23.41
530.60	7.02
530.77	30.43
530.94	0.00
531.11	32.77
531.28	107.66
531.46	51.49
531.63	0.00
531.80	72.56
531.97	42.13
532.14	11.70
532.31	159.16
532.48	88.94
532.65	88.94
532.82	44.47
532.99	72.56
533.16	44.47
533.33	51.49
533.50	84.26
533.67	42.13
533.84	49.15
534.01	84.26
534.18	49.15
534.35	42.13
534.52	9.36
534.69	53.83
534.86	0.00
535.03	100.64
535.20	0.00
535.37	0.00
535.54	0.00
535.71	0.00
535.88	9.36
536.05	23.41
536.22	152.13
536.38	58.51
536.55	23.41
536.72	0.00
536.89	65.54
537.06	0.00
537.23	67.88
537.40	0.00
537.57	42.13
537.74	28.09
537.91	93.62
538.08	81.92
538.25	9.36
538.42	63.19
538.59	0.00
538.75	56.17
538.92	58.51
539.09	37.45
539.26	32.77
539.43	51.49
539.60	49.15
539.77	84.26
539.94	39.79
540.11	42.13
540.28	25.75
540.44	58.51
540.61	0.00
540.78	0.00
540.95	58.51
541.12	49.15
541.29	79.58
541.46	65.54
541.62	107.66
541.79	7.02
541.96	7.02
542.13	28.09
542.30	35.11
542.47	74.90
542.63	39.79
542.80	0.00
542.97	42.13
543.14	0.00
543.31	18.72
543.48	49.15
543.64	0.00
543.81	0.00
543.98	7.02
544.15	49.15
544.32	70.22
544.48	56.17
544.65	63.19
544.82	32.77
544.99	81.92
545.16	0.00
545.32	88.94
545.49	18.72
545.66	128.73
545.83	117.03
546.00	72.56
546.16	0.00
546.33	23.41
546.50	46.81
546.67	81.92
546.83	0.00
547.00	2.34
547.17	0.00
547.34	60.85
547.50	95.96
547.67	49.15
547.84	49.15
548.00	28.09
548.17	72.56
548.34	0.00
548.51	74.90
548.67	86.60
548.84	32.77
549.01	0.00
549.18	0.00
549.34	140.43
549.51	102.98
549.68	70.22
549.84	49.15
550.01	32.77
550.18	7.02
550.34	81.92
550.51	23.41
550.68	86.60
550.84	56.17
551.01	44.47
551.18	102.98
551.34	4.68
551.51	65.54
551.68	39.79
551.84	28.09
552.01	9.36
552.18	86.60
552.34	0.00
552.51	0.00
552.68	72.56
552.84	65.54
553.01	0.00
553.18	100.64
553.34	77.24
553.51	86.60
553.67	0.00
553.84	65.54
554.01	44.47
554.17	51.49
554.34	0.00
554.51	14.04
554.67	39.79
554.84	28.09
555.00	114.69
555.17	72.56
555.33	30.43
555.50	72.56
555.67	0.00
555.83	0.00
556.00	63.19
556.16	16.38
556.33	63.19
556.50	46.81
556.66	81.92
556.83	7.02
556.99	21.06
557.16	2.34
557.32	16.38
557.49	7.02
557.65	46.81
557.82	0.00
557.98	46.81
558.15	32.77
558.32	0.00
558.48	46.81
558.65	51.49
558.81	74.90
558.98	0.00
559.14	46.81
559.31	166.18
559.47	18.72
559.64	79.58
559.80	65.54
559.97	0.00
560.13	79.58
560.30	65.54
560.46	42.13
560.63	14.04
560.79	0.00
560.96	53.83
561.12	28.09
561.29	79.58
561.45	0.00
561.61	11.70
561.78	37.45
561.94	0.00
562.11	32.77
562.27	32.77
562.44	0.00
562.60	18.72
562.77	67.88
562.93	81.92
563.10	21.06
563.26	86.60
563.42	67.88
563.59	107.66
563.75	70.22
563.92	37.45
564.08	95.96
564.24	44.47
564.41	74.90
564.57	23.41
564.74	65.54
564.90	88.94
565.07	81.92
565.23	18.72
565.39	0.00
565.56	18.72
565.72	67.88
565.88	37.45
566.05	0.00
566.21	74.90
566.38	30.43
566.54	58.51
566.70	77.24
566.87	131.07
567.03	51.49
567.19	32.77
567.36	98.30
567.52	53.83
567.68	0.00
567.85	74.90
568.01	0.00
568.17	37.45
568.34	51.49
568.50	79.58
568.66	56.17
568.83	0.00
568.99	28.09
569.15	0.00
569.32	60.85
569.48	14.04
569.64	11.70
569.81	4.68
569.97	58.51
570.13	23.41
570.30	39.79
570.46	0.00
570.62	32.77
570.78	65.54
570.95	117.03
571.11	60.85
571.27	56.17
571.43	72.56
571.60	25.75
571.76	0.00
571.92	105.32
572.09	0.00
572.25	7.02
572.41	21.06
572.57	9.36
572.74	30.43
572.90	16.38
573.06	77.24
573.22	32.77
573.38	30.43
573.55	37.45
573.71	79.58
573.87	35.11
574.03	0.00
574.20	49.15
574.36	65.54
574.52	9.36
574.68	0.00
574.84	16.38
575.01	14.04
575.17	16.38
575.33	44.47
575.49	35.11
575.65	32.77
575.82	4.68
575.98	44.47
576.14	25.75
576.30	60.85
576.46	79.58
576.62	0.00
576.79	23.41
576.95	65.54
577.11	46.81
577.27	0.00
577.43	0.00
577.59	14.04
577.75	2.34
577.92	9.36
578.08	56.17
578.24	0.00
578.40	70.22
578.56	72.56
578.72	28.09
578.88	58.51
579.04	9.36
579.21	18.72
579.37	2.34
579.53	25.75
579.69	119.37
579.85	42.13
580.01	0.00
580.17	42.13
580.33	98.30
580.49	63.19
580.65	102.98
580.82	0.00
580.98	0.00
581.14	102.98
581.30	21.06
581.46	25.75
581.62	14.04
581.78	46.81
581.94	0.00
582.10	63.19
582.26	79.58
582.42	74.90
582.58	51.49
582.74	0.00
582.90	7.02
583.06	28.09
583.22	88.94
583.38	46.81
583.54	74.90
583.70	105.32
583.86	70.22
584.02	112.35
584.18	0.00
584.34	60.85
584.50	9.36
584.66	25.75
584.82	63.19
584.98	56.17
585.14	49.15
585.30	30.43
585.46	44.47
585.62	0.00
585.78	63.19
585.94	14.04
586.10	49.15
586.26	53.83
586.42	77.24
586.58	67.88
586.74	77.24
586.90	58.51
587.06	98.30
587.22	100.64
587.38	0.00
587.54	7.02
587.70	56.17
587.86	0.00
588.02	32.77
588.18	53.83
588.34	21.06
588.49	51.49
588.65	51.49
588.81	16.38
588.97	4.68
589.13	60.85
589.29	102.98
589.45	56.17
589.61	56.17
589.77	0.00
589.93	84.26
590.08	84.26
590.24	0.00
590.40	77.24
590.56	42.13
590.72	0.00
590.88	0.00
591.04	23.41
591.20	44.47
591.35	77.24
591.51	2.34
591.67	42.13
591.83	81.92
591.99	4.68
592.15	74.90
592.31	0.00
592.46	0.00
592.62	0.00
592.78	60.85
592.94	67.88
593.10	4.68
593.26	39.79
593.41	37.45
593.57	37.45
593.73	49.15
593.89	0.00
594.05	0.00
594.20	9.36
594.36	35.11
594.52	63.19
594.68	37.45
594.84	0.00
594.99	7.02
595.15	93.62
595.31	72.56
595.47	131.07
595.62	35.11
595.78	0.00
595.94	72.56
596.10	91.28
596.25	91.28
596.41	39.79
596.57	7.02
596.73	79.58
596.88	114.69
597.04	0.00
597.20	53.83
597.36	14.04
597.51	37.45
597.67	21.06
597.83	2.34
597.99	14.04
598.14	0.00
598.30	37.45
598.46	95.96
598.61	0.00
598.77	58.51
598.93	16.38
599.09	79.58
599.24	44.47
599.40	32.77
599.56	42.13
599.71	0.00
599.87	121.71
600.03	84.26
600.18	0.00
600.34	37.45
600.50	56.17
600.65	32.77
600.81	79.58
600.97	56.17
601.12	18.72
601.28	65.54
601.44	81.92
601.59	56.17
601.75	23.41
601.91	0.00
602.06	53.83
602.22	81.92
602.37	28.09
602.53	72.56
602.69	0.00
602.84	93.62
603.00	60.85
603.16	77.24
603.31	30.43
603.47	79.58
603.62	23.41
603.78	98.30
603.94	32.77
604.09	56.17
604.25	21.06
604.40	70.22
604.56	88.94
604.71	142.77
604.87	49.15
605.03	60.85
605.18	35.11
605.34	102.98
605.49	39.79
605.65	21.06
605.80	56.17
605.96	93.62
606.12	0.00
606.27	86.60
606.43	105.32
606.58	0.00
606.74	133.41
606.89	0.00
607.05	28.09
607.20	53.83
607.36	65.54
607.51	74.90
607.67	67.88
607.82	4.68
607.98	0.00
608.13	0.00
608.29	42.13
608.44	21.06
608.60	23.41
608.75	25.75
608.91	2.34
609.06	7.02
609.22	74.90
609.37	0.00
609.53	46.81
609.68	0.00
609.84	46.81
609.99	42.13
610.15	21.06
610.30	39.79
610.46	9.36
610.61	35.11
610.76	53.83
610.92	11.70
611.07	0.00
611.23	60.85
611.38	88.94
611.54	11.70
611.69	74.90
611.84	49.15
612.00	63.19
612.15	25.75
612.31	16.38
612.46	23.41
612.62	110.01
612.77	72.56
612.92	0.00
613.08	11.70
613.23	0.00
613.39	32.77
613.54	0.00
613.69	72.56
613.85	42.13
614.00	65.54
614.15	102.98
614.31	70.22
614.46	88.94
614.62	28.09
614.77	14.04
614.92	0.00
615.08	37.45
615.23	30.43
615.38	9.36
615.54	42.13
615.69	42.13
615.84	126.39
616.00	42.13
616.15	0.00
616.30	60.85
616.46	51.49
616.61	32.77
616.76	65.54
616.92	42.13
617.07	39.79
617.22	0.00
617.37	39.79
617.53	56.17
617.68	79.58
617.83	0.00
617.99	77.24
618.14	35.11
618.29	30.43
618.45	0.00
618.60	11.70
618.75	0.00
618.90	18.72
619.06	72.56
619.21	65.54
619.36	58.51
619.51	79.58
619.67	70.22
619.82	35.11
619.97	42.13
620.12	30.43
620.28	84.26
620.43	86.60
620.58	60.85
620.73	81.92
620.89	2.34
621.04	0.00
621.19	51.49
621.34	81.92
621.49	0.00
621.65	65.54
621.80	51.49
621.95	0.00
622.10	112.35
622.25	46.81
622.41	84.26
622.56	46.81
622.71	30.43
622.86	0.00
623.01	72.56
623.16	98.30
623.32	37.45
623.47	46.81
623.62	14.04
623.77	98.30
623.92	39.79
624.07	0.00
624.23	58.51
624.38	39.79
624.53	37.45
624.68	60.85
624.83	86.60
624.98	88.94
625.13	44.47
625.29	0.00
625.44	44.47
625.59	37.45
625.74	0.00
625.89	32.77
626.04	11.70
626.19	53.83
626.34	77.24
626.49	0.00
626.65	65.54
626.80	11.70
626.95	0.00
627.10	37.45
627.25	42.13
627.40	56.17
627.55	51.49
627.70	49.15
627.85	18.72
628.00	51.49
628.15	39.79
628.30	0.00
628.45	4.68
628.60	30.43
628.76	25.75
628.91	16.38
629.06	88.94
629.21	28.09
629.36	23.41
629.51	110.01
629.66	14.04
629.81	25.75
629.96	32.77
630.11	16.38
630.26	65.54
630.41	21.06
630.56	58.51
630.71	86.60
630.86	18.72
631.01	0.00
631.16	51.49
631.31	39.79
631.46	37.45
631.61	74.90
631.76	30.43
631.91	39.79
632.06	51.49
632.21	63.19
632.36	65.54
632.51	0.00
632.66	0.00
632.81	58.51
632.96	14.04
633.10	67.88
633.25	72.56
633.40	53.83
633.55	0.00
633.70	53.83
633.85	28.09
634.00	16.38
634.15	98.30
634.30	65.54
634.45	35.11
634.60	72.56
634.75	23.41
634.90	53.83
635.05	35.11
635.19	60.85
635.34	14.04
635.49	74.90
635.64	14.04
635.79	28.09
635.94	9.36
636.09	39.79
636.24	39.79
636.39	23.41
636.53	30.43
636.68	0.00
636.83	0.00
636.98	0.00
637.13	0.00
637.28	56.17
637.43	25.75
637.57	32.77
637.72	0.00
637.87	93.62
638.02	81.92
638.17	21.06
638.32	70.22
638.46	42.13
638.61	30.43
638.76	32.77
638.91	91.28
639.06	79.58
639.20	49.15
639.35	60.85
639.50	28.09
639.65	46.81
639.80	105.32
639.94	63.19
640.09	42.13
640.24	65.54
640.39	79.58
640.54	51.49
640.68	105.32
640.83	51.49
640.98	0.00
641.13	121.71
641.27	0.00
641.42	0.00
641.57	93.62
641.72	81.92
641.86	77.24
642.01	30.43
642.16	110.01
642.31	30.43
642.45	124.05
642.60	21.06
642.75	88.94
642.90	86.60
643.04	49.15
643.19	0.00
643.34	16.38
643.48	30.43
643.63	0.00
643.78	70.22
643.93	93.62
644.07	72.56
644.22	65.54
644.37	70.22
644.51	44.47
644.66	0.00
644.81	0.00
644.95	25.75
645.10	30.43
645.25	65.54
645.39	81.92
645.54	72.56
645.69	0.00
645.83	46.81
645.98	91.28
646.13	28.09
646.27	60.85
646.42	77.24
646.57	21.06
646.71	11.70
646.86	74.90
647.00	86.60
647.15	11.70
647.30	0.00
647.44	0.00
647.59	4.68
647.74	0.00
647.88	63.19
648.03	98.30
648.17	79.58
648.32	9.36
648.47	21.06
648.61	25.75
648.76	0.00
648.90	35.11
649.05	79.58
649.20	124.05
649.34	79.58
649.49	0.00
649.63	9.36
649.78	0.00
649.92	18.72
650.07	70.22
650.21	35.11
650.36	77.24
650.51	70.22
650.65	81.92
650.80	0.00
650.94	0.00
651.09	56.17
651.23	23.41
651.38	23.41
651.52	30.43
651.67	51.49
651.81	0.00
651.96	60.85
652.10	102.98
652.25	32.77
652.39	11.70
652.54	37.45
652.68	30.43
652.83	37.45
652.97	11.70
653.12	58.51
653.26	49.15
653.41	4.68
653.55	25.75
653.70	9.36
653.84	18.72
653.99	32.77
654.13	51.49
654.27	0.00
654.42	58.51
654.56	51.49
654.71	23.41
654.85	21.06
655.00	25.75
655.14	91.28
655.29	42.13
655.43	23.41
655.57	0.00
655.72	51.49
655.86	98.30
656.01	0.00
656.15	18.72
656.30	16.38
656.44	0.00
656.58	0.00
656.73	9.36
656.87	16.38
657.01	77.24
657.16	7.02
657.30	53.83
657.45	28.09
657.59	16.38
657.73	58.51
657.88	39.79
658.02	79.58
658.16	25.75
658.31	77.24
658.45	0.00
658.60	21.06
658.74	39.79
658.88	91.28
659.03	9.36
659.17	0.00
659.31	51.49
659.46	32.77
659.60	37.45
659.74	0.00
659.89	79.58
660.03	56.17
660.17	72.56
660.32	51.49
660.46	7.02
660.60	0.00
660.74	105.32
660.89	72.56
661.03	51.49
661.17	0.00
661.32	37.45
661.46	46.81
661.60	0.00
661.74	39.79
661.89	58.51
662.03	65.54
662.17	21.06
662.31	51.49
662.46	11.70
662.60	51.49
662.74	9.36
662.88	56.17
663.03	16.38
663.17	53.83
663.31	53.83
663.45	9.36
663.60	49.15
663.74	23.41
663.88	70.22
664.02	35.11
664.17	70.22
664.31	42.13
664.45	23.41
664.59	0.00
664.73	25.75
664.88	0.00
665.02	0.00
665.16	0.00
665.30	18.72
665.44	37.45
665.59	0.00
665.73	2.34
665.87	0.00
666.01	53.83
666.15	100.64
666.29	46.81
666.44	28.09
666.58	16.38
666.72	58.51
666.86	16.38
667.00	51.49
667.14	0.00
667.28	30.43
667.43	0.00
667.57	53.83
667.71	74.90
667.85	25.75
667.99	0.00
668.13	4.68
668.27	37.45
668.41	0.00
668.56	0.00
668.70	30.43
668.84	49.15
668.98	72.56
669.12	91.28
669.26	35.11
669.40	39.79
669.54	102.98
669.68	81.92
669.82	0.00
669.96	21.06
670.10	51.49
670.25	25.75
670.39	0.00
670.53	133.41
670.67	51.49
670.81	4.68
670.95	30.43
671.09	0.00
671.23	25.75
671.37	79.58
671.51	9.36
671.65	72.56
671.79	42.13
671.93	0.00
672.07	44.47
672.21	77.24
672.35	37.45
672.49	72.56
672.63	0.00
672.77	60.85
672.91	102.98
673.05	44.47
673.19	42.13
673.33	2.34
673.47	7.02
673.61	0.00
673.75	46.81
673.89	58.51
674.03	53.83
674.17	23.41
674.31	0.00
674.45	0.00
674.59	16.38
674.73	56.17
674.87	14.04
675.01	98.30
675.15	98.30
675.29	110.01
675.43	58.51
675.56	9.36
675.70	11.70
675.84	30.43
675.98	35.11
676.12	124.05
676.26	42.13
676.40	63.19
676.54	11.70
676.68	21.06
676.82	14.04
676.96	32.77
677.10	0.00
677.23	0.00
677.37	21.06
677.51	81.92
677.65	28.09
677.79	35.11
677.93	9.36
678.07	51.49
678.21	98.30
678.34	0.00
678.48	16.38
678.62	49.15
678.76	39.79
678.90	30.43
679.04	72.56
679.18	7.02
679.31	35.11
679.45	35.11
679.59	11.70
679.73	28.09
679.87	0.00
680.00	30.43
680.14	32.77
680.28	63.19
680.42	0.00
680.56	35.11
680.70	81.92
680.83	0.00
680.97	84.26
681.11	37.45
681.25	9.36
681.39	32.77
681.52	72.56
681.66	100.64
681.80	98.30
681.94	67.88
682.07	4.68
682.21	51.49
682.35	2.34
682.49	46.81
682.62	42.13
682.76	30.43
682.90	11.70
683.04	56.17
683.17	0.00
683.31	18.72
683.45	0.00
683.59	0.00
683.72	39.79
683.86	14.04
684.00	0.00
684.13	49.15
684.27	0.00
684.41	53.83
684.55	37.45
684.68	98.30
684.82	49.15
684.96	44.47
685.09	53.83
685.23	67.88
685.37	4.68
685.50	100.64
685.64	37.45
685.78	0.00
685.91	21.06
686.05	0.00
686.19	79.58
686.32	42.13
686.46	67.88
686.60	0.00
686.73	39.79
686.87	0.00
687.01	60.85
687.14	21.06
687.28	14.04
687.42	46.81
687.55	4.68
687.69	58.51
687.82	39.79
687.96	70.22
688.10	65.54
688.23	35.11
688.37	86.60
688.50	11.70
688.64	25.75
688.78	44.47
688.91	67.88
689.05	35.11
689.18	63.19
689.32	4.68
689.46	72.56
689.59	95.96
689.73	0.00
689.86	16.38
690.00	28.09
690.13	0.00
690.27	4.68
690.41	88.94
690.54	42.13
690.68	49.15
690.81	56.17
690.95	0.00
691.08	39.79
691.22	0.00
691.35	30.43
691.49	53.83
691.62	18.72
691.76	86.60
691.89	7.02
692.03	0.00
692.16	86.60
692.30	0.00
692.43	0.00
692.57	60.85
692.70	0.00
692.84	0.00
692.97	60.85
693.11	0.00
693.24	46.81
693.38	86.60
693.51	0.00
693.65	0.00
693.78	49.15
693.92	25.75
694.05	11.70
694.19	0.00
694.32	0.00
694.45	119.37
694.59	0.00
694.72	39.79
694.86	37.45
694.99	77.24
695.13	42.13
695.26	2.34
695.39	0.00
695.53	60.85
695.66	58.51
695.80	0.00
695.93	16.38
696.07	81.92
696.20	35.11
696.33	0.00
696.47	46.81
696.60	46.81
696.73	28.09
696.87	60.85
697.00	65.54
697.14	25.75
697.27	91.28
697.40	32.77
697.54	0.00
697.67	2.34
697.80	114.69
697.94	46.81
698.07	51.49
698.21	42.13
698.34	0.00
698.47	0.00
698.61	63.19
698.74	67.88
698.87	42.13
699.01	84.26
699.14	4.68
699.27	30.43
699.40	0.00
699.54	9.36
699.67	0.00
699.80	2.34
699.94	100.64
700.07	0.00
700.20	0.00
700.34	72.56
700.47	0.00
700.60	0.00
700.73	56.17
700.87	79.58
701.00	81.92
701.13	37.45
701.26	42.13
701.40	79.58
701.53	77.24
701.66	9.36
701.79	37.45
701.93	21.06
702.06	86.60
702.19	49.15
702.32	0.00
702.46	30.43
702.59	79.58
702.72	0.00
702.85	32.77
702.99	0.00
703.12	18.72
703.25	30.43
703.38	79.58
703.51	18.72
703.65	86.60
703.78	0.00
703.91	7.02
704.04	30.43
704.17	0.00
704.31	18.72
704.44	0.00
704.57	60.85
704.70	112.35
704.83	16.38
704.96	67.88
705.10	46.81
705.23	28.09
>>>>>End Processed Spectral Data<<<<<
