SpectraSuite Data File
++++++++++++++++++++++++++++++++++++
Date: Fri Oct 04 12:13:31 GMT-05:00 2013
User: price-jones
Dark Spectrum Present: No
Reference Spectrum Present: No
Number of Sampled Component Spectra: 1
Spectrometers: USB2+H05261
Integration Time (usec): 10000 (USB2+H05261)
Spectra Averaged: 1 (USB2+H05261)
Boxcar Smoothing: 0 (USB2+H05261)
Correct for Electrical Dark: No (USB2+H05261)
Strobe/Lamp Enabled: No (USB2+H05261)
Correct for Detector Non-linearity: No (USB2+H05261)
Correct for Stray Light: No (USB2+H05261)
Number of Pixels in Processed Spectrum: 2048
>>>>>Begin Processed Spectral Data<<<<<
365.73	0.00
365.92	0.00
366.12	0.00
366.32	0.00
366.52	0.00
366.72	0.00
366.91	0.00
367.11	0.00
367.31	0.00
367.51	0.00
367.70	0.00
367.90	0.00
368.10	0.00
368.30	0.00
368.49	0.00
368.69	0.00
368.89	0.00
369.09	0.00
369.28	0.00
369.48	0.00
369.68	0.00
369.87	0.00
370.07	0.00
370.27	0.00
370.47	0.00
370.66	0.00
370.86	0.00
371.06	4.68
371.25	0.00
371.45	58.51
371.65	0.00
371.84	0.00
372.04	0.00
372.24	25.75
372.44	4.68
372.63	14.04
372.83	30.43
373.03	63.19
373.22	0.00
373.42	0.00
373.62	0.00
373.81	72.56
374.01	21.06
374.21	79.58
374.40	9.36
374.60	44.47
374.79	0.00
374.99	53.83
375.19	67.88
375.38	9.36
375.58	0.00
375.78	67.88
375.97	11.70
376.17	84.26
376.37	28.09
376.56	102.98
376.76	65.54
376.95	28.09
377.15	51.49
377.35	35.11
377.54	49.15
377.74	35.11
377.93	7.02
378.13	42.13
378.33	9.36
378.52	65.54
378.72	9.36
378.91	0.00
379.11	0.00
379.31	7.02
379.50	18.72
379.70	42.13
379.89	0.00
380.09	25.75
380.28	0.00
380.48	30.43
380.68	7.02
380.87	7.02
381.07	67.88
381.26	9.36
381.46	0.00
381.65	60.85
381.85	67.88
382.04	4.68
382.24	9.36
382.43	25.75
382.63	25.75
382.83	0.00
383.02	60.85
383.22	70.22
383.41	65.54
383.61	28.09
383.80	65.54
384.00	0.00
384.19	25.75
384.39	72.56
384.58	65.54
384.78	0.00
384.97	18.72
385.17	51.49
385.36	0.00
385.56	39.79
385.75	0.00
385.95	0.00
386.14	16.38
386.34	7.02
386.53	21.06
386.72	23.41
386.92	30.43
387.11	58.51
387.31	28.09
387.50	53.83
387.70	42.13
387.89	74.90
388.09	0.00
388.28	72.56
388.48	81.92
388.67	4.68
388.86	49.15
389.06	23.41
389.25	65.54
389.45	53.83
389.64	0.00
389.84	11.70
390.03	14.04
390.22	21.06
390.42	32.77
390.61	0.00
390.81	14.04
391.00	21.06
391.19	7.02
391.39	0.00
391.58	88.94
391.78	60.85
391.97	0.00
392.16	44.47
392.36	21.06
392.55	28.09
392.75	46.81
392.94	0.00
393.13	77.24
393.33	44.47
393.52	0.00
393.71	32.77
393.91	53.83
394.10	79.58
394.29	32.77
394.49	32.77
394.68	7.02
394.88	0.00
395.07	42.13
395.26	93.62
395.46	60.85
395.65	30.43
395.84	0.00
396.04	28.09
396.23	9.36
396.42	0.00
396.62	0.00
396.81	42.13
397.00	46.81
397.19	49.15
397.39	18.72
397.58	23.41
397.77	9.36
397.97	0.00
398.16	35.11
398.35	9.36
398.55	32.77
398.74	63.19
398.93	63.19
399.12	60.85
399.32	0.00
399.51	25.75
399.70	0.00
399.90	91.28
400.09	4.68
400.28	70.22
400.47	0.00
400.67	0.00
400.86	37.45
401.05	23.41
401.24	30.43
401.44	37.45
401.63	58.51
401.82	21.06
402.01	42.13
402.21	37.45
402.40	58.51
402.59	60.85
402.78	9.36
402.97	18.72
403.17	65.54
403.36	16.38
403.55	0.00
403.74	39.79
403.93	0.00
404.13	37.45
404.32	11.70
404.51	18.72
404.70	16.38
404.89	35.11
405.09	56.17
405.28	0.00
405.47	9.36
405.66	44.47
405.85	91.28
406.05	72.56
406.24	28.09
406.43	46.81
406.62	0.00
406.81	84.26
407.00	0.00
407.20	0.00
407.39	0.00
407.58	79.58
407.77	58.51
407.96	21.06
408.15	32.77
408.34	35.11
408.54	0.00
408.73	16.38
408.92	11.70
409.11	0.00
409.30	0.00
409.49	35.11
409.68	0.00
409.87	11.70
410.07	23.41
410.26	46.81
410.45	28.09
410.64	23.41
410.83	42.13
411.02	60.85
411.21	0.00
411.40	84.26
411.59	0.00
411.78	110.01
411.98	21.06
412.17	91.28
412.36	0.00
412.55	53.83
412.74	70.22
412.93	67.88
413.12	0.00
413.31	32.77
413.50	67.88
413.69	28.09
413.88	23.41
414.07	0.00
414.26	11.70
414.45	0.00
414.64	39.79
414.83	49.15
415.02	18.72
415.22	70.22
415.41	4.68
415.60	74.90
415.79	65.54
415.98	88.94
416.17	32.77
416.36	11.70
416.55	149.79
416.74	39.79
416.93	65.54
417.12	65.54
417.31	67.88
417.50	93.62
417.69	23.41
417.88	11.70
418.07	56.17
418.26	0.00
418.45	0.00
418.64	9.36
418.83	53.83
419.02	9.36
419.21	21.06
419.39	65.54
419.58	112.35
419.77	32.77
419.96	0.00
420.15	2.34
420.34	42.13
420.53	0.00
420.72	72.56
420.91	79.58
421.10	49.15
421.29	14.04
421.48	0.00
421.67	0.00
421.86	18.72
422.05	37.45
422.24	51.49
422.43	21.06
422.61	4.68
422.80	35.11
422.99	42.13
423.18	46.81
423.37	72.56
423.56	39.79
423.75	49.15
423.94	35.11
424.13	21.06
424.32	53.83
424.50	32.77
424.69	0.00
424.88	93.62
425.07	51.49
425.26	110.01
425.45	0.00
425.64	11.70
425.83	0.00
426.01	7.02
426.20	0.00
426.39	4.68
426.58	0.00
426.77	0.00
426.96	0.00
427.15	11.70
427.33	35.11
427.52	46.81
427.71	72.56
427.90	7.02
428.09	0.00
428.28	56.17
428.46	0.00
428.65	23.41
428.84	0.00
429.03	2.34
429.22	9.36
429.40	7.02
429.59	11.70
429.78	18.72
429.97	4.68
430.16	14.04
430.34	32.77
430.53	25.75
430.72	35.11
430.91	0.00
431.10	23.41
431.28	58.51
431.47	21.06
431.66	0.00
431.85	79.58
432.03	100.64
432.22	77.24
432.41	37.45
432.60	56.17
432.79	23.41
432.97	21.06
433.16	81.92
433.35	0.00
433.54	0.00
433.72	46.81
433.91	14.04
434.10	105.32
434.28	63.19
434.47	46.81
434.66	0.00
434.85	0.00
435.03	70.22
435.22	63.19
435.41	65.54
435.59	0.00
435.78	53.83
435.97	72.56
436.16	79.58
436.34	0.00
436.53	0.00
436.72	58.51
436.90	0.00
437.09	0.00
437.28	23.41
437.46	49.15
437.65	0.00
437.84	51.49
438.02	63.19
438.21	0.00
438.40	4.68
438.58	32.77
438.77	9.36
438.96	32.77
439.14	79.58
439.33	53.83
439.52	49.15
439.70	4.68
439.89	70.22
440.08	74.90
440.26	56.17
440.45	58.51
440.63	32.77
440.82	4.68
441.01	2.34
441.19	9.36
441.38	11.70
441.57	32.77
441.75	0.00
441.94	0.00
442.12	14.04
442.31	0.00
442.50	32.77
442.68	30.43
442.87	42.13
443.05	77.24
443.24	42.13
443.43	0.00
443.61	98.30
443.80	18.72
443.98	25.75
444.17	28.09
444.35	32.77
444.54	0.00
444.73	70.22
444.91	84.26
445.10	70.22
445.28	51.49
445.47	65.54
445.65	35.11
445.84	51.49
446.02	0.00
446.21	42.13
446.39	79.58
446.58	16.38
446.77	0.00
446.95	51.49
447.14	35.11
447.32	42.13
447.51	88.94
447.69	60.85
447.88	2.34
448.06	88.94
448.25	42.13
448.43	32.77
448.62	7.02
448.80	35.11
448.99	74.90
449.17	4.68
449.36	0.00
449.54	0.00
449.73	0.00
449.91	0.00
450.10	28.09
450.28	56.17
450.46	84.26
450.65	67.88
450.83	58.51
451.02	70.22
451.20	95.96
451.39	86.60
451.57	28.09
451.76	0.00
451.94	28.09
452.13	14.04
452.31	0.00
452.49	11.70
452.68	0.00
452.86	4.68
453.05	35.11
453.23	86.60
453.42	74.90
453.60	42.13
453.78	11.70
453.97	0.00
454.15	51.49
454.34	30.43
454.52	56.17
454.70	102.98
454.89	0.00
455.07	25.75
455.26	2.34
455.44	39.79
455.62	74.90
455.81	4.68
455.99	56.17
456.17	9.36
456.36	114.69
456.54	81.92
456.73	4.68
456.91	0.00
457.09	7.02
457.28	0.00
457.46	39.79
457.64	4.68
457.83	28.09
458.01	0.00
458.19	46.81
458.38	91.28
458.56	65.54
458.74	11.70
458.93	30.43
459.11	28.09
459.29	0.00
459.48	51.49
459.66	49.15
459.84	2.34
460.03	46.81
460.21	0.00
460.39	37.45
460.57	56.17
460.76	11.70
460.94	35.11
461.12	11.70
461.31	4.68
461.49	63.19
461.67	0.00
461.85	4.68
462.04	37.45
462.22	16.38
462.40	0.00
462.59	63.19
462.77	9.36
462.95	7.02
463.13	49.15
463.32	18.72
463.50	14.04
463.68	58.51
463.86	32.77
464.05	58.51
464.23	2.34
464.41	35.11
464.59	81.92
464.78	107.66
464.96	67.88
465.14	88.94
465.32	53.83
465.50	74.90
465.69	30.43
465.87	0.00
466.05	60.85
466.23	86.60
466.41	14.04
466.60	98.30
466.78	14.04
466.96	53.83
467.14	21.06
467.32	21.06
467.51	42.13
467.69	42.13
467.87	35.11
468.05	2.34
468.23	0.00
468.41	9.36
468.60	51.49
468.78	77.24
468.96	65.54
469.14	63.19
469.32	30.43
469.50	42.13
469.69	0.00
469.87	14.04
470.05	84.26
470.23	30.43
470.41	28.09
470.59	60.85
470.77	42.13
470.95	23.41
471.14	0.00
471.32	0.00
471.50	30.43
471.68	60.85
471.86	88.94
472.04	81.92
472.22	18.72
472.40	16.38
472.58	0.00
472.77	25.75
472.95	65.54
473.13	65.54
473.31	53.83
473.49	18.72
473.67	0.00
473.85	84.26
474.03	21.06
474.21	98.30
474.39	0.00
474.57	0.00
474.75	23.41
474.93	0.00
475.12	98.30
475.30	51.49
475.48	107.66
475.66	70.22
475.84	0.00
476.02	0.00
476.20	21.06
476.38	72.56
476.56	25.75
476.74	91.28
476.92	35.11
477.10	53.83
477.28	16.38
477.46	25.75
477.64	37.45
477.82	0.00
478.00	30.43
478.18	32.77
478.36	2.34
478.54	79.58
478.72	0.00
478.90	25.75
479.08	51.49
479.26	7.02
479.44	28.09
479.62	95.96
479.80	46.81
479.98	35.11
480.16	23.41
480.34	2.34
480.52	0.00
480.70	51.49
480.88	9.36
481.06	93.62
481.24	67.88
481.41	58.51
481.59	58.51
481.77	9.36
481.95	70.22
482.13	32.77
482.31	60.85
482.49	74.90
482.67	7.02
482.85	70.22
483.03	0.00
483.21	11.70
483.39	0.00
483.57	0.00
483.74	30.43
483.92	0.00
484.10	25.75
484.28	124.05
484.46	37.45
484.64	72.56
484.82	53.83
485.00	67.88
485.18	23.41
485.35	60.85
485.53	23.41
485.71	0.00
485.89	30.43
486.07	74.90
486.25	23.41
486.43	25.75
486.61	49.15
486.78	49.15
486.96	23.41
487.14	0.00
487.32	46.81
487.50	44.47
487.68	16.38
487.85	32.77
488.03	63.19
488.21	63.19
488.39	77.24
488.57	44.47
488.75	0.00
488.92	37.45
489.10	58.51
489.28	25.75
489.46	32.77
489.64	51.49
489.81	21.06
489.99	18.72
490.17	51.49
490.35	23.41
490.53	11.70
490.70	42.13
490.88	44.47
491.06	42.13
491.24	74.90
491.41	4.68
491.59	14.04
491.77	56.17
491.95	0.00
492.13	0.00
492.30	0.00
492.48	18.72
492.66	39.79
492.84	35.11
493.01	70.22
493.19	53.83
493.37	30.43
493.54	28.09
493.72	14.04
493.90	44.47
494.08	70.22
494.25	0.00
494.43	32.77
494.61	7.02
494.79	0.00
494.96	0.00
495.14	16.38
495.32	18.72
495.49	81.92
495.67	117.03
495.85	35.11
496.02	42.13
496.20	14.04
496.38	53.83
496.55	21.06
496.73	2.34
496.91	77.24
497.09	46.81
497.26	9.36
497.44	0.00
497.62	63.19
497.79	46.81
497.97	72.56
498.14	77.24
498.32	60.85
498.50	23.41
498.67	42.13
498.85	84.26
499.03	11.70
499.20	56.17
499.38	60.85
499.56	46.81
499.73	44.47
499.91	16.38
500.08	42.13
500.26	0.00
500.44	119.37
500.61	0.00
500.79	0.00
500.97	44.47
501.14	0.00
501.32	37.45
501.49	81.92
501.67	63.19
501.84	0.00
502.02	30.43
502.20	0.00
502.37	49.15
502.55	0.00
502.72	32.77
502.90	35.11
503.07	124.05
503.25	117.03
503.43	105.32
503.60	0.00
503.78	25.75
503.95	0.00
504.13	44.47
504.30	37.45
504.48	0.00
504.65	2.34
504.83	0.00
505.01	100.64
505.18	37.45
505.36	98.30
505.53	86.60
505.71	77.24
505.88	0.00
506.06	63.19
506.23	0.00
506.41	0.00
506.58	35.11
506.76	0.00
506.93	56.17
507.11	0.00
507.28	95.96
507.46	30.43
507.63	112.35
507.81	53.83
507.98	42.13
508.16	58.51
508.33	30.43
508.50	44.47
508.68	56.17
508.85	30.43
509.03	14.04
509.20	23.41
509.38	93.62
509.55	67.88
509.73	58.51
509.90	72.56
510.08	25.75
510.25	32.77
510.42	9.36
510.60	67.88
510.77	72.56
510.95	49.15
511.12	30.43
511.30	16.38
511.47	42.13
511.64	37.45
511.82	98.30
511.99	42.13
512.17	25.75
512.34	107.66
512.51	28.09
512.69	30.43
512.86	18.72
513.04	21.06
513.21	2.34
513.38	21.06
513.56	37.45
513.73	42.13
513.90	70.22
514.08	112.35
514.25	7.02
514.43	4.68
514.60	46.81
514.77	49.15
514.95	0.00
515.12	0.00
515.29	18.72
515.47	0.00
515.64	42.13
515.81	2.34
515.99	16.38
516.16	81.92
516.33	49.15
516.51	23.41
516.68	65.54
516.85	86.60
517.03	49.15
517.20	0.00
517.37	35.11
517.54	124.05
517.72	51.49
517.89	37.45
518.06	70.22
518.24	128.73
518.41	56.17
518.58	79.58
518.75	25.75
518.93	9.36
519.10	2.34
519.27	11.70
519.45	11.70
519.62	0.00
519.79	98.30
519.96	11.70
520.14	51.49
520.31	7.02
520.48	107.66
520.65	88.94
520.83	140.43
521.00	91.28
521.17	14.04
521.34	0.00
521.52	84.26
521.69	60.85
521.86	35.11
522.03	0.00
522.20	18.72
522.38	67.88
522.55	16.38
522.72	28.09
522.89	11.70
523.07	114.69
523.24	182.56
523.41	28.09
523.58	56.17
523.75	49.15
523.92	37.45
524.10	0.00
524.27	51.49
524.44	21.06
524.61	58.51
524.78	63.19
524.96	91.28
525.13	14.04
525.30	84.26
525.47	0.00
525.64	63.19
525.81	79.58
525.98	51.49
526.16	79.58
526.33	37.45
526.50	0.00
526.67	51.49
526.84	0.00
527.01	25.75
527.18	63.19
527.36	0.00
527.53	42.13
527.70	28.09
527.87	72.56
528.04	32.77
528.21	53.83
528.38	65.54
528.55	46.81
528.72	77.24
528.89	28.09
529.07	35.11
529.24	42.13
529.41	119.37
529.58	93.62
529.75	4.68
529.92	77.24
530.09	60.85
530.26	32.77
530.43	44.47
530.60	133.41
530.77	51.49
530.94	0.00
531.11	4.68
531.28	70.22
531.46	0.00
531.63	39.79
531.80	35.11
531.97	32.77
532.14	84.26
532.31	0.00
532.48	44.47
532.65	0.00
532.82	88.94
532.99	74.90
533.16	2.34
533.33	28.09
533.50	39.79
533.67	39.79
533.84	65.54
534.01	117.03
534.18	93.62
534.35	70.22
534.52	23.41
534.69	46.81
534.86	37.45
535.03	46.81
535.20	86.60
535.37	32.77
535.54	98.30
535.71	28.09
535.88	105.32
536.05	74.90
536.22	0.00
536.38	72.56
536.55	0.00
536.72	0.00
536.89	51.49
537.06	56.17
537.23	114.69
537.40	86.60
537.57	63.19
537.74	67.88
537.91	0.00
538.08	74.90
538.25	21.06
538.42	100.64
538.59	53.83
538.75	14.04
538.92	23.41
539.09	56.17
539.26	46.81
539.43	67.88
539.60	51.49
539.77	156.82
539.94	91.28
540.11	77.24
540.28	102.98
540.44	28.09
540.61	70.22
540.78	0.00
540.95	46.81
541.12	2.34
541.29	86.60
541.46	49.15
541.62	28.09
541.79	21.06
541.96	53.83
542.13	70.22
542.30	37.45
542.47	30.43
542.63	58.51
542.80	30.43
542.97	23.41
543.14	0.00
543.31	121.71
543.48	46.81
543.64	11.70
543.81	18.72
543.98	72.56
544.15	98.30
544.32	25.75
544.48	44.47
544.65	7.02
544.82	9.36
544.99	60.85
545.16	51.49
545.32	53.83
545.49	124.05
545.66	56.17
545.83	0.00
546.00	11.70
546.16	70.22
546.33	117.03
546.50	46.81
546.67	28.09
546.83	60.85
547.00	18.72
547.17	56.17
547.34	56.17
547.50	114.69
547.67	49.15
547.84	11.70
548.00	21.06
548.17	4.68
548.34	37.45
548.51	39.79
548.67	35.11
548.84	28.09
549.01	88.94
549.18	51.49
549.34	53.83
549.51	51.49
549.68	28.09
549.84	14.04
550.01	37.45
550.18	91.28
550.34	91.28
550.51	46.81
550.68	7.02
550.84	44.47
551.01	93.62
551.18	58.51
551.34	46.81
551.51	18.72
551.68	37.45
551.84	117.03
552.01	37.45
552.18	7.02
552.34	39.79
552.51	11.70
552.68	53.83
552.84	72.56
553.01	102.98
553.18	37.45
553.34	60.85
553.51	28.09
553.67	98.30
553.84	72.56
554.01	28.09
554.17	53.83
554.34	0.00
554.51	114.69
554.67	42.13
554.84	42.13
555.00	53.83
555.17	67.88
555.33	18.72
555.50	105.32
555.67	60.85
555.83	23.41
556.00	65.54
556.16	18.72
556.33	11.70
556.50	79.58
556.66	46.81
556.83	18.72
556.99	0.00
557.16	32.77
557.32	49.15
557.49	18.72
557.65	2.34
557.82	67.88
557.98	23.41
558.15	42.13
558.32	32.77
558.48	65.54
558.65	98.30
558.81	14.04
558.98	0.00
559.14	23.41
559.31	16.38
559.47	39.79
559.64	100.64
559.80	70.22
559.97	74.90
560.13	37.45
560.30	126.39
560.46	102.98
560.63	51.49
560.79	91.28
560.96	18.72
561.12	42.13
561.29	0.00
561.45	51.49
561.61	67.88
561.78	126.39
561.94	7.02
562.11	114.69
562.27	119.37
562.44	60.85
562.60	84.26
562.77	39.79
562.93	42.13
563.10	0.00
563.26	49.15
563.42	32.77
563.59	44.47
563.75	42.13
563.92	138.09
564.08	0.00
564.24	0.00
564.41	18.72
564.57	42.13
564.74	28.09
564.90	28.09
565.07	74.90
565.23	35.11
565.39	11.70
565.56	159.16
565.72	60.85
565.88	18.72
566.05	0.00
566.21	0.00
566.38	0.00
566.54	18.72
566.70	9.36
566.87	0.00
567.03	16.38
567.19	9.36
567.36	0.00
567.52	91.28
567.68	110.01
567.85	28.09
568.01	37.45
568.17	37.45
568.34	67.88
568.50	74.90
568.66	37.45
568.83	0.00
568.99	35.11
569.15	32.77
569.32	46.81
569.48	156.82
569.64	63.19
569.81	39.79
569.97	44.47
570.13	37.45
570.30	107.66
570.46	46.81
570.62	16.38
570.78	23.41
570.95	35.11
571.11	0.00
571.27	11.70
571.43	32.77
571.60	9.36
571.76	65.54
571.92	70.22
572.09	42.13
572.25	28.09
572.41	23.41
572.57	93.62
572.74	86.60
572.90	53.83
573.06	9.36
573.22	35.11
573.38	72.56
573.55	46.81
573.71	49.15
573.87	60.85
574.03	42.13
574.20	28.09
574.36	49.15
574.52	37.45
574.68	32.77
574.84	39.79
575.01	51.49
575.17	18.72
575.33	7.02
575.49	0.00
575.65	67.88
575.82	91.28
575.98	18.72
576.14	110.01
576.30	51.49
576.46	98.30
576.62	67.88
576.79	23.41
576.95	56.17
577.11	21.06
577.27	46.81
577.43	102.98
577.59	39.79
577.75	0.00
577.92	42.13
578.08	121.71
578.24	53.83
578.40	51.49
578.56	65.54
578.72	56.17
578.88	58.51
579.04	46.81
579.21	74.90
579.37	23.41
579.53	67.88
579.69	18.72
579.85	28.09
580.01	25.75
580.17	23.41
580.33	0.00
580.49	32.77
580.65	100.64
580.82	0.00
580.98	63.19
581.14	63.19
581.30	86.60
581.46	142.77
581.62	58.51
581.78	56.17
581.94	39.79
582.10	91.28
582.26	100.64
582.42	67.88
582.58	21.06
582.74	117.03
582.90	0.00
583.06	119.37
583.22	58.51
583.38	114.69
583.54	42.13
583.70	58.51
583.86	30.43
584.02	107.66
584.18	56.17
584.34	67.88
584.50	191.92
584.66	1301.34
584.82	3045.04
584.98	4613.20
585.14	4248.07
585.30	2626.08
585.46	1568.16
585.62	1111.75
585.78	510.24
585.94	269.16
586.10	114.69
586.26	0.00
586.42	4.68
586.58	0.00
586.74	30.43
586.90	28.09
587.06	49.15
587.22	49.15
587.38	9.36
587.54	105.32
587.70	229.37
587.86	395.55
588.02	449.38
588.18	313.63
588.34	159.16
588.49	102.98
588.65	42.13
588.81	112.35
588.97	42.13
589.13	98.30
589.29	0.00
589.45	79.58
589.61	74.90
589.77	28.09
589.93	9.36
590.08	49.15
590.24	0.00
590.40	131.07
590.56	14.04
590.72	44.47
590.88	53.83
591.04	16.38
591.20	58.51
591.35	18.72
591.51	77.24
591.67	11.70
591.83	37.45
591.99	35.11
592.15	56.17
592.31	32.77
592.46	0.00
592.62	67.88
592.78	74.90
592.94	42.13
593.10	84.26
593.26	51.49
593.41	74.90
593.57	105.32
593.73	0.00
593.89	173.20
594.05	440.02
594.20	608.54
594.36	603.86
594.52	358.10
594.68	327.68
594.84	297.25
594.99	145.11
595.15	112.35
595.31	56.17
595.47	35.11
595.62	0.00
595.78	2.34
595.94	0.00
596.10	2.34
596.25	65.54
596.41	74.90
596.57	44.47
596.73	42.13
596.88	39.79
597.04	88.94
597.20	196.60
597.36	145.11
597.51	100.64
597.67	126.39
597.83	39.79
597.99	72.56
598.14	30.43
598.30	65.54
598.46	16.38
598.61	9.36
598.77	0.00
598.93	7.02
599.09	23.41
599.24	56.17
599.40	102.98
599.56	11.70
599.71	51.49
599.87	39.79
600.03	102.98
600.18	58.51
600.34	56.17
600.50	35.11
600.65	119.37
600.81	42.13
600.97	16.38
601.12	21.06
601.28	93.62
601.44	72.56
601.59	23.41
601.75	93.62
601.91	28.09
602.06	30.43
602.22	53.83
602.37	56.17
602.53	173.20
602.69	168.52
602.84	231.71
603.00	133.41
603.16	128.73
603.31	37.45
603.47	51.49
603.62	11.70
603.78	53.83
603.94	53.83
604.09	51.49
604.25	74.90
604.40	46.81
604.56	37.45
604.71	23.41
604.87	0.00
605.03	14.04
605.18	4.68
605.34	91.28
605.49	63.19
605.65	65.54
605.80	67.88
605.96	18.72
606.12	88.94
606.27	7.02
606.43	63.19
606.58	91.28
606.74	79.58
606.89	217.67
607.05	470.45
607.20	465.77
607.36	503.22
607.51	308.95
607.67	175.54
607.82	173.20
607.98	74.90
608.13	67.88
608.29	70.22
608.44	53.83
608.60	105.32
608.75	79.58
608.91	128.73
609.06	283.20
609.22	657.69
609.37	945.58
609.53	812.17
609.68	543.00
609.84	337.04
609.99	271.50
610.15	124.05
610.30	25.75
610.46	77.24
610.61	81.92
610.76	44.47
610.92	35.11
611.07	58.51
611.23	67.88
611.38	65.54
611.54	0.00
611.69	84.26
611.84	0.00
612.00	63.19
612.15	35.11
612.31	74.90
612.46	112.35
612.62	81.92
612.77	72.56
612.92	88.94
613.08	28.09
613.23	84.26
613.39	124.05
613.54	77.24
613.69	318.31
613.85	786.42
614.00	1299.00
614.15	1495.60
614.31	1046.22
614.46	748.97
614.62	526.62
614.77	283.20
614.92	142.77
615.08	74.90
615.23	95.96
615.38	51.49
615.54	107.66
615.69	72.56
615.84	259.80
616.00	372.15
616.15	444.70
616.30	344.06
616.46	287.89
616.61	189.58
616.76	107.66
616.92	63.19
617.07	42.13
617.22	39.79
617.37	53.83
617.53	77.24
617.68	7.02
617.83	14.04
617.99	72.56
618.14	23.41
618.29	39.79
618.45	56.17
618.60	2.34
618.75	72.56
618.90	63.19
619.06	79.58
619.21	39.79
619.36	32.77
619.51	18.72
619.67	2.34
619.82	2.34
619.97	32.77
620.12	0.00
620.28	65.54
620.43	2.34
620.58	18.72
620.73	30.43
620.89	77.24
621.04	9.36
621.19	142.77
621.34	154.48
621.49	234.05
621.65	203.63
621.80	110.01
621.95	93.62
622.10	53.83
622.25	60.85
622.41	56.17
622.56	63.19
622.71	110.01
622.86	14.04
623.01	30.43
623.16	77.24
623.32	37.45
623.47	0.00
623.62	9.36
623.77	11.70
623.92	14.04
624.07	25.75
624.23	58.51
624.38	46.81
624.53	4.68
624.68	11.70
624.83	23.41
624.98	46.81
625.13	88.94
625.29	16.38
625.44	81.92
625.59	65.54
625.74	0.00
625.89	63.19
626.04	140.43
626.19	430.66
626.34	657.69
626.49	842.59
626.65	543.00
626.80	493.85
626.95	257.46
627.10	201.29
627.25	81.92
627.40	67.88
627.55	25.75
627.70	131.07
627.85	128.73
628.00	32.77
628.15	18.72
628.30	21.06
628.45	44.47
628.60	95.96
628.76	53.83
628.91	46.81
629.06	98.30
629.21	0.00
629.36	0.00
629.51	30.43
629.66	72.56
629.81	135.75
629.96	152.13
630.11	161.50
630.26	189.58
630.41	212.99
630.56	196.60
630.71	60.85
630.86	98.30
631.01	37.45
631.16	21.06
631.31	58.51
631.46	44.47
631.61	0.00
631.76	72.56
631.91	63.19
632.06	60.85
632.21	72.56
632.36	74.90
632.51	67.88
632.66	74.90
632.81	65.54
632.96	224.69
633.10	418.96
633.25	547.69
633.40	477.47
633.55	325.33
633.70	250.44
633.85	77.24
634.00	77.24
634.15	86.60
634.30	88.94
634.45	16.38
634.60	56.17
634.75	65.54
634.90	86.60
635.05	93.62
635.19	58.51
635.34	2.34
635.49	53.83
635.64	23.41
635.79	21.06
635.94	67.88
636.09	42.13
636.24	37.45
636.39	46.81
636.53	53.83
636.68	56.17
636.83	0.00
636.98	30.43
637.13	70.22
637.28	95.96
637.43	37.45
637.57	77.24
637.72	182.56
637.87	599.18
638.02	767.70
638.17	1001.75
638.32	674.07
638.46	503.22
638.61	273.84
638.76	243.42
638.91	88.94
639.06	86.60
639.20	86.60
639.35	86.60
639.50	110.01
639.65	376.83
639.80	847.27
639.94	1277.93
640.09	1614.97
640.24	1196.01
640.39	795.78
640.54	528.96
640.68	337.04
640.83	252.78
640.98	112.35
641.13	56.17
641.27	77.24
641.42	67.88
641.57	140.43
641.72	0.00
641.86	0.00
642.01	25.75
642.16	0.00
642.31	0.00
642.45	44.47
642.60	7.02
642.75	0.00
642.90	11.70
643.04	65.54
643.19	0.00
643.34	23.41
643.48	0.00
643.63	0.00
643.78	58.51
643.93	72.56
644.07	37.45
644.22	58.51
644.37	79.58
644.51	44.47
644.66	35.11
644.81	70.22
644.95	95.96
645.10	37.45
645.25	7.02
645.39	72.56
645.54	56.17
645.69	79.58
645.83	0.00
645.98	105.32
646.13	67.88
646.27	58.51
646.42	14.04
646.57	0.00
646.71	56.17
646.86	112.35
647.00	46.81
647.15	25.75
647.30	53.83
647.44	46.81
647.59	0.00
647.74	114.69
647.88	0.00
648.03	0.00
648.17	23.41
648.32	53.83
648.47	95.96
648.61	74.90
648.76	4.68
648.90	65.54
649.05	14.04
649.20	25.75
649.34	53.83
649.49	56.17
649.63	32.77
649.78	0.00
649.92	39.79
650.07	131.07
650.21	381.51
650.36	582.79
650.51	765.36
650.65	660.03
650.80	482.15
650.94	353.42
651.09	250.44
651.23	156.82
651.38	63.19
651.52	105.32
651.67	37.45
651.81	79.58
651.96	91.28
652.10	112.35
652.25	56.17
652.39	42.13
652.54	0.00
652.68	65.54
652.83	133.41
652.97	194.26
653.12	252.78
653.26	266.82
653.41	212.99
653.55	224.69
653.70	84.26
653.84	81.92
653.99	51.49
654.13	46.81
654.27	0.00
654.42	21.06
654.56	14.04
654.71	11.70
654.85	39.79
655.00	2.34
655.14	18.72
655.29	39.79
655.43	0.00
655.57	28.09
655.72	0.00
655.86	32.77
656.01	53.83
656.15	46.81
656.30	11.70
656.44	86.60
656.58	37.45
656.73	35.11
656.87	4.68
657.01	25.75
657.16	0.00
657.30	25.75
657.45	70.22
657.59	0.00
657.73	37.45
657.88	114.69
658.02	23.41
658.16	84.26
658.31	86.60
658.45	63.19
658.60	63.19
658.74	56.17
658.88	18.72
659.03	14.04
659.17	14.04
659.31	39.79
659.46	161.50
659.60	264.48
659.74	388.53
659.89	355.76
660.03	344.06
660.17	201.29
660.32	212.99
660.46	166.18
660.60	91.28
660.74	131.07
660.89	23.41
661.03	0.00
661.17	0.00
661.32	21.06
661.46	42.13
661.60	65.54
661.74	58.51
661.89	7.02
662.03	67.88
662.17	102.98
662.31	56.17
662.46	51.49
662.60	32.77
662.74	14.04
662.88	2.34
663.03	42.13
663.17	0.00
663.31	0.00
663.45	23.41
663.60	58.51
663.74	42.13
663.88	56.17
664.02	77.24
664.17	114.69
664.31	46.81
664.45	0.00
664.59	30.43
664.73	42.13
664.88	0.00
665.02	14.04
665.16	0.00
665.30	58.51
665.44	0.00
665.59	28.09
665.73	0.00
665.87	86.60
666.01	14.04
666.15	2.34
666.29	0.00
666.44	28.09
666.58	49.15
666.72	35.11
666.86	39.79
667.00	58.51
667.14	49.15
667.28	93.62
667.43	376.83
667.57	533.64
667.71	678.76
667.85	648.33
667.99	482.15
668.13	215.33
668.27	252.78
668.41	145.11
668.56	93.62
668.70	0.00
668.84	0.00
668.98	2.34
669.12	79.58
669.26	0.00
669.40	86.60
669.54	72.56
669.68	65.54
669.82	98.30
669.96	56.17
670.10	0.00
670.25	21.06
670.39	95.96
670.53	65.54
670.67	16.38
670.81	58.51
670.95	21.06
671.09	74.90
671.23	189.58
671.37	278.52
671.51	381.51
671.65	454.06
671.79	386.19
671.93	220.01
672.07	222.35
672.21	105.32
672.35	81.92
672.49	0.00
672.63	2.34
672.77	44.47
672.91	91.28
673.05	28.09
673.19	37.45
673.33	18.72
673.47	16.38
673.61	16.38
673.75	16.38
673.89	58.51
674.03	0.00
674.17	0.00
674.31	42.13
674.45	0.00
674.59	23.41
674.73	49.15
674.87	0.00
675.01	25.75
675.15	16.38
675.29	63.19
675.43	9.36
675.56	79.58
675.70	100.64
675.84	0.00
675.98	51.49
676.12	53.83
676.26	0.00
676.40	0.00
676.54	42.13
676.68	51.49
676.82	51.49
676.96	56.17
677.10	81.92
677.23	4.68
677.37	0.00
677.51	60.85
677.65	93.62
677.79	51.49
677.93	135.75
678.07	21.06
678.21	114.69
678.34	51.49
678.48	0.00
678.62	72.56
678.76	0.00
678.90	28.09
679.04	4.68
679.18	4.68
679.31	2.34
679.45	46.81
679.59	23.41
679.73	56.17
679.87	53.83
680.00	32.77
680.14	0.00
680.28	60.85
680.42	23.41
680.56	58.51
680.70	32.77
680.83	28.09
680.97	7.02
681.11	49.15
681.25	39.79
681.39	0.00
681.52	9.36
681.66	60.85
681.80	100.64
681.94	18.72
682.07	16.38
682.21	102.98
682.35	74.90
682.49	67.88
682.62	28.09
682.76	49.15
682.90	0.00
683.04	0.00
683.17	53.83
683.31	95.96
683.45	44.47
683.59	0.00
683.72	86.60
683.86	4.68
684.00	9.36
684.13	0.00
684.27	21.06
684.41	65.54
684.55	39.79
684.68	72.56
684.82	42.13
684.96	67.88
685.09	0.00
685.23	86.60
685.37	65.54
685.50	0.00
685.64	14.04
685.78	11.70
685.91	44.47
686.05	35.11
686.19	4.68
686.32	58.51
686.46	30.43
686.60	18.72
686.73	60.85
686.87	0.00
687.01	39.79
687.14	65.54
687.28	9.36
687.42	46.81
687.55	0.00
687.69	102.98
687.82	0.00
687.96	11.70
688.10	56.17
688.23	49.15
688.37	56.17
688.50	16.38
688.64	0.00
688.78	0.00
688.91	0.00
689.05	65.54
689.18	53.83
689.32	37.45
689.46	98.30
689.59	18.72
689.73	100.64
689.86	23.41
690.00	0.00
690.13	14.04
690.27	51.49
690.41	37.45
690.54	100.64
690.68	0.00
690.81	4.68
690.95	81.92
691.08	56.17
691.22	0.00
691.35	74.90
691.49	0.00
691.62	0.00
691.76	51.49
691.89	25.75
692.03	0.00
692.16	4.68
692.30	0.00
692.43	93.62
692.57	86.60
692.70	210.65
692.84	285.55
692.97	264.48
693.11	227.03
693.24	196.60
693.38	121.71
693.51	100.64
693.65	56.17
693.78	102.98
693.92	65.54
694.05	21.06
694.19	70.22
694.32	58.51
694.45	42.13
694.59	70.22
694.72	86.60
694.86	39.79
694.99	9.36
695.13	28.09
695.26	39.79
695.39	53.83
695.53	0.00
695.66	42.13
695.80	58.51
695.93	2.34
696.07	170.86
696.20	105.32
696.33	133.41
696.47	42.13
696.60	18.72
696.73	0.00
696.87	0.00
697.00	70.22
697.14	21.06
697.27	60.85
697.40	72.56
697.54	95.96
697.67	23.41
697.80	21.06
697.94	51.49
698.07	65.54
698.21	81.92
698.34	23.41
698.47	21.06
698.61	7.02
698.74	0.00
698.87	0.00
699.01	58.51
699.14	0.00
699.27	105.32
699.40	56.17
699.54	0.00
699.67	35.11
699.80	0.00
699.94	0.00
700.07	37.45
700.20	32.77
700.34	44.47
700.47	0.00
700.60	23.41
700.73	63.19
700.87	37.45
701.00	4.68
701.13	2.34
701.26	16.38
701.40	49.15
701.53	25.75
701.66	16.38
701.79	32.77
701.93	32.77
702.06	7.02
702.19	30.43
702.32	79.58
702.46	72.56
702.59	46.81
702.72	37.45
702.85	163.84
702.99	365.12
703.12	554.71
703.25	629.60
703.38	543.00
703.51	414.27
703.65	285.55
703.78	266.82
703.91	152.13
704.04	166.18
704.17	44.47
704.31	42.13
704.44	44.47
704.57	74.90
704.70	0.00
704.83	28.09
704.96	72.56
705.10	70.22
705.23	81.92
>>>>>End Processed Spectral Data<<<<<
