SpectraSuite Data File
++++++++++++++++++++++++++++++++++++
Date: Fri Oct 04 12:13:44 GMT-05:00 2013
User: price-jones
Dark Spectrum Present: No
Reference Spectrum Present: No
Number of Sampled Component Spectra: 1
Spectrometers: USB2+H05261
Integration Time (usec): 10000 (USB2+H05261)
Spectra Averaged: 1 (USB2+H05261)
Boxcar Smoothing: 0 (USB2+H05261)
Correct for Electrical Dark: No (USB2+H05261)
Strobe/Lamp Enabled: No (USB2+H05261)
Correct for Detector Non-linearity: No (USB2+H05261)
Correct for Stray Light: No (USB2+H05261)
Number of Pixels in Processed Spectrum: 2048
>>>>>Begin Processed Spectral Data<<<<<
365.73	0.00
365.92	0.00
366.12	0.00
366.32	0.00
366.52	0.00
366.72	0.00
366.91	0.00
367.11	0.00
367.31	0.00
367.51	0.00
367.70	0.00
367.90	0.00
368.10	0.00
368.30	0.00
368.49	0.00
368.69	0.00
368.89	0.00
369.09	0.00
369.28	0.00
369.48	0.00
369.68	0.00
369.87	0.00
370.07	0.00
370.27	0.00
370.47	0.00
370.66	0.00
370.86	0.00
371.06	0.00
371.25	0.00
371.45	0.00
371.65	0.00
371.84	0.00
372.04	14.04
372.24	0.00
372.44	0.00
372.63	58.51
372.83	0.00
373.03	0.00
373.22	28.09
373.42	0.00
373.62	0.00
373.81	100.64
374.01	4.68
374.21	44.47
374.40	0.00
374.60	25.75
374.79	11.70
374.99	25.75
375.19	84.26
375.38	60.85
375.58	49.15
375.78	53.83
375.97	42.13
376.17	100.64
376.37	51.49
376.56	0.00
376.76	44.47
376.95	35.11
377.15	56.17
377.35	79.58
377.54	70.22
377.74	0.00
377.93	0.00
378.13	14.04
378.33	95.96
378.52	0.00
378.72	23.41
378.91	30.43
379.11	77.24
379.31	100.64
379.50	30.43
379.70	0.00
379.89	11.70
380.09	0.00
380.28	0.00
380.48	0.00
380.68	51.49
380.87	0.00
381.07	32.77
381.26	39.79
381.46	37.45
381.65	2.34
381.85	0.00
382.04	32.77
382.24	28.09
382.43	72.56
382.63	7.02
382.83	21.06
383.02	37.45
383.22	0.00
383.41	25.75
383.61	84.26
383.80	0.00
384.00	65.54
384.19	0.00
384.39	42.13
384.58	0.00
384.78	0.00
384.97	79.58
385.17	30.43
385.36	0.00
385.56	53.83
385.75	39.79
385.95	16.38
386.14	23.41
386.34	42.13
386.53	21.06
386.72	35.11
386.92	0.00
387.11	81.92
387.31	0.00
387.50	0.00
387.70	16.38
387.89	9.36
388.09	58.51
388.28	49.15
388.48	14.04
388.67	32.77
388.86	0.00
389.06	0.00
389.25	0.00
389.45	0.00
389.64	42.13
389.84	0.00
390.03	30.43
390.22	11.70
390.42	14.04
390.61	4.68
390.81	23.41
391.00	0.00
391.19	58.51
391.39	9.36
391.58	77.24
391.78	86.60
391.97	9.36
392.16	0.00
392.36	7.02
392.55	0.00
392.75	0.00
392.94	11.70
393.13	0.00
393.33	46.81
393.52	93.62
393.71	28.09
393.91	0.00
394.10	35.11
394.29	0.00
394.49	0.00
394.68	16.38
394.88	0.00
395.07	70.22
395.26	30.43
395.46	0.00
395.65	72.56
395.84	44.47
396.04	2.34
396.23	30.43
396.42	14.04
396.62	0.00
396.81	4.68
397.00	9.36
397.19	0.00
397.39	25.75
397.58	7.02
397.77	39.79
397.97	60.85
398.16	32.77
398.35	0.00
398.55	77.24
398.74	25.75
398.93	91.28
399.12	0.00
399.32	35.11
399.51	28.09
399.70	7.02
399.90	32.77
400.09	53.83
400.28	0.00
400.47	37.45
400.67	53.83
400.86	39.79
401.05	49.15
401.24	44.47
401.44	0.00
401.63	14.04
401.82	9.36
402.01	18.72
402.21	30.43
402.40	2.34
402.59	16.38
402.78	11.70
402.97	0.00
403.17	58.51
403.36	0.00
403.55	53.83
403.74	51.49
403.93	37.45
404.13	51.49
404.32	7.02
404.51	60.85
404.70	51.49
404.89	58.51
405.09	51.49
405.28	9.36
405.47	51.49
405.66	0.00
405.85	4.68
406.05	16.38
406.24	30.43
406.43	46.81
406.62	0.00
406.81	4.68
407.00	16.38
407.20	46.81
407.39	39.79
407.58	0.00
407.77	16.38
407.96	67.88
408.15	72.56
408.34	58.51
408.54	39.79
408.73	112.35
408.92	0.00
409.11	21.06
409.30	18.72
409.49	88.94
409.68	74.90
409.87	37.45
410.07	16.38
410.26	16.38
410.45	2.34
410.64	11.70
410.83	46.81
411.02	28.09
411.21	0.00
411.40	119.37
411.59	0.00
411.78	18.72
411.98	161.50
412.17	49.15
412.36	11.70
412.55	14.04
412.74	23.41
412.93	42.13
413.12	0.00
413.31	30.43
413.50	25.75
413.69	0.00
413.88	0.00
414.07	49.15
414.26	0.00
414.45	39.79
414.64	0.00
414.83	53.83
415.02	46.81
415.22	100.64
415.41	25.75
415.60	67.88
415.79	0.00
415.98	49.15
416.17	84.26
416.36	37.45
416.55	23.41
416.74	28.09
416.93	67.88
417.12	32.77
417.31	9.36
417.50	18.72
417.69	11.70
417.88	72.56
418.07	0.00
418.26	77.24
418.45	4.68
418.64	77.24
418.83	112.35
419.02	42.13
419.21	0.00
419.39	0.00
419.58	32.77
419.77	18.72
419.96	30.43
420.15	93.62
420.34	37.45
420.53	46.81
420.72	35.11
420.91	30.43
421.10	42.13
421.29	63.19
421.48	93.62
421.67	86.60
421.86	0.00
422.05	0.00
422.24	30.43
422.43	0.00
422.61	37.45
422.80	14.04
422.99	0.00
423.18	79.58
423.37	0.00
423.56	23.41
423.75	37.45
423.94	0.00
424.13	37.45
424.32	2.34
424.50	60.85
424.69	18.72
424.88	93.62
425.07	51.49
425.26	14.04
425.45	0.00
425.64	7.02
425.83	37.45
426.01	0.00
426.20	58.51
426.39	35.11
426.58	88.94
426.77	37.45
426.96	0.00
427.15	86.60
427.33	49.15
427.52	23.41
427.71	39.79
427.90	30.43
428.09	23.41
428.28	16.38
428.46	56.17
428.65	39.79
428.84	63.19
429.03	4.68
429.22	0.00
429.40	46.81
429.59	25.75
429.78	0.00
429.97	0.00
430.16	32.77
430.34	25.75
430.53	7.02
430.72	42.13
430.91	7.02
431.10	93.62
431.28	23.41
431.47	23.41
431.66	23.41
431.85	11.70
432.03	0.00
432.22	60.85
432.41	28.09
432.60	0.00
432.79	35.11
432.97	42.13
433.16	74.90
433.35	35.11
433.54	23.41
433.72	14.04
433.91	32.77
434.10	32.77
434.28	28.09
434.47	28.09
434.66	63.19
434.85	0.00
435.03	0.00
435.22	0.00
435.41	0.00
435.59	81.92
435.78	30.43
435.97	51.49
436.16	4.68
436.34	67.88
436.53	95.96
436.72	53.83
436.90	88.94
437.09	7.02
437.28	49.15
437.46	39.79
437.65	0.00
437.84	133.41
438.02	79.58
438.21	28.09
438.40	25.75
438.58	79.58
438.77	49.15
438.96	4.68
439.14	0.00
439.33	46.81
439.52	4.68
439.70	44.47
439.89	4.68
440.08	60.85
440.26	23.41
440.45	11.70
440.63	30.43
440.82	0.00
441.01	14.04
441.19	58.51
441.38	4.68
441.57	28.09
441.75	39.79
441.94	65.54
442.12	0.00
442.31	32.77
442.50	79.58
442.68	65.54
442.87	49.15
443.05	32.77
443.24	46.81
443.43	4.68
443.61	46.81
443.80	46.81
443.98	35.11
444.17	4.68
444.35	42.13
444.54	70.22
444.73	30.43
444.91	74.90
445.10	51.49
445.28	9.36
445.47	23.41
445.65	28.09
445.84	0.00
446.02	53.83
446.21	32.77
446.39	7.02
446.58	0.00
446.77	46.81
446.95	81.92
447.14	63.19
447.32	0.00
447.51	63.19
447.69	42.13
447.88	0.00
448.06	72.56
448.25	18.72
448.43	46.81
448.62	49.15
448.80	60.85
448.99	25.75
449.17	49.15
449.36	44.47
449.54	4.68
449.73	30.43
449.91	60.85
450.10	14.04
450.28	60.85
450.46	11.70
450.65	23.41
450.83	63.19
451.02	0.00
451.20	0.00
451.39	56.17
451.57	9.36
451.76	28.09
451.94	0.00
452.13	16.38
452.31	0.00
452.49	4.68
452.68	49.15
452.86	0.00
453.05	0.00
453.23	0.00
453.42	84.26
453.60	70.22
453.78	67.88
453.97	7.02
454.15	91.28
454.34	60.85
454.52	74.90
454.70	86.60
454.89	0.00
455.07	53.83
455.26	110.01
455.44	35.11
455.62	0.00
455.81	28.09
455.99	46.81
456.17	56.17
456.36	23.41
456.54	79.58
456.73	70.22
456.91	46.81
457.09	23.41
457.28	63.19
457.46	67.88
457.64	95.96
457.83	9.36
458.01	53.83
458.19	28.09
458.38	93.62
458.56	30.43
458.74	0.00
458.93	100.64
459.11	42.13
459.29	18.72
459.48	23.41
459.66	37.45
459.84	28.09
460.03	30.43
460.21	23.41
460.39	98.30
460.57	67.88
460.76	67.88
460.94	51.49
461.12	79.58
461.31	0.00
461.49	18.72
461.67	39.79
461.85	35.11
462.04	32.77
462.22	67.88
462.40	42.13
462.59	4.68
462.77	32.77
462.95	46.81
463.13	23.41
463.32	0.00
463.50	105.32
463.68	128.73
463.86	28.09
464.05	51.49
464.23	23.41
464.41	11.70
464.59	0.00
464.78	18.72
464.96	44.47
465.14	53.83
465.32	67.88
465.50	39.79
465.69	0.00
465.87	46.81
466.05	0.00
466.23	32.77
466.41	18.72
466.60	63.19
466.78	28.09
466.96	0.00
467.14	63.19
467.32	91.28
467.51	35.11
467.69	0.00
467.87	30.43
468.05	37.45
468.23	63.19
468.41	77.24
468.60	74.90
468.78	32.77
468.96	56.17
469.14	84.26
469.32	0.00
469.50	0.00
469.69	32.77
469.87	0.00
470.05	0.00
470.23	79.58
470.41	81.92
470.59	65.54
470.77	46.81
470.95	51.49
471.14	58.51
471.32	28.09
471.50	65.54
471.68	131.07
471.86	72.56
472.04	42.13
472.22	14.04
472.40	11.70
472.58	39.79
472.77	84.26
472.95	32.77
473.13	25.75
473.31	39.79
473.49	35.11
473.67	149.79
473.85	95.96
474.03	49.15
474.21	42.13
474.39	49.15
474.57	14.04
474.75	16.38
474.93	0.00
475.12	53.83
475.30	0.00
475.48	0.00
475.66	32.77
475.84	0.00
476.02	35.11
476.20	0.00
476.38	0.00
476.56	14.04
476.74	173.20
476.92	60.85
477.10	14.04
477.28	4.68
477.46	7.02
477.64	65.54
477.82	28.09
478.00	79.58
478.18	72.56
478.36	14.04
478.54	51.49
478.72	4.68
478.90	28.09
479.08	91.28
479.26	44.47
479.44	39.79
479.62	0.00
479.80	21.06
479.98	18.72
480.16	0.00
480.34	30.43
480.52	53.83
480.70	28.09
480.88	114.69
481.06	25.75
481.24	93.62
481.41	133.41
481.59	23.41
481.77	0.00
481.95	49.15
482.13	0.00
482.31	0.00
482.49	18.72
482.67	32.77
482.85	105.32
483.03	70.22
483.21	28.09
483.39	30.43
483.57	65.54
483.74	77.24
483.92	30.43
484.10	18.72
484.28	0.00
484.46	0.00
484.64	25.75
484.82	16.38
485.00	18.72
485.18	16.38
485.35	46.81
485.53	60.85
485.71	21.06
485.89	93.62
486.07	0.00
486.25	65.54
486.43	35.11
486.61	0.00
486.78	0.00
486.96	86.60
487.14	44.47
487.32	65.54
487.50	0.00
487.68	49.15
487.85	53.83
488.03	0.00
488.21	86.60
488.39	60.85
488.57	0.00
488.75	60.85
488.92	23.41
489.10	11.70
489.28	28.09
489.46	4.68
489.64	60.85
489.81	72.56
489.99	112.35
490.17	37.45
490.35	105.32
490.53	0.00
490.70	100.64
490.88	28.09
491.06	25.75
491.24	79.58
491.41	32.77
491.59	23.41
491.77	4.68
491.95	2.34
492.13	72.56
492.30	23.41
492.48	49.15
492.66	30.43
492.84	56.17
493.01	4.68
493.19	0.00
493.37	11.70
493.54	28.09
493.72	58.51
493.90	7.02
494.08	44.47
494.25	65.54
494.43	7.02
494.61	37.45
494.79	14.04
494.96	72.56
495.14	53.83
495.32	67.88
495.49	119.37
495.67	14.04
495.85	60.85
496.02	58.51
496.20	77.24
496.38	0.00
496.55	42.13
496.73	119.37
496.91	100.64
497.09	98.30
497.26	53.83
497.44	42.13
497.62	95.96
497.79	100.64
497.97	49.15
498.14	58.51
498.32	0.00
498.50	30.43
498.67	56.17
498.85	28.09
499.03	7.02
499.20	18.72
499.38	37.45
499.56	18.72
499.73	46.81
499.91	77.24
500.08	79.58
500.26	0.00
500.44	32.77
500.61	30.43
500.79	67.88
500.97	51.49
501.14	84.26
501.32	30.43
501.49	84.26
501.67	135.75
501.84	30.43
502.02	124.05
502.20	114.69
502.37	28.09
502.55	44.47
502.72	58.51
502.90	98.30
503.07	16.38
503.25	23.41
503.43	32.77
503.60	42.13
503.78	105.32
503.95	16.38
504.13	35.11
504.30	32.77
504.48	102.98
504.65	0.00
504.83	51.49
505.01	70.22
505.18	70.22
505.36	35.11
505.53	30.43
505.71	0.00
505.88	28.09
506.06	88.94
506.23	9.36
506.41	53.83
506.58	7.02
506.76	65.54
506.93	44.47
507.11	93.62
507.28	56.17
507.46	11.70
507.63	21.06
507.81	53.83
507.98	37.45
508.16	2.34
508.33	2.34
508.50	49.15
508.68	128.73
508.85	135.75
509.03	60.85
509.20	49.15
509.38	0.00
509.55	32.77
509.73	63.19
509.90	25.75
510.08	72.56
510.25	46.81
510.42	0.00
510.60	79.58
510.77	49.15
510.95	91.28
511.12	46.81
511.30	46.81
511.47	28.09
511.64	63.19
511.82	93.62
511.99	28.09
512.17	131.07
512.34	67.88
512.51	67.88
512.69	39.79
512.86	124.05
513.04	7.02
513.21	74.90
513.38	0.00
513.56	49.15
513.73	35.11
513.90	105.32
514.08	81.92
514.25	51.49
514.43	98.30
514.60	86.60
514.77	30.43
514.95	42.13
515.12	53.83
515.29	107.66
515.47	23.41
515.64	56.17
515.81	35.11
515.99	39.79
516.16	0.00
516.33	70.22
516.51	30.43
516.68	11.70
516.85	32.77
517.03	32.77
517.20	72.56
517.37	60.85
517.54	44.47
517.72	58.51
517.89	39.79
518.06	44.47
518.24	30.43
518.41	32.77
518.58	42.13
518.75	0.00
518.93	53.83
519.10	74.90
519.27	4.68
519.45	77.24
519.62	65.54
519.79	79.58
519.96	58.51
520.14	107.66
520.31	0.00
520.48	67.88
520.65	0.00
520.83	110.01
521.00	67.88
521.17	74.90
521.34	44.47
521.52	58.51
521.69	23.41
521.86	51.49
522.03	65.54
522.20	39.79
522.38	84.26
522.55	0.00
522.72	21.06
522.89	53.83
523.07	46.81
523.24	37.45
523.41	37.45
523.58	42.13
523.75	42.13
523.92	107.66
524.10	58.51
524.27	14.04
524.44	7.02
524.61	114.69
524.78	56.17
524.96	42.13
525.13	74.90
525.30	81.92
525.47	88.94
525.64	42.13
525.81	21.06
525.98	60.85
526.16	168.52
526.33	51.49
526.50	65.54
526.67	32.77
526.84	93.62
527.01	84.26
527.18	30.43
527.36	67.88
527.53	46.81
527.70	0.00
527.87	11.70
528.04	88.94
528.21	77.24
528.38	147.45
528.55	39.79
528.72	37.45
528.89	30.43
529.07	49.15
529.24	39.79
529.41	23.41
529.58	81.92
529.75	35.11
529.92	0.00
530.09	2.34
530.26	100.64
530.43	51.49
530.60	56.17
530.77	91.28
530.94	100.64
531.11	7.02
531.28	35.11
531.46	93.62
531.63	46.81
531.80	58.51
531.97	60.85
532.14	74.90
532.31	72.56
532.48	0.00
532.65	0.00
532.82	72.56
532.99	86.60
533.16	56.17
533.33	74.90
533.50	56.17
533.67	65.54
533.84	28.09
534.01	0.00
534.18	2.34
534.35	65.54
534.52	84.26
534.69	23.41
534.86	28.09
535.03	77.24
535.20	2.34
535.37	51.49
535.54	124.05
535.71	72.56
535.88	9.36
536.05	72.56
536.22	30.43
536.38	0.00
536.55	23.41
536.72	93.62
536.89	23.41
537.06	44.47
537.23	126.39
537.40	46.81
537.57	44.47
537.74	105.32
537.91	14.04
538.08	23.41
538.25	70.22
538.42	95.96
538.59	0.00
538.75	16.38
538.92	28.09
539.09	102.98
539.26	21.06
539.43	70.22
539.60	77.24
539.77	84.26
539.94	42.13
540.11	37.45
540.28	119.37
540.44	74.90
540.61	60.85
540.78	11.70
540.95	14.04
541.12	88.94
541.29	25.75
541.46	0.00
541.62	63.19
541.79	60.85
541.96	0.00
542.13	7.02
542.30	23.41
542.47	53.83
542.63	46.81
542.80	72.56
542.97	46.81
543.14	16.38
543.31	46.81
543.48	46.81
543.64	46.81
543.81	81.92
543.98	0.00
544.15	14.04
544.32	51.49
544.48	18.72
544.65	42.13
544.82	14.04
544.99	58.51
545.16	49.15
545.32	126.39
545.49	46.81
545.66	58.51
545.83	53.83
546.00	2.34
546.16	11.70
546.33	53.83
546.50	0.00
546.67	72.56
546.83	128.73
547.00	58.51
547.17	28.09
547.34	37.45
547.50	42.13
547.67	77.24
547.84	21.06
548.00	56.17
548.17	42.13
548.34	56.17
548.51	35.11
548.67	60.85
548.84	152.13
549.01	72.56
549.18	16.38
549.34	60.85
549.51	63.19
549.68	2.34
549.84	79.58
550.01	60.85
550.18	25.75
550.34	0.00
550.51	79.58
550.68	79.58
550.84	16.38
551.01	7.02
551.18	30.43
551.34	9.36
551.51	77.24
551.68	28.09
551.84	53.83
552.01	0.00
552.18	0.00
552.34	44.47
552.51	53.83
552.68	32.77
552.84	126.39
553.01	58.51
553.18	88.94
553.34	114.69
553.51	49.15
553.67	133.41
553.84	35.11
554.01	58.51
554.17	0.00
554.34	0.00
554.51	49.15
554.67	25.75
554.84	67.88
555.00	60.85
555.17	105.32
555.33	30.43
555.50	60.85
555.67	63.19
555.83	35.11
556.00	16.38
556.16	77.24
556.33	53.83
556.50	70.22
556.66	72.56
556.83	131.07
556.99	53.83
557.16	117.03
557.32	93.62
557.49	18.72
557.65	81.92
557.82	25.75
557.98	2.34
558.15	0.00
558.32	58.51
558.48	93.62
558.65	128.73
558.81	91.28
558.98	110.01
559.14	49.15
559.31	23.41
559.47	65.54
559.64	25.75
559.80	23.41
559.97	70.22
560.13	51.49
560.30	81.92
560.46	14.04
560.63	67.88
560.79	84.26
560.96	37.45
561.12	63.19
561.29	58.51
561.45	65.54
561.61	11.70
561.78	114.69
561.94	0.00
562.11	63.19
562.27	46.81
562.44	53.83
562.60	0.00
562.77	44.47
562.93	18.72
563.10	58.51
563.26	81.92
563.42	9.36
563.59	9.36
563.75	49.15
563.92	60.85
564.08	37.45
564.24	51.49
564.41	93.62
564.57	32.77
564.74	28.09
564.90	42.13
565.07	11.70
565.23	81.92
565.39	44.47
565.56	84.26
565.72	84.26
565.88	30.43
566.05	23.41
566.21	88.94
566.38	51.49
566.54	11.70
566.70	0.00
566.87	60.85
567.03	0.00
567.19	51.49
567.36	9.36
567.52	9.36
567.68	44.47
567.85	42.13
568.01	110.01
568.17	39.79
568.34	67.88
568.50	32.77
568.66	56.17
568.83	0.00
568.99	77.24
569.15	42.13
569.32	0.00
569.48	46.81
569.64	0.00
569.81	72.56
569.97	7.02
570.13	95.96
570.30	88.94
570.46	39.79
570.62	35.11
570.78	98.30
570.95	72.56
571.11	0.00
571.27	84.26
571.43	65.54
571.60	86.60
571.76	51.49
571.92	46.81
572.09	58.51
572.25	0.00
572.41	42.13
572.57	21.06
572.74	42.13
572.90	95.96
573.06	84.26
573.22	72.56
573.38	39.79
573.55	67.88
573.71	0.00
573.87	25.75
574.03	32.77
574.20	9.36
574.36	28.09
574.52	65.54
574.68	0.00
574.84	23.41
575.01	28.09
575.17	98.30
575.33	30.43
575.49	28.09
575.65	49.15
575.82	53.83
575.98	86.60
576.14	74.90
576.30	53.83
576.46	21.06
576.62	53.83
576.79	86.60
576.95	0.00
577.11	81.92
577.27	28.09
577.43	81.92
577.59	86.60
577.75	21.06
577.92	74.90
578.08	25.75
578.24	23.41
578.40	0.00
578.56	28.09
578.72	67.88
578.88	25.75
579.04	49.15
579.21	28.09
579.37	9.36
579.53	0.00
579.69	84.26
579.85	28.09
580.01	49.15
580.17	14.04
580.33	42.13
580.49	39.79
580.65	46.81
580.82	72.56
580.98	88.94
581.14	72.56
581.30	51.49
581.46	51.49
581.62	67.88
581.78	0.00
581.94	2.34
582.10	42.13
582.26	37.45
582.42	70.22
582.58	0.00
582.74	42.13
582.90	51.49
583.06	16.38
583.22	53.83
583.38	7.02
583.54	4.68
583.70	88.94
583.86	74.90
584.02	0.00
584.18	0.00
584.34	74.90
584.50	46.81
584.66	9.36
584.82	18.72
584.98	63.19
585.14	84.26
585.30	39.79
585.46	0.00
585.62	51.49
585.78	91.28
585.94	56.17
586.10	2.34
586.26	105.32
586.42	14.04
586.58	105.32
586.74	42.13
586.90	14.04
587.06	112.35
587.22	35.11
587.38	0.00
587.54	70.22
587.70	72.56
587.86	42.13
588.02	42.13
588.18	0.00
588.34	0.00
588.49	0.00
588.65	0.00
588.81	18.72
588.97	0.00
589.13	0.00
589.29	0.00
589.45	65.54
589.61	60.85
589.77	0.00
589.93	91.28
590.08	44.47
590.24	49.15
590.40	42.13
590.56	28.09
590.72	35.11
590.88	67.88
591.04	58.51
591.20	9.36
591.35	67.88
591.51	91.28
591.67	53.83
591.83	28.09
591.99	72.56
592.15	14.04
592.31	74.90
592.46	53.83
592.62	30.43
592.78	81.92
592.94	147.45
593.10	124.05
593.26	63.19
593.41	74.90
593.57	49.15
593.73	25.75
593.89	14.04
594.05	0.00
594.20	60.85
594.36	39.79
594.52	49.15
594.68	98.30
594.84	44.47
594.99	0.00
595.15	11.70
595.31	86.60
595.47	65.54
595.62	35.11
595.78	0.00
595.94	100.64
596.10	42.13
596.25	91.28
596.41	74.90
596.57	121.71
596.73	58.51
596.88	93.62
597.04	18.72
597.20	0.00
597.36	56.17
597.51	32.77
597.67	67.88
597.83	28.09
597.99	16.38
598.14	53.83
598.30	0.00
598.46	18.72
598.61	88.94
598.77	42.13
598.93	110.01
599.09	67.88
599.24	84.26
599.40	79.58
599.56	74.90
599.71	58.51
599.87	46.81
600.03	56.17
600.18	21.06
600.34	51.49
600.50	21.06
600.65	65.54
600.81	0.00
600.97	49.15
601.12	72.56
601.28	56.17
601.44	28.09
601.59	0.00
601.75	60.85
601.91	74.90
602.06	72.56
602.22	42.13
602.37	84.26
602.53	74.90
602.69	86.60
602.84	88.94
603.00	30.43
603.16	39.79
603.31	70.22
603.47	72.56
603.62	74.90
603.78	37.45
603.94	9.36
604.09	65.54
604.25	21.06
604.40	18.72
604.56	2.34
604.71	77.24
604.87	0.00
605.03	114.69
605.18	14.04
605.34	0.00
605.49	42.13
605.65	0.00
605.80	42.13
605.96	74.90
606.12	0.00
606.27	81.92
606.43	0.00
606.58	30.43
606.74	42.13
606.89	2.34
607.05	42.13
607.20	91.28
607.36	77.24
607.51	32.77
607.67	49.15
607.82	84.26
607.98	37.45
608.13	0.00
608.29	23.41
608.44	70.22
608.60	91.28
608.75	23.41
608.91	14.04
609.06	0.00
609.22	70.22
609.37	16.38
609.53	88.94
609.68	25.75
609.84	63.19
609.99	23.41
610.15	84.26
610.30	74.90
610.46	39.79
610.61	56.17
610.76	53.83
610.92	35.11
611.07	16.38
611.23	81.92
611.38	79.58
611.54	35.11
611.69	28.09
611.84	21.06
612.00	119.37
612.15	42.13
612.31	7.02
612.46	21.06
612.62	0.00
612.77	67.88
612.92	28.09
613.08	7.02
613.23	79.58
613.39	51.49
613.54	65.54
613.69	4.68
613.85	32.77
614.00	53.83
614.15	112.35
614.31	60.85
614.46	70.22
614.62	63.19
614.77	98.30
614.92	0.00
615.08	86.60
615.23	46.81
615.38	0.00
615.54	14.04
615.69	67.88
615.84	18.72
616.00	93.62
616.15	42.13
616.30	30.43
616.46	0.00
616.61	67.88
616.76	49.15
616.92	2.34
617.07	16.38
617.22	0.00
617.37	37.45
617.53	44.47
617.68	9.36
617.83	42.13
617.99	0.00
618.14	46.81
618.29	42.13
618.45	72.56
618.60	18.72
618.75	30.43
618.90	67.88
619.06	58.51
619.21	37.45
619.36	42.13
619.51	2.34
619.67	53.83
619.82	79.58
619.97	70.22
620.12	79.58
620.28	72.56
620.43	51.49
620.58	67.88
620.73	58.51
620.89	70.22
621.04	25.75
621.19	0.00
621.34	0.00
621.49	56.17
621.65	25.75
621.80	91.28
621.95	67.88
622.10	32.77
622.25	74.90
622.41	39.79
622.56	39.79
622.71	74.90
622.86	23.41
623.01	58.51
623.16	32.77
623.32	4.68
623.47	63.19
623.62	93.62
623.77	18.72
623.92	105.32
624.07	21.06
624.23	58.51
624.38	16.38
624.53	67.88
624.68	49.15
624.83	91.28
624.98	46.81
625.13	0.00
625.29	53.83
625.44	14.04
625.59	93.62
625.74	77.24
625.89	37.45
626.04	56.17
626.19	32.77
626.34	28.09
626.49	14.04
626.65	88.94
626.80	98.30
626.95	0.00
627.10	46.81
627.25	35.11
627.40	0.00
627.55	0.00
627.70	0.00
627.85	23.41
628.00	60.85
628.15	0.00
628.30	124.05
628.45	53.83
628.60	70.22
628.76	21.06
628.91	30.43
629.06	0.00
629.21	63.19
629.36	0.00
629.51	11.70
629.66	0.00
629.81	16.38
629.96	77.24
630.11	18.72
630.26	32.77
630.41	28.09
630.56	88.94
630.71	9.36
630.86	32.77
631.01	21.06
631.16	23.41
631.31	28.09
631.46	46.81
631.61	88.94
631.76	7.02
631.91	100.64
632.06	105.32
632.21	42.13
632.36	65.54
632.51	0.00
632.66	23.41
632.81	25.75
632.96	81.92
633.10	11.70
633.25	53.83
633.40	65.54
633.55	0.00
633.70	23.41
633.85	28.09
634.00	77.24
634.15	56.17
634.30	0.00
634.45	70.22
634.60	105.32
634.75	79.58
634.90	60.85
635.05	60.85
635.19	107.66
635.34	32.77
635.49	128.73
635.64	58.51
635.79	0.00
635.94	74.90
636.09	70.22
636.24	0.00
636.39	18.72
636.53	0.00
636.68	14.04
636.83	56.17
636.98	4.68
637.13	0.00
637.28	30.43
637.43	56.17
637.57	39.79
637.72	79.58
637.87	42.13
638.02	84.26
638.17	0.00
638.32	32.77
638.46	46.81
638.61	32.77
638.76	4.68
638.91	107.66
639.06	0.00
639.20	86.60
639.35	88.94
639.50	46.81
639.65	95.96
639.80	88.94
639.94	117.03
640.09	37.45
640.24	0.00
640.39	110.01
640.54	74.90
640.68	44.47
640.83	53.83
640.98	4.68
641.13	70.22
641.27	56.17
641.42	56.17
641.57	37.45
641.72	60.85
641.86	88.94
642.01	65.54
642.16	30.43
642.31	86.60
642.45	42.13
642.60	28.09
642.75	60.85
642.90	42.13
643.04	0.00
643.19	65.54
643.34	79.58
643.48	14.04
643.63	0.00
643.78	107.66
643.93	72.56
644.07	74.90
644.22	37.45
644.37	70.22
644.51	23.41
644.66	114.69
644.81	30.43
644.95	100.64
645.10	53.83
645.25	35.11
645.39	28.09
645.54	60.85
645.69	42.13
645.83	95.96
645.98	21.06
646.13	11.70
646.27	58.51
646.42	37.45
646.57	32.77
646.71	63.19
646.86	0.00
647.00	53.83
647.15	60.85
647.30	60.85
647.44	32.77
647.59	7.02
647.74	0.00
647.88	42.13
648.03	18.72
648.17	74.90
648.32	7.02
648.47	0.00
648.61	128.73
648.76	16.38
648.90	2.34
649.05	35.11
649.20	42.13
649.34	0.00
649.49	14.04
649.63	102.98
649.78	0.00
649.92	11.70
650.07	35.11
650.21	7.02
650.36	63.19
650.51	107.66
650.65	0.00
650.80	88.94
650.94	0.00
651.09	0.00
651.23	49.15
651.38	42.13
651.52	53.83
651.67	70.22
651.81	77.24
651.96	14.04
652.10	44.47
652.25	114.69
652.39	65.54
652.54	84.26
652.68	60.85
652.83	7.02
652.97	18.72
653.12	58.51
653.26	42.13
653.41	32.77
653.55	21.06
653.70	21.06
653.84	0.00
653.99	0.00
654.13	32.77
654.27	0.00
654.42	49.15
654.56	63.19
654.71	0.00
654.85	0.00
655.00	0.00
655.14	37.45
655.29	56.17
655.43	63.19
655.57	60.85
655.72	21.06
655.86	39.79
656.01	32.77
656.15	4.68
656.30	0.00
656.44	0.00
656.58	81.92
656.73	16.38
656.87	0.00
657.01	95.96
657.16	56.17
657.30	112.35
657.45	72.56
657.59	46.81
657.73	25.75
657.88	21.06
658.02	44.47
658.16	14.04
658.31	105.32
658.45	32.77
658.60	77.24
658.74	4.68
658.88	25.75
659.03	11.70
659.17	16.38
659.31	28.09
659.46	9.36
659.60	35.11
659.74	46.81
659.89	23.41
660.03	126.39
660.17	60.85
660.32	67.88
660.46	51.49
660.60	2.34
660.74	30.43
660.89	112.35
661.03	37.45
661.17	0.00
661.32	46.81
661.46	16.38
661.60	21.06
661.74	100.64
661.89	30.43
662.03	0.00
662.17	30.43
662.31	28.09
662.46	49.15
662.60	53.83
662.74	14.04
662.88	56.17
663.03	58.51
663.17	14.04
663.31	25.75
663.45	88.94
663.60	86.60
663.74	67.88
663.88	16.38
664.02	23.41
664.17	18.72
664.31	51.49
664.45	35.11
664.59	7.02
664.73	0.00
664.88	0.00
665.02	0.00
665.16	46.81
665.30	93.62
665.44	25.75
665.59	4.68
665.73	0.00
665.87	79.58
666.01	46.81
666.15	0.00
666.29	37.45
666.44	58.51
666.58	67.88
666.72	39.79
666.86	42.13
667.00	44.47
667.14	35.11
667.28	4.68
667.43	46.81
667.57	49.15
667.71	9.36
667.85	110.01
667.99	39.79
668.13	74.90
668.27	67.88
668.41	0.00
668.56	100.64
668.70	98.30
668.84	14.04
668.98	21.06
669.12	21.06
669.26	63.19
669.40	21.06
669.54	7.02
669.68	91.28
669.82	105.32
669.96	95.96
670.10	107.66
670.25	72.56
670.39	7.02
670.53	0.00
670.67	39.79
670.81	30.43
670.95	67.88
671.09	51.49
671.23	7.02
671.37	0.00
671.51	100.64
671.65	0.00
671.79	39.79
671.93	25.75
672.07	42.13
672.21	65.54
672.35	77.24
672.49	70.22
672.63	14.04
672.77	39.79
672.91	51.49
673.05	25.75
673.19	58.51
673.33	30.43
673.47	42.13
673.61	0.00
673.75	39.79
673.89	0.00
674.03	56.17
674.17	44.47
674.31	67.88
674.45	60.85
674.59	0.00
674.73	65.54
674.87	0.00
675.01	74.90
675.15	0.00
675.29	9.36
675.43	39.79
675.56	49.15
675.70	32.77
675.84	21.06
675.98	0.00
676.12	14.04
676.26	0.00
676.40	0.00
676.54	32.77
676.68	23.41
676.82	105.32
676.96	44.47
677.10	0.00
677.23	72.56
677.37	39.79
677.51	16.38
677.65	35.11
677.79	0.00
677.93	14.04
678.07	67.88
678.21	0.00
678.34	170.86
678.48	0.00
678.62	60.85
678.76	46.81
678.90	18.72
679.04	95.96
679.18	0.00
679.31	49.15
679.45	16.38
679.59	0.00
679.73	11.70
679.87	25.75
680.00	65.54
680.14	60.85
680.28	18.72
680.42	0.00
680.56	44.47
680.70	23.41
680.83	7.02
680.97	84.26
681.11	35.11
681.25	0.00
681.39	28.09
681.52	60.85
681.66	0.00
681.80	35.11
681.94	117.03
682.07	42.13
682.21	39.79
682.35	53.83
682.49	51.49
682.62	0.00
682.76	65.54
682.90	0.00
683.04	0.00
683.17	65.54
683.31	0.00
683.45	4.68
683.59	63.19
683.72	72.56
683.86	72.56
684.00	95.96
684.13	35.11
684.27	93.62
684.41	67.88
684.55	117.03
684.68	70.22
684.82	32.77
684.96	72.56
685.09	14.04
685.23	65.54
685.37	102.98
685.50	4.68
685.64	37.45
685.78	65.54
685.91	65.54
686.05	51.49
686.19	63.19
686.32	21.06
686.46	72.56
686.60	39.79
686.73	2.34
686.87	0.00
687.01	0.00
687.14	7.02
687.28	51.49
687.42	49.15
687.55	28.09
687.69	28.09
687.82	11.70
687.96	0.00
688.10	9.36
688.23	0.00
688.37	42.13
688.50	81.92
688.64	23.41
688.78	72.56
688.91	98.30
689.05	0.00
689.18	46.81
689.32	88.94
689.46	77.24
689.59	63.19
689.73	9.36
689.86	25.75
690.00	0.00
690.13	0.00
690.27	0.00
690.41	2.34
690.54	28.09
690.68	84.26
690.81	2.34
690.95	9.36
691.08	18.72
691.22	42.13
691.35	18.72
691.49	49.15
691.62	79.58
691.76	0.00
691.89	32.77
692.03	0.00
692.16	37.45
692.30	46.81
692.43	67.88
692.57	60.85
692.70	60.85
692.84	25.75
692.97	4.68
693.11	9.36
693.24	0.00
693.38	0.00
693.51	16.38
693.65	11.70
693.78	18.72
693.92	58.51
694.05	9.36
694.19	79.58
694.32	7.02
694.45	72.56
694.59	23.41
694.72	37.45
694.86	79.58
694.99	86.60
695.13	23.41
695.26	37.45
695.39	0.00
695.53	44.47
695.66	51.49
695.80	65.54
695.93	4.68
696.07	0.00
696.20	53.83
696.33	93.62
696.47	84.26
696.60	60.85
696.73	25.75
696.87	25.75
697.00	58.51
697.14	11.70
697.27	84.26
697.40	0.00
697.54	49.15
697.67	51.49
697.80	0.00
697.94	30.43
698.07	0.00
698.21	42.13
698.34	0.00
698.47	0.00
698.61	0.00
698.74	16.38
698.87	4.68
699.01	9.36
699.14	65.54
699.27	39.79
699.40	44.47
699.54	42.13
699.67	42.13
699.80	67.88
699.94	98.30
700.07	44.47
700.20	21.06
700.34	77.24
700.47	0.00
700.60	0.00
700.73	21.06
700.87	0.00
701.00	32.77
701.13	18.72
701.26	63.19
701.40	86.60
701.53	0.00
701.66	0.00
701.79	60.85
701.93	0.00
702.06	88.94
702.19	98.30
702.32	112.35
702.46	77.24
702.59	58.51
702.72	42.13
702.85	21.06
702.99	0.00
703.12	42.13
703.25	100.64
703.38	16.38
703.51	18.72
703.65	46.81
703.78	11.70
703.91	4.68
704.04	67.88
704.17	81.92
704.31	0.00
704.44	23.41
704.57	0.00
704.70	56.17
704.83	0.00
704.96	7.02
705.10	2.34
705.23	67.88
>>>>>End Processed Spectral Data<<<<<
