SpectraSuite Data File
++++++++++++++++++++++++++++++++++++
Date: Fri Oct 04 12:13:25 GMT-05:00 2013
User: price-jones
Dark Spectrum Present: No
Reference Spectrum Present: No
Number of Sampled Component Spectra: 1
Spectrometers: USB2+H05261
Integration Time (usec): 10000 (USB2+H05261)
Spectra Averaged: 1 (USB2+H05261)
Boxcar Smoothing: 0 (USB2+H05261)
Correct for Electrical Dark: No (USB2+H05261)
Strobe/Lamp Enabled: No (USB2+H05261)
Correct for Detector Non-linearity: No (USB2+H05261)
Correct for Stray Light: No (USB2+H05261)
Number of Pixels in Processed Spectrum: 2048
>>>>>Begin Processed Spectral Data<<<<<
365.73	91.28
365.92	91.28
366.12	91.28
366.32	0.00
366.52	0.00
366.72	0.00
366.91	0.00
367.11	0.00
367.31	0.00
367.51	0.00
367.70	0.00
367.90	0.00
368.10	0.00
368.30	0.00
368.49	0.00
368.69	0.00
368.89	0.00
369.09	0.00
369.28	0.00
369.48	0.00
369.68	0.00
369.87	0.00
370.07	0.00
370.27	0.00
370.47	0.00
370.66	0.00
370.86	0.00
371.06	0.00
371.25	0.00
371.45	11.70
371.65	0.00
371.84	0.00
372.04	7.02
372.24	0.00
372.44	11.70
372.63	16.38
372.83	56.17
373.03	25.75
373.22	7.02
373.42	49.15
373.62	0.00
373.81	23.41
374.01	51.49
374.21	107.66
374.40	51.49
374.60	65.54
374.79	0.00
374.99	77.24
375.19	49.15
375.38	37.45
375.58	0.00
375.78	77.24
375.97	42.13
376.17	0.00
376.37	46.81
376.56	46.81
376.76	7.02
376.95	2.34
377.15	102.98
377.35	39.79
377.54	35.11
377.74	25.75
377.93	30.43
378.13	18.72
378.33	0.00
378.52	100.64
378.72	14.04
378.91	95.96
379.11	28.09
379.31	0.00
379.50	88.94
379.70	0.00
379.89	30.43
380.09	7.02
380.28	0.00
380.48	16.38
380.68	9.36
380.87	0.00
381.07	0.00
381.26	2.34
381.46	28.09
381.65	0.00
381.85	0.00
382.04	37.45
382.24	88.94
382.43	44.47
382.63	0.00
382.83	23.41
383.02	35.11
383.22	25.75
383.41	44.47
383.61	60.85
383.80	0.00
384.00	65.54
384.19	14.04
384.39	65.54
384.58	21.06
384.78	0.00
384.97	0.00
385.17	11.70
385.36	37.45
385.56	35.11
385.75	0.00
385.95	0.00
386.14	0.00
386.34	7.02
386.53	0.00
386.72	14.04
386.92	67.88
387.11	0.00
387.31	35.11
387.50	72.56
387.70	56.17
387.89	18.72
388.09	4.68
388.28	0.00
388.48	9.36
388.67	7.02
388.86	60.85
389.06	16.38
389.25	11.70
389.45	74.90
389.64	0.00
389.84	65.54
390.03	23.41
390.22	0.00
390.42	0.00
390.61	51.49
390.81	0.00
391.00	0.00
391.19	18.72
391.39	0.00
391.58	0.00
391.78	0.00
391.97	0.00
392.16	4.68
392.36	0.00
392.55	7.02
392.75	67.88
392.94	23.41
393.13	46.81
393.33	28.09
393.52	4.68
393.71	88.94
393.91	0.00
394.10	0.00
394.29	0.00
394.49	0.00
394.68	30.43
394.88	42.13
395.07	16.38
395.26	0.00
395.46	35.11
395.65	51.49
395.84	0.00
396.04	0.00
396.23	53.83
396.42	14.04
396.62	2.34
396.81	0.00
397.00	51.49
397.19	42.13
397.39	58.51
397.58	67.88
397.77	110.01
397.97	0.00
398.16	0.00
398.35	0.00
398.55	0.00
398.74	93.62
398.93	23.41
399.12	30.43
399.32	35.11
399.51	2.34
399.70	0.00
399.90	53.83
400.09	21.06
400.28	16.38
400.47	102.98
400.67	56.17
400.86	42.13
401.05	32.77
401.24	0.00
401.44	72.56
401.63	46.81
401.82	28.09
402.01	0.00
402.21	42.13
402.40	49.15
402.59	21.06
402.78	11.70
402.97	0.00
403.17	16.38
403.36	86.60
403.55	16.38
403.74	74.90
403.93	72.56
404.13	16.38
404.32	49.15
404.51	0.00
404.70	0.00
404.89	30.43
405.09	32.77
405.28	30.43
405.47	21.06
405.66	56.17
405.85	32.77
406.05	9.36
406.24	65.54
406.43	21.06
406.62	44.47
406.81	105.32
407.00	60.85
407.20	7.02
407.39	37.45
407.58	42.13
407.77	53.83
407.96	14.04
408.15	16.38
408.34	14.04
408.54	0.00
408.73	0.00
408.92	16.38
409.11	65.54
409.30	46.81
409.49	0.00
409.68	42.13
409.87	21.06
410.07	30.43
410.26	114.69
410.45	16.38
410.64	86.60
410.83	0.00
411.02	0.00
411.21	42.13
411.40	35.11
411.59	25.75
411.78	35.11
411.98	51.49
412.17	0.00
412.36	14.04
412.55	25.75
412.74	0.00
412.93	2.34
413.12	0.00
413.31	23.41
413.50	0.00
413.69	0.00
413.88	37.45
414.07	18.72
414.26	0.00
414.45	49.15
414.64	4.68
414.83	23.41
415.02	39.79
415.22	4.68
415.41	0.00
415.60	46.81
415.79	14.04
415.98	70.22
416.17	77.24
416.36	74.90
416.55	18.72
416.74	98.30
416.93	86.60
417.12	21.06
417.31	0.00
417.50	28.09
417.69	25.75
417.88	44.47
418.07	14.04
418.26	44.47
418.45	58.51
418.64	4.68
418.83	49.15
419.02	0.00
419.21	65.54
419.39	100.64
419.58	46.81
419.77	11.70
419.96	0.00
420.15	21.06
420.34	56.17
420.53	9.36
420.72	72.56
420.91	74.90
421.10	39.79
421.29	37.45
421.48	70.22
421.67	53.83
421.86	74.90
422.05	7.02
422.24	28.09
422.43	100.64
422.61	0.00
422.80	0.00
422.99	53.83
423.18	14.04
423.37	51.49
423.56	93.62
423.75	81.92
423.94	0.00
424.13	74.90
424.32	100.64
424.50	37.45
424.69	0.00
424.88	77.24
425.07	9.36
425.26	46.81
425.45	46.81
425.64	30.43
425.83	56.17
426.01	16.38
426.20	65.54
426.39	56.17
426.58	25.75
426.77	0.00
426.96	56.17
427.15	25.75
427.33	0.00
427.52	14.04
427.71	0.00
427.90	0.00
428.09	32.77
428.28	86.60
428.46	49.15
428.65	44.47
428.84	28.09
429.03	9.36
429.22	14.04
429.40	46.81
429.59	98.30
429.78	56.17
429.97	42.13
430.16	67.88
430.34	53.83
430.53	7.02
430.72	79.58
430.91	58.51
431.10	42.13
431.28	7.02
431.47	0.00
431.66	39.79
431.85	0.00
432.03	49.15
432.22	0.00
432.41	0.00
432.60	63.19
432.79	9.36
432.97	37.45
433.16	21.06
433.35	28.09
433.54	25.75
433.72	25.75
433.91	81.92
434.10	14.04
434.28	88.94
434.47	100.64
434.66	44.47
434.85	65.54
435.03	81.92
435.22	0.00
435.41	37.45
435.59	25.75
435.78	58.51
435.97	35.11
436.16	42.13
436.34	0.00
436.53	0.00
436.72	18.72
436.90	44.47
437.09	25.75
437.28	60.85
437.46	88.94
437.65	98.30
437.84	16.38
438.02	0.00
438.21	30.43
438.40	0.00
438.58	2.34
438.77	49.15
438.96	88.94
439.14	44.47
439.33	65.54
439.52	77.24
439.70	0.00
439.89	65.54
440.08	74.90
440.26	58.51
440.45	42.13
440.63	11.70
440.82	35.11
441.01	9.36
441.19	0.00
441.38	0.00
441.57	0.00
441.75	44.47
441.94	58.51
442.12	0.00
442.31	46.81
442.50	0.00
442.68	46.81
442.87	67.88
443.05	93.62
443.24	39.79
443.43	9.36
443.61	0.00
443.80	124.05
443.98	79.58
444.17	53.83
444.35	35.11
444.54	70.22
444.73	46.81
444.91	72.56
445.10	0.00
445.28	44.47
445.47	11.70
445.65	0.00
445.84	44.47
446.02	4.68
446.21	124.05
446.39	121.71
446.58	81.92
446.77	65.54
446.95	42.13
447.14	51.49
447.32	95.96
447.51	0.00
447.69	0.00
447.88	0.00
448.06	93.62
448.25	0.00
448.43	46.81
448.62	0.00
448.80	0.00
448.99	74.90
449.17	9.36
449.36	4.68
449.54	7.02
449.73	46.81
449.91	16.38
450.10	44.47
450.28	23.41
450.46	0.00
450.65	100.64
450.83	67.88
451.02	25.75
451.20	11.70
451.39	4.68
451.57	14.04
451.76	0.00
451.94	4.68
452.13	95.96
452.31	0.00
452.49	7.02
452.68	4.68
452.86	37.45
453.05	93.62
453.23	88.94
453.42	0.00
453.60	23.41
453.78	0.00
453.97	65.54
454.15	51.49
454.34	46.81
454.52	0.00
454.70	88.94
454.89	65.54
455.07	74.90
455.26	93.62
455.44	0.00
455.62	0.00
455.81	88.94
455.99	67.88
456.17	16.38
456.36	0.00
456.54	44.47
456.73	0.00
456.91	35.11
457.09	7.02
457.28	21.06
457.46	53.83
457.64	51.49
457.83	0.00
458.01	74.90
458.19	0.00
458.38	23.41
458.56	42.13
458.74	70.22
458.93	0.00
459.11	44.47
459.29	91.28
459.48	2.34
459.66	72.56
459.84	35.11
460.03	102.98
460.21	0.00
460.39	51.49
460.57	42.13
460.76	0.00
460.94	42.13
461.12	0.00
461.31	9.36
461.49	58.51
461.67	18.72
461.85	39.79
462.04	0.00
462.22	37.45
462.40	18.72
462.59	0.00
462.77	0.00
462.95	0.00
463.13	0.00
463.32	37.45
463.50	14.04
463.68	46.81
463.86	42.13
464.05	25.75
464.23	4.68
464.41	119.37
464.59	44.47
464.78	0.00
464.96	56.17
465.14	72.56
465.32	2.34
465.50	28.09
465.69	0.00
465.87	81.92
466.05	0.00
466.23	11.70
466.41	18.72
466.60	30.43
466.78	14.04
466.96	46.81
467.14	4.68
467.32	32.77
467.51	70.22
467.69	21.06
467.87	32.77
468.05	4.68
468.23	21.06
468.41	105.32
468.60	42.13
468.78	0.00
468.96	23.41
469.14	63.19
469.32	11.70
469.50	44.47
469.69	35.11
469.87	37.45
470.05	21.06
470.23	0.00
470.41	4.68
470.59	21.06
470.77	39.79
470.95	44.47
471.14	81.92
471.32	16.38
471.50	51.49
471.68	0.00
471.86	60.85
472.04	74.90
472.22	35.11
472.40	0.00
472.58	70.22
472.77	0.00
472.95	0.00
473.13	9.36
473.31	18.72
473.49	0.00
473.67	65.54
473.85	28.09
474.03	0.00
474.21	32.77
474.39	56.17
474.57	32.77
474.75	67.88
474.93	32.77
475.12	4.68
475.30	70.22
475.48	32.77
475.66	0.00
475.84	42.13
476.02	42.13
476.20	30.43
476.38	28.09
476.56	77.24
476.74	46.81
476.92	49.15
477.10	37.45
477.28	2.34
477.46	0.00
477.64	14.04
477.82	0.00
478.00	21.06
478.18	114.69
478.36	51.49
478.54	105.32
478.72	21.06
478.90	39.79
479.08	2.34
479.26	30.43
479.44	14.04
479.62	14.04
479.80	0.00
479.98	105.32
480.16	42.13
480.34	2.34
480.52	28.09
480.70	7.02
480.88	81.92
481.06	32.77
481.24	28.09
481.41	28.09
481.59	30.43
481.77	49.15
481.95	56.17
482.13	44.47
482.31	77.24
482.49	30.43
482.67	25.75
482.85	74.90
483.03	0.00
483.21	25.75
483.39	95.96
483.57	9.36
483.74	2.34
483.92	4.68
484.10	16.38
484.28	0.00
484.46	0.00
484.64	42.13
484.82	0.00
485.00	7.02
485.18	72.56
485.35	79.58
485.53	32.77
485.71	81.92
485.89	93.62
486.07	16.38
486.25	30.43
486.43	84.26
486.61	119.37
486.78	14.04
486.96	37.45
487.14	0.00
487.32	2.34
487.50	21.06
487.68	79.58
487.85	56.17
488.03	0.00
488.21	53.83
488.39	0.00
488.57	32.77
488.75	60.85
488.92	39.79
489.10	25.75
489.28	65.54
489.46	39.79
489.64	7.02
489.81	16.38
489.99	105.32
490.17	32.77
490.35	105.32
490.53	95.96
490.70	0.00
490.88	77.24
491.06	39.79
491.24	70.22
491.41	14.04
491.59	9.36
491.77	35.11
491.95	25.75
492.13	42.13
492.30	0.00
492.48	65.54
492.66	39.79
492.84	49.15
493.01	0.00
493.19	0.00
493.37	0.00
493.54	14.04
493.72	16.38
493.90	42.13
494.08	28.09
494.25	49.15
494.43	35.11
494.61	95.96
494.79	18.72
494.96	79.58
495.14	25.75
495.32	9.36
495.49	77.24
495.67	0.00
495.85	2.34
496.02	70.22
496.20	102.98
496.38	4.68
496.55	0.00
496.73	74.90
496.91	0.00
497.09	9.36
497.26	56.17
497.44	74.90
497.62	44.47
497.79	25.75
497.97	16.38
498.14	35.11
498.32	11.70
498.50	58.51
498.67	0.00
498.85	51.49
499.03	0.00
499.20	30.43
499.38	28.09
499.56	21.06
499.73	37.45
499.91	81.92
500.08	30.43
500.26	35.11
500.44	23.41
500.61	35.11
500.79	16.38
500.97	14.04
501.14	32.77
501.32	51.49
501.49	81.92
501.67	49.15
501.84	42.13
502.02	74.90
502.20	79.58
502.37	58.51
502.55	67.88
502.72	72.56
502.90	30.43
503.07	2.34
503.25	49.15
503.43	74.90
503.60	37.45
503.78	28.09
503.95	46.81
504.13	77.24
504.30	49.15
504.48	58.51
504.65	39.79
504.83	0.00
505.01	11.70
505.18	0.00
505.36	74.90
505.53	77.24
505.71	28.09
505.88	159.16
506.06	0.00
506.23	32.77
506.41	32.77
506.58	28.09
506.76	0.00
506.93	0.00
507.11	74.90
507.28	53.83
507.46	77.24
507.63	39.79
507.81	32.77
507.98	60.85
508.16	30.43
508.33	14.04
508.50	84.26
508.68	11.70
508.85	44.47
509.03	79.58
509.20	79.58
509.38	37.45
509.55	25.75
509.73	60.85
509.90	56.17
510.08	51.49
510.25	67.88
510.42	49.15
510.60	60.85
510.77	67.88
510.95	58.51
511.12	51.49
511.30	49.15
511.47	21.06
511.64	25.75
511.82	37.45
511.99	35.11
512.17	102.98
512.34	4.68
512.51	0.00
512.69	28.09
512.86	58.51
513.04	35.11
513.21	100.64
513.38	18.72
513.56	79.58
513.73	18.72
513.90	49.15
514.08	0.00
514.25	44.47
514.43	81.92
514.60	7.02
514.77	51.49
514.95	30.43
515.12	39.79
515.29	0.00
515.47	9.36
515.64	14.04
515.81	44.47
515.99	95.96
516.16	58.51
516.33	51.49
516.51	25.75
516.68	60.85
516.85	65.54
517.03	23.41
517.20	56.17
517.37	79.58
517.54	14.04
517.72	9.36
517.89	93.62
518.06	51.49
518.24	0.00
518.41	39.79
518.58	37.45
518.75	42.13
518.93	42.13
519.10	21.06
519.27	46.81
519.45	60.85
519.62	84.26
519.79	32.77
519.96	0.00
520.14	67.88
520.31	23.41
520.48	56.17
520.65	65.54
520.83	37.45
521.00	49.15
521.17	30.43
521.34	56.17
521.52	88.94
521.69	152.13
521.86	65.54
522.03	0.00
522.20	49.15
522.38	98.30
522.55	60.85
522.72	39.79
522.89	0.00
523.07	0.00
523.24	84.26
523.41	23.41
523.58	35.11
523.75	21.06
523.92	35.11
524.10	0.00
524.27	30.43
524.44	0.00
524.61	32.77
524.78	39.79
524.96	42.13
525.13	14.04
525.30	35.11
525.47	30.43
525.64	60.85
525.81	74.90
525.98	16.38
526.16	18.72
526.33	0.00
526.50	28.09
526.67	23.41
526.84	21.06
527.01	51.49
527.18	65.54
527.36	42.13
527.53	0.00
527.70	2.34
527.87	81.92
528.04	100.64
528.21	53.83
528.38	28.09
528.55	30.43
528.72	72.56
528.89	0.00
529.07	53.83
529.24	63.19
529.41	98.30
529.58	56.17
529.75	0.00
529.92	9.36
530.09	91.28
530.26	30.43
530.43	14.04
530.60	21.06
530.77	58.51
530.94	77.24
531.11	42.13
531.28	67.88
531.46	58.51
531.63	0.00
531.80	84.26
531.97	86.60
532.14	131.07
532.31	74.90
532.48	37.45
532.65	7.02
532.82	81.92
532.99	0.00
533.16	79.58
533.33	39.79
533.50	91.28
533.67	0.00
533.84	65.54
534.01	0.00
534.18	25.75
534.35	7.02
534.52	32.77
534.69	121.71
534.86	21.06
535.03	42.13
535.20	25.75
535.37	63.19
535.54	30.43
535.71	65.54
535.88	53.83
536.05	63.19
536.22	14.04
536.38	0.00
536.55	9.36
536.72	14.04
536.89	9.36
537.06	18.72
537.23	65.54
537.40	93.62
537.57	0.00
537.74	0.00
537.91	72.56
538.08	35.11
538.25	0.00
538.42	56.17
538.59	16.38
538.75	51.49
538.92	67.88
539.09	53.83
539.26	51.49
539.43	0.00
539.60	32.77
539.77	93.62
539.94	4.68
540.11	30.43
540.28	102.98
540.44	23.41
540.61	9.36
540.78	105.32
540.95	72.56
541.12	98.30
541.29	0.00
541.46	65.54
541.62	23.41
541.79	51.49
541.96	114.69
542.13	14.04
542.30	81.92
542.47	53.83
542.63	60.85
542.80	21.06
542.97	0.00
543.14	7.02
543.31	14.04
543.48	0.00
543.64	77.24
543.81	67.88
543.98	37.45
544.15	35.11
544.32	21.06
544.48	39.79
544.65	91.28
544.82	0.00
544.99	105.32
545.16	0.00
545.32	4.68
545.49	16.38
545.66	0.00
545.83	28.09
546.00	35.11
546.16	28.09
546.33	42.13
546.50	49.15
546.67	86.60
546.83	37.45
547.00	63.19
547.17	65.54
547.34	0.00
547.50	28.09
547.67	0.00
547.84	0.00
548.00	42.13
548.17	44.47
548.34	126.39
548.51	32.77
548.67	37.45
548.84	0.00
549.01	58.51
549.18	49.15
549.34	32.77
549.51	4.68
549.68	0.00
549.84	81.92
550.01	35.11
550.18	7.02
550.34	37.45
550.51	58.51
550.68	56.17
550.84	28.09
551.01	58.51
551.18	53.83
551.34	42.13
551.51	51.49
551.68	30.43
551.84	98.30
552.01	39.79
552.18	0.00
552.34	9.36
552.51	32.77
552.68	9.36
552.84	44.47
553.01	74.90
553.18	67.88
553.34	63.19
553.51	49.15
553.67	79.58
553.84	91.28
554.01	25.75
554.17	0.00
554.34	51.49
554.51	42.13
554.67	56.17
554.84	0.00
555.00	18.72
555.17	25.75
555.33	46.81
555.50	91.28
555.67	56.17
555.83	30.43
556.00	63.19
556.16	60.85
556.33	51.49
556.50	4.68
556.66	7.02
556.83	74.90
556.99	0.00
557.16	74.90
557.32	70.22
557.49	67.88
557.65	23.41
557.82	60.85
557.98	25.75
558.15	53.83
558.32	63.19
558.48	2.34
558.65	53.83
558.81	35.11
558.98	4.68
559.14	114.69
559.31	28.09
559.47	70.22
559.64	65.54
559.80	7.02
559.97	2.34
560.13	53.83
560.30	74.90
560.46	84.26
560.63	28.09
560.79	14.04
560.96	32.77
561.12	0.00
561.29	0.00
561.45	23.41
561.61	74.90
561.78	70.22
561.94	46.81
562.11	51.49
562.27	107.66
562.44	70.22
562.60	58.51
562.77	23.41
562.93	79.58
563.10	11.70
563.26	4.68
563.42	70.22
563.59	37.45
563.75	49.15
563.92	14.04
564.08	9.36
564.24	37.45
564.41	0.00
564.57	0.00
564.74	65.54
564.90	60.85
565.07	88.94
565.23	32.77
565.39	0.00
565.56	93.62
565.72	46.81
565.88	63.19
566.05	23.41
566.21	7.02
566.38	0.00
566.54	105.32
566.70	35.11
566.87	112.35
567.03	42.13
567.19	0.00
567.36	84.26
567.52	100.64
567.68	21.06
567.85	14.04
568.01	46.81
568.17	0.00
568.34	42.13
568.50	37.45
568.66	53.83
568.83	56.17
568.99	74.90
569.15	35.11
569.32	4.68
569.48	0.00
569.64	67.88
569.81	0.00
569.97	46.81
570.13	23.41
570.30	0.00
570.46	0.00
570.62	58.51
570.78	42.13
570.95	16.38
571.11	42.13
571.27	0.00
571.43	21.06
571.60	0.00
571.76	46.81
571.92	58.51
572.09	0.00
572.25	37.45
572.41	23.41
572.57	11.70
572.74	4.68
572.90	63.19
573.06	0.00
573.22	65.54
573.38	53.83
573.55	9.36
573.71	98.30
573.87	58.51
574.03	77.24
574.20	63.19
574.36	128.73
574.52	39.79
574.68	28.09
574.84	21.06
575.01	74.90
575.17	11.70
575.33	0.00
575.49	53.83
575.65	0.00
575.82	95.96
575.98	56.17
576.14	0.00
576.30	37.45
576.46	0.00
576.62	28.09
576.79	7.02
576.95	39.79
577.11	2.34
577.27	0.00
577.43	53.83
577.59	2.34
577.75	0.00
577.92	9.36
578.08	72.56
578.24	95.96
578.40	42.13
578.56	0.00
578.72	0.00
578.88	4.68
579.04	49.15
579.21	4.68
579.37	37.45
579.53	42.13
579.69	18.72
579.85	37.45
580.01	39.79
580.17	63.19
580.33	74.90
580.49	16.38
580.65	21.06
580.82	28.09
580.98	23.41
581.14	37.45
581.30	74.90
581.46	0.00
581.62	4.68
581.78	77.24
581.94	0.00
582.10	14.04
582.26	16.38
582.42	81.92
582.58	9.36
582.74	18.72
582.90	25.75
583.06	95.96
583.22	37.45
583.38	0.00
583.54	0.00
583.70	46.81
583.86	14.04
584.02	46.81
584.18	9.36
584.34	117.03
584.50	21.06
584.66	2.34
584.82	0.00
584.98	9.36
585.14	58.51
585.30	0.00
585.46	42.13
585.62	0.00
585.78	124.05
585.94	44.47
586.10	0.00
586.26	0.00
586.42	14.04
586.58	0.00
586.74	53.83
586.90	105.32
587.06	11.70
587.22	53.83
587.38	0.00
587.54	16.38
587.70	30.43
587.86	58.51
588.02	39.79
588.18	86.60
588.34	35.11
588.49	0.00
588.65	18.72
588.81	81.92
588.97	37.45
589.13	35.11
589.29	32.77
589.45	58.51
589.61	16.38
589.77	42.13
589.93	67.88
590.08	49.15
590.24	4.68
590.40	32.77
590.56	86.60
590.72	95.96
590.88	0.00
591.04	35.11
591.20	30.43
591.35	121.71
591.51	25.75
591.67	49.15
591.83	0.00
591.99	4.68
592.15	0.00
592.31	23.41
592.46	86.60
592.62	91.28
592.78	0.00
592.94	0.00
593.10	79.58
593.26	58.51
593.41	46.81
593.57	14.04
593.73	39.79
593.89	51.49
594.05	67.88
594.20	44.47
594.36	37.45
594.52	65.54
594.68	58.51
594.84	44.47
594.99	77.24
595.15	58.51
595.31	4.68
595.47	0.00
595.62	0.00
595.78	0.00
595.94	72.56
596.10	0.00
596.25	88.94
596.41	67.88
596.57	9.36
596.73	16.38
596.88	56.17
597.04	56.17
597.20	25.75
597.36	23.41
597.51	0.00
597.67	32.77
597.83	14.04
597.99	56.17
598.14	28.09
598.30	98.30
598.46	53.83
598.61	39.79
598.77	32.77
598.93	18.72
599.09	14.04
599.24	14.04
599.40	32.77
599.56	35.11
599.71	46.81
599.87	0.00
600.03	7.02
600.18	0.00
600.34	42.13
600.50	84.26
600.65	4.68
600.81	42.13
600.97	21.06
601.12	37.45
601.28	42.13
601.44	56.17
601.59	56.17
601.75	0.00
601.91	37.45
602.06	49.15
602.22	39.79
602.37	11.70
602.53	51.49
602.69	42.13
602.84	138.09
603.00	28.09
603.16	0.00
603.31	0.00
603.47	0.00
603.62	0.00
603.78	93.62
603.94	65.54
604.09	21.06
604.25	0.00
604.40	11.70
604.56	25.75
604.71	44.47
604.87	21.06
605.03	11.70
605.18	14.04
605.34	18.72
605.49	25.75
605.65	35.11
605.80	88.94
605.96	0.00
606.12	23.41
606.27	35.11
606.43	21.06
606.58	25.75
606.74	152.13
606.89	51.49
607.05	7.02
607.20	25.75
607.36	0.00
607.51	25.75
607.67	16.38
607.82	156.82
607.98	2.34
608.13	88.94
608.29	53.83
608.44	74.90
608.60	0.00
608.75	9.36
608.91	42.13
609.06	46.81
609.22	119.37
609.37	0.00
609.53	32.77
609.68	16.38
609.84	44.47
609.99	65.54
610.15	0.00
610.30	84.26
610.46	0.00
610.61	70.22
610.76	44.47
610.92	70.22
611.07	11.70
611.23	51.49
611.38	102.98
611.54	35.11
611.69	2.34
611.84	46.81
612.00	7.02
612.15	35.11
612.31	14.04
612.46	44.47
612.62	0.00
612.77	91.28
612.92	58.51
613.08	46.81
613.23	25.75
613.39	0.00
613.54	56.17
613.69	70.22
613.85	65.54
614.00	0.00
614.15	0.00
614.31	28.09
614.46	0.00
614.62	63.19
614.77	60.85
614.92	21.06
615.08	119.37
615.23	42.13
615.38	74.90
615.54	39.79
615.69	51.49
615.84	107.66
616.00	46.81
616.15	0.00
616.30	63.19
616.46	49.15
616.61	0.00
616.76	88.94
616.92	11.70
617.07	30.43
617.22	44.47
617.37	42.13
617.53	42.13
617.68	58.51
617.83	0.00
617.99	2.34
618.14	37.45
618.29	21.06
618.45	58.51
618.60	102.98
618.75	30.43
618.90	58.51
619.06	30.43
619.21	51.49
619.36	35.11
619.51	0.00
619.67	9.36
619.82	81.92
619.97	11.70
620.12	98.30
620.28	39.79
620.43	0.00
620.58	119.37
620.73	0.00
620.89	14.04
621.04	0.00
621.19	21.06
621.34	81.92
621.49	0.00
621.65	4.68
621.80	0.00
621.95	0.00
622.10	56.17
622.25	0.00
622.41	72.56
622.56	44.47
622.71	42.13
622.86	0.00
623.01	49.15
623.16	70.22
623.32	25.75
623.47	0.00
623.62	63.19
623.77	95.96
623.92	0.00
624.07	0.00
624.23	23.41
624.38	32.77
624.53	44.47
624.68	56.17
624.83	0.00
624.98	84.26
625.13	23.41
625.29	79.58
625.44	86.60
625.59	53.83
625.74	51.49
625.89	98.30
626.04	35.11
626.19	30.43
626.34	9.36
626.49	95.96
626.65	56.17
626.80	107.66
626.95	30.43
627.10	30.43
627.25	107.66
627.40	63.19
627.55	11.70
627.70	0.00
627.85	42.13
628.00	28.09
628.15	67.88
628.30	72.56
628.45	95.96
628.60	32.77
628.76	102.98
628.91	11.70
629.06	21.06
629.21	0.00
629.36	21.06
629.51	21.06
629.66	39.79
629.81	98.30
629.96	44.47
630.11	21.06
630.26	49.15
630.41	44.47
630.56	25.75
630.71	32.77
630.86	70.22
631.01	0.00
631.16	0.00
631.31	42.13
631.46	37.45
631.61	91.28
631.76	0.00
631.91	0.00
632.06	56.17
632.21	21.06
632.36	9.36
632.51	39.79
632.66	0.00
632.81	0.00
632.96	14.04
633.10	7.02
633.25	81.92
633.40	84.26
633.55	102.98
633.70	0.00
633.85	46.81
634.00	42.13
634.15	0.00
634.30	30.43
634.45	18.72
634.60	0.00
634.75	74.90
634.90	0.00
635.05	0.00
635.19	86.60
635.34	60.85
635.49	32.77
635.64	30.43
635.79	72.56
635.94	72.56
636.09	4.68
636.24	114.69
636.39	98.30
636.53	39.79
636.68	11.70
636.83	42.13
636.98	77.24
637.13	30.43
637.28	2.34
637.43	28.09
637.57	77.24
637.72	44.47
637.87	16.38
638.02	0.00
638.17	91.28
638.32	28.09
638.46	11.70
638.61	7.02
638.76	44.47
638.91	53.83
639.06	49.15
639.20	25.75
639.35	25.75
639.50	70.22
639.65	112.35
639.80	35.11
639.94	28.09
640.09	39.79
640.24	58.51
640.39	0.00
640.54	117.03
640.68	18.72
640.83	70.22
640.98	42.13
641.13	0.00
641.27	79.58
641.42	0.00
641.57	46.81
641.72	42.13
641.86	11.70
642.01	21.06
642.16	2.34
642.31	14.04
642.45	51.49
642.60	49.15
642.75	79.58
642.90	14.04
643.04	0.00
643.19	56.17
643.34	0.00
643.48	72.56
643.63	25.75
643.78	0.00
643.93	81.92
644.07	95.96
644.22	91.28
644.37	51.49
644.51	0.00
644.66	30.43
644.81	0.00
644.95	28.09
645.10	105.32
645.25	25.75
645.39	37.45
645.54	9.36
645.69	0.00
645.83	35.11
645.98	72.56
646.13	35.11
646.27	21.06
646.42	39.79
646.57	11.70
646.71	86.60
646.86	70.22
647.00	42.13
647.15	0.00
647.30	51.49
647.44	28.09
647.59	9.36
647.74	21.06
647.88	11.70
648.03	0.00
648.17	32.77
648.32	11.70
648.47	0.00
648.61	0.00
648.76	65.54
648.90	0.00
649.05	0.00
649.20	53.83
649.34	42.13
649.49	102.98
649.63	56.17
649.78	14.04
649.92	11.70
650.07	14.04
650.21	4.68
650.36	84.26
650.51	84.26
650.65	7.02
650.80	9.36
650.94	21.06
651.09	74.90
651.23	14.04
651.38	0.00
651.52	0.00
651.67	14.04
651.81	9.36
651.96	25.75
652.10	7.02
652.25	9.36
652.39	37.45
652.54	49.15
652.68	51.49
652.83	0.00
652.97	21.06
653.12	0.00
653.26	0.00
653.41	72.56
653.55	37.45
653.70	65.54
653.84	98.30
653.99	0.00
654.13	35.11
654.27	63.19
654.42	14.04
654.56	0.00
654.71	4.68
654.85	23.41
655.00	25.75
655.14	88.94
655.29	23.41
655.43	9.36
655.57	81.92
655.72	23.41
655.86	46.81
656.01	0.00
656.15	0.00
656.30	60.85
656.44	81.92
656.58	30.43
656.73	70.22
656.87	28.09
657.01	25.75
657.16	0.00
657.30	56.17
657.45	46.81
657.59	28.09
657.73	0.00
657.88	53.83
658.02	0.00
658.16	4.68
658.31	9.36
658.45	9.36
658.60	16.38
658.74	0.00
658.88	67.88
659.03	91.28
659.17	0.00
659.31	18.72
659.46	44.47
659.60	18.72
659.74	53.83
659.89	72.56
660.03	46.81
660.17	91.28
660.32	79.58
660.46	114.69
660.60	7.02
660.74	72.56
660.89	4.68
661.03	46.81
661.17	35.11
661.32	81.92
661.46	35.11
661.60	37.45
661.74	37.45
661.89	32.77
662.03	84.26
662.17	32.77
662.31	70.22
662.46	35.11
662.60	77.24
662.74	21.06
662.88	9.36
663.03	77.24
663.17	16.38
663.31	60.85
663.45	21.06
663.60	63.19
663.74	28.09
663.88	0.00
664.02	58.51
664.17	0.00
664.31	23.41
664.45	67.88
664.59	0.00
664.73	0.00
664.88	102.98
665.02	72.56
665.16	67.88
665.30	53.83
665.44	0.00
665.59	44.47
665.73	0.00
665.87	0.00
666.01	35.11
666.15	0.00
666.29	0.00
666.44	28.09
666.58	58.51
666.72	42.13
666.86	0.00
667.00	100.64
667.14	49.15
667.28	46.81
667.43	0.00
667.57	30.43
667.71	35.11
667.85	42.13
667.99	32.77
668.13	32.77
668.27	0.00
668.41	77.24
668.56	14.04
668.70	14.04
668.84	42.13
668.98	44.47
669.12	18.72
669.26	0.00
669.40	28.09
669.54	60.85
669.68	28.09
669.82	28.09
669.96	0.00
670.10	42.13
670.25	7.02
670.39	21.06
670.53	28.09
670.67	25.75
670.81	49.15
670.95	46.81
671.09	28.09
671.23	21.06
671.37	0.00
671.51	56.17
671.65	39.79
671.79	23.41
671.93	30.43
672.07	98.30
672.21	72.56
672.35	51.49
672.49	65.54
672.63	11.70
672.77	25.75
672.91	37.45
673.05	0.00
673.19	28.09
673.33	0.00
673.47	67.88
673.61	0.00
673.75	14.04
673.89	58.51
674.03	0.00
674.17	46.81
674.31	93.62
674.45	37.45
674.59	0.00
674.73	0.00
674.87	74.90
675.01	16.38
675.15	28.09
675.29	0.00
675.43	0.00
675.56	46.81
675.70	39.79
675.84	21.06
675.98	46.81
676.12	72.56
676.26	53.83
676.40	88.94
676.54	35.11
676.68	37.45
676.82	46.81
676.96	0.00
677.10	119.37
677.23	63.19
677.37	91.28
677.51	46.81
677.65	30.43
677.79	0.00
677.93	121.71
678.07	0.00
678.21	0.00
678.34	44.47
678.48	37.45
678.62	0.00
678.76	0.00
678.90	11.70
679.04	37.45
679.18	14.04
679.31	0.00
679.45	0.00
679.59	37.45
679.73	67.88
679.87	37.45
680.00	0.00
680.14	102.98
680.28	0.00
680.42	32.77
680.56	18.72
680.70	44.47
680.83	53.83
680.97	16.38
681.11	39.79
681.25	30.43
681.39	23.41
681.52	0.00
681.66	44.47
681.80	70.22
681.94	0.00
682.07	0.00
682.21	117.03
682.35	0.00
682.49	32.77
682.62	0.00
682.76	0.00
682.90	11.70
683.04	84.26
683.17	0.00
683.31	0.00
683.45	49.15
683.59	0.00
683.72	88.94
683.86	70.22
684.00	7.02
684.13	84.26
684.27	0.00
684.41	0.00
684.55	44.47
684.68	0.00
684.82	4.68
684.96	53.83
685.09	0.00
685.23	58.51
685.37	49.15
685.50	32.77
685.64	7.02
685.78	0.00
685.91	0.00
686.05	95.96
686.19	51.49
686.32	4.68
686.46	95.96
686.60	28.09
686.73	0.00
686.87	88.94
687.01	37.45
687.14	25.75
687.28	44.47
687.42	9.36
687.55	65.54
687.69	72.56
687.82	32.77
687.96	39.79
688.10	4.68
688.23	95.96
688.37	9.36
688.50	21.06
688.64	88.94
688.78	42.13
688.91	30.43
689.05	58.51
689.18	58.51
689.32	39.79
689.46	0.00
689.59	0.00
689.73	70.22
689.86	140.43
690.00	126.39
690.13	18.72
690.27	9.36
690.41	39.79
690.54	37.45
690.68	35.11
690.81	32.77
690.95	0.00
691.08	42.13
691.22	0.00
691.35	42.13
691.49	0.00
691.62	86.60
691.76	44.47
691.89	14.04
692.03	0.00
692.16	7.02
692.30	53.83
692.43	21.06
692.57	11.70
692.70	44.47
692.84	23.41
692.97	14.04
693.11	9.36
693.24	58.51
693.38	14.04
693.51	63.19
693.65	0.00
693.78	14.04
693.92	16.38
694.05	0.00
694.19	91.28
694.32	21.06
694.45	30.43
694.59	32.77
694.72	0.00
694.86	0.00
694.99	102.98
695.13	163.84
695.26	56.17
695.39	0.00
695.53	32.77
695.66	16.38
695.80	18.72
695.93	9.36
696.07	0.00
696.20	49.15
696.33	32.77
696.47	11.70
696.60	0.00
696.73	0.00
696.87	53.83
697.00	37.45
697.14	0.00
697.27	9.36
697.40	51.49
697.54	21.06
697.67	23.41
697.80	65.54
697.94	11.70
698.07	49.15
698.21	42.13
698.34	30.43
698.47	88.94
698.61	100.64
698.74	18.72
698.87	0.00
699.01	18.72
699.14	25.75
699.27	60.85
699.40	84.26
699.54	117.03
699.67	23.41
699.80	30.43
699.94	32.77
700.07	51.49
700.20	91.28
700.34	53.83
700.47	121.71
700.60	93.62
700.73	14.04
700.87	44.47
701.00	0.00
701.13	0.00
701.26	53.83
701.40	65.54
701.53	77.24
701.66	51.49
701.79	53.83
701.93	74.90
702.06	53.83
702.19	58.51
702.32	32.77
702.46	46.81
702.59	37.45
702.72	11.70
702.85	51.49
702.99	11.70
703.12	81.92
703.25	46.81
703.38	42.13
703.51	37.45
703.65	35.11
703.78	58.51
703.91	112.35
704.04	56.17
704.17	0.00
704.31	16.38
704.44	32.77
704.57	39.79
704.70	44.47
704.83	39.79
704.96	37.45
705.10	0.00
705.23	77.24
>>>>>End Processed Spectral Data<<<<<
