SpectraSuite Data File
++++++++++++++++++++++++++++++++++++
Date: Fri Oct 04 12:13:35 GMT-05:00 2013
User: price-jones
Dark Spectrum Present: No
Reference Spectrum Present: No
Number of Sampled Component Spectra: 1
Spectrometers: USB2+H05261
Integration Time (usec): 10000 (USB2+H05261)
Spectra Averaged: 1 (USB2+H05261)
Boxcar Smoothing: 0 (USB2+H05261)
Correct for Electrical Dark: No (USB2+H05261)
Strobe/Lamp Enabled: No (USB2+H05261)
Correct for Detector Non-linearity: No (USB2+H05261)
Correct for Stray Light: No (USB2+H05261)
Number of Pixels in Processed Spectrum: 2048
>>>>>Begin Processed Spectral Data<<<<<
365.73	0.00
365.92	0.00
366.12	0.00
366.32	0.00
366.52	0.00
366.72	0.00
366.91	0.00
367.11	0.00
367.31	0.00
367.51	0.00
367.70	0.00
367.90	0.00
368.10	0.00
368.30	0.00
368.49	0.00
368.69	0.00
368.89	0.00
369.09	0.00
369.28	0.00
369.48	0.00
369.68	0.00
369.87	0.00
370.07	0.00
370.27	0.00
370.47	0.00
370.66	0.00
370.86	0.00
371.06	0.00
371.25	0.00
371.45	21.06
371.65	0.00
371.84	0.00
372.04	0.00
372.24	39.79
372.44	0.00
372.63	14.04
372.83	0.00
373.03	58.51
373.22	53.83
373.42	11.70
373.62	0.00
373.81	30.43
374.01	51.49
374.21	65.54
374.40	0.00
374.60	67.88
374.79	67.88
374.99	110.01
375.19	16.38
375.38	37.45
375.58	0.00
375.78	18.72
375.97	0.00
376.17	56.17
376.37	0.00
376.56	0.00
376.76	133.41
376.95	4.68
377.15	39.79
377.35	53.83
377.54	110.01
377.74	60.85
377.93	58.51
378.13	0.00
378.33	0.00
378.52	0.00
378.72	0.00
378.91	53.83
379.11	58.51
379.31	0.00
379.50	14.04
379.70	0.00
379.89	14.04
380.09	84.26
380.28	7.02
380.48	0.00
380.68	70.22
380.87	28.09
381.07	44.47
381.26	77.24
381.46	0.00
381.65	0.00
381.85	0.00
382.04	9.36
382.24	0.00
382.43	100.64
382.63	32.77
382.83	46.81
383.02	32.77
383.22	65.54
383.41	0.00
383.61	53.83
383.80	23.41
384.00	32.77
384.19	51.49
384.39	30.43
384.58	0.00
384.78	42.13
384.97	16.38
385.17	25.75
385.36	44.47
385.56	2.34
385.75	32.77
385.95	42.13
386.14	35.11
386.34	63.19
386.53	28.09
386.72	25.75
386.92	11.70
387.11	0.00
387.31	65.54
387.50	32.77
387.70	42.13
387.89	0.00
388.09	25.75
388.28	98.30
388.48	32.77
388.67	0.00
388.86	4.68
389.06	28.09
389.25	0.00
389.45	107.66
389.64	79.58
389.84	0.00
390.03	65.54
390.22	42.13
390.42	0.00
390.61	51.49
390.81	11.70
391.00	21.06
391.19	4.68
391.39	18.72
391.58	0.00
391.78	95.96
391.97	0.00
392.16	4.68
392.36	9.36
392.55	7.02
392.75	0.00
392.94	35.11
393.13	0.00
393.33	0.00
393.52	16.38
393.71	53.83
393.91	0.00
394.10	63.19
394.29	37.45
394.49	18.72
394.68	0.00
394.88	67.88
395.07	44.47
395.26	0.00
395.46	70.22
395.65	77.24
395.84	0.00
396.04	0.00
396.23	18.72
396.42	0.00
396.62	145.11
396.81	11.70
397.00	60.85
397.19	4.68
397.39	49.15
397.58	0.00
397.77	0.00
397.97	0.00
398.16	74.90
398.35	60.85
398.55	49.15
398.74	0.00
398.93	21.06
399.12	37.45
399.32	25.75
399.51	32.77
399.70	4.68
399.90	88.94
400.09	21.06
400.28	14.04
400.47	7.02
400.67	42.13
400.86	0.00
401.05	0.00
401.24	102.98
401.44	70.22
401.63	72.56
401.82	16.38
402.01	117.03
402.21	0.00
402.40	42.13
402.59	14.04
402.78	49.15
402.97	49.15
403.17	37.45
403.36	4.68
403.55	37.45
403.74	39.79
403.93	21.06
404.13	32.77
404.32	25.75
404.51	86.60
404.70	0.00
404.89	0.00
405.09	51.49
405.28	46.81
405.47	72.56
405.66	53.83
405.85	42.13
406.05	79.58
406.24	49.15
406.43	39.79
406.62	126.39
406.81	51.49
407.00	98.30
407.20	25.75
407.39	60.85
407.58	0.00
407.77	67.88
407.96	0.00
408.15	28.09
408.34	44.47
408.54	16.38
408.73	0.00
408.92	4.68
409.11	67.88
409.30	0.00
409.49	23.41
409.68	77.24
409.87	23.41
410.07	39.79
410.26	18.72
410.45	0.00
410.64	70.22
410.83	46.81
411.02	28.09
411.21	0.00
411.40	0.00
411.59	65.54
411.78	51.49
411.98	28.09
412.17	18.72
412.36	9.36
412.55	37.45
412.74	7.02
412.93	93.62
413.12	63.19
413.31	56.17
413.50	44.47
413.69	51.49
413.88	67.88
414.07	0.00
414.26	9.36
414.45	0.00
414.64	7.02
414.83	0.00
415.02	23.41
415.22	51.49
415.41	42.13
415.60	11.70
415.79	18.72
415.98	0.00
416.17	70.22
416.36	30.43
416.55	7.02
416.74	0.00
416.93	23.41
417.12	44.47
417.31	32.77
417.50	0.00
417.69	72.56
417.88	67.88
418.07	11.70
418.26	18.72
418.45	0.00
418.64	53.83
418.83	121.71
419.02	23.41
419.21	9.36
419.39	0.00
419.58	60.85
419.77	46.81
419.96	67.88
420.15	58.51
420.34	49.15
420.53	25.75
420.72	39.79
420.91	91.28
421.10	56.17
421.29	77.24
421.48	28.09
421.67	23.41
421.86	70.22
422.05	4.68
422.24	51.49
422.43	84.26
422.61	60.85
422.80	39.79
422.99	0.00
423.18	14.04
423.37	0.00
423.56	0.00
423.75	0.00
423.94	42.13
424.13	14.04
424.32	11.70
424.50	42.13
424.69	11.70
424.88	79.58
425.07	25.75
425.26	9.36
425.45	25.75
425.64	42.13
425.83	18.72
426.01	0.00
426.20	9.36
426.39	98.30
426.58	60.85
426.77	28.09
426.96	70.22
427.15	0.00
427.33	98.30
427.52	42.13
427.71	16.38
427.90	23.41
428.09	0.00
428.28	23.41
428.46	60.85
428.65	58.51
428.84	37.45
429.03	84.26
429.22	21.06
429.40	39.79
429.59	0.00
429.78	0.00
429.97	14.04
430.16	77.24
430.34	39.79
430.53	11.70
430.72	0.00
430.91	0.00
431.10	37.45
431.28	44.47
431.47	0.00
431.66	21.06
431.85	42.13
432.03	11.70
432.22	14.04
432.41	98.30
432.60	77.24
432.79	37.45
432.97	53.83
433.16	21.06
433.35	46.81
433.54	95.96
433.72	14.04
433.91	11.70
434.10	21.06
434.28	9.36
434.47	56.17
434.66	9.36
434.85	0.00
435.03	67.88
435.22	9.36
435.41	0.00
435.59	0.00
435.78	9.36
435.97	2.34
436.16	23.41
436.34	79.58
436.53	51.49
436.72	79.58
436.90	88.94
437.09	21.06
437.28	44.47
437.46	35.11
437.65	63.19
437.84	21.06
438.02	16.38
438.21	4.68
438.40	0.00
438.58	77.24
438.77	23.41
438.96	46.81
439.14	72.56
439.33	28.09
439.52	49.15
439.70	93.62
439.89	23.41
440.08	39.79
440.26	114.69
440.45	30.43
440.63	84.26
440.82	126.39
441.01	23.41
441.19	9.36
441.38	0.00
441.57	44.47
441.75	32.77
441.94	14.04
442.12	142.77
442.31	35.11
442.50	46.81
442.68	86.60
442.87	77.24
443.05	63.19
443.24	0.00
443.43	67.88
443.61	79.58
443.80	35.11
443.98	46.81
444.17	39.79
444.35	70.22
444.54	42.13
444.73	60.85
444.91	0.00
445.10	77.24
445.28	51.49
445.47	0.00
445.65	39.79
445.84	133.41
446.02	0.00
446.21	70.22
446.39	2.34
446.58	28.09
446.77	21.06
446.95	30.43
447.14	0.00
447.32	14.04
447.51	0.00
447.69	63.19
447.88	128.73
448.06	86.60
448.25	42.13
448.43	25.75
448.62	70.22
448.80	81.92
448.99	14.04
449.17	88.94
449.36	30.43
449.54	65.54
449.73	145.11
449.91	84.26
450.10	0.00
450.28	65.54
450.46	72.56
450.65	16.38
450.83	32.77
451.02	46.81
451.20	95.96
451.39	63.19
451.57	11.70
451.76	18.72
451.94	39.79
452.13	63.19
452.31	53.83
452.49	42.13
452.68	25.75
452.86	23.41
453.05	18.72
453.23	53.83
453.42	35.11
453.60	86.60
453.78	23.41
453.97	91.28
454.15	49.15
454.34	114.69
454.52	70.22
454.70	147.45
454.89	95.96
455.07	49.15
455.26	28.09
455.44	60.85
455.62	65.54
455.81	37.45
455.99	51.49
456.17	37.45
456.36	63.19
456.54	91.28
456.73	79.58
456.91	0.00
457.09	93.62
457.28	72.56
457.46	86.60
457.64	121.71
457.83	86.60
458.01	51.49
458.19	56.17
458.38	56.17
458.56	56.17
458.74	49.15
458.93	135.75
459.11	16.38
459.29	44.47
459.48	74.90
459.66	32.77
459.84	72.56
460.03	58.51
460.21	58.51
460.39	60.85
460.57	67.88
460.76	0.00
460.94	7.02
461.12	84.26
461.31	44.47
461.49	77.24
461.67	81.92
461.85	28.09
462.04	100.64
462.22	117.03
462.40	65.54
462.59	35.11
462.77	67.88
462.95	53.83
463.13	56.17
463.32	7.02
463.50	28.09
463.68	32.77
463.86	102.98
464.05	18.72
464.23	79.58
464.41	0.00
464.59	35.11
464.78	74.90
464.96	95.96
465.14	65.54
465.32	105.32
465.50	91.28
465.69	53.83
465.87	98.30
466.05	112.35
466.23	84.26
466.41	28.09
466.60	18.72
466.78	42.13
466.96	39.79
467.14	74.90
467.32	42.13
467.51	28.09
467.69	77.24
467.87	28.09
468.05	88.94
468.23	81.92
468.41	65.54
468.60	23.41
468.78	2.34
468.96	28.09
469.14	0.00
469.32	18.72
469.50	4.68
469.69	95.96
469.87	102.98
470.05	49.15
470.23	39.79
470.41	30.43
470.59	0.00
470.77	23.41
470.95	60.85
471.14	65.54
471.32	25.75
471.50	46.81
471.68	65.54
471.86	51.49
472.04	93.62
472.22	44.47
472.40	0.00
472.58	49.15
472.77	70.22
472.95	53.83
473.13	58.51
473.31	74.90
473.49	88.94
473.67	0.00
473.85	44.47
474.03	81.92
474.21	0.00
474.39	105.32
474.57	63.19
474.75	9.36
474.93	53.83
475.12	60.85
475.30	72.56
475.48	16.38
475.66	95.96
475.84	65.54
476.02	42.13
476.20	23.41
476.38	72.56
476.56	0.00
476.74	88.94
476.92	49.15
477.10	70.22
477.28	30.43
477.46	93.62
477.64	25.75
477.82	23.41
478.00	56.17
478.18	56.17
478.36	86.60
478.54	39.79
478.72	124.05
478.90	58.51
479.08	0.00
479.26	102.98
479.44	98.30
479.62	51.49
479.80	11.70
479.98	32.77
480.16	58.51
480.34	114.69
480.52	14.04
480.70	4.68
480.88	7.02
481.06	67.88
481.24	37.45
481.41	74.90
481.59	51.49
481.77	49.15
481.95	0.00
482.13	124.05
482.31	77.24
482.49	60.85
482.67	23.41
482.85	110.01
483.03	93.62
483.21	110.01
483.39	21.06
483.57	81.92
483.74	53.83
483.92	14.04
484.10	37.45
484.28	32.77
484.46	86.60
484.64	60.85
484.82	88.94
485.00	93.62
485.18	67.88
485.35	56.17
485.53	119.37
485.71	25.75
485.89	0.00
486.07	105.32
486.25	74.90
486.43	60.85
486.61	0.00
486.78	112.35
486.96	79.58
487.14	93.62
487.32	98.30
487.50	60.85
487.68	63.19
487.85	79.58
488.03	88.94
488.21	7.02
488.39	100.64
488.57	79.58
488.75	11.70
488.92	51.49
489.10	72.56
489.28	110.01
489.46	93.62
489.64	84.26
489.81	35.11
489.99	86.60
490.17	126.39
490.35	21.06
490.53	102.98
490.70	72.56
490.88	112.35
491.06	49.15
491.24	42.13
491.41	74.90
491.59	39.79
491.77	32.77
491.95	74.90
492.13	107.66
492.30	39.79
492.48	110.01
492.66	102.98
492.84	37.45
493.01	84.26
493.19	65.54
493.37	121.71
493.54	7.02
493.72	74.90
493.90	124.05
494.08	63.19
494.25	166.18
494.43	67.88
494.61	37.45
494.79	32.77
494.96	72.56
495.14	98.30
495.32	114.69
495.49	98.30
495.67	93.62
495.85	100.64
496.02	0.00
496.20	16.38
496.38	91.28
496.55	51.49
496.73	86.60
496.91	39.79
497.09	100.64
497.26	93.62
497.44	114.69
497.62	56.17
497.79	32.77
497.97	60.85
498.14	138.09
498.32	91.28
498.50	110.01
498.67	42.13
498.85	30.43
499.03	70.22
499.20	119.37
499.38	86.60
499.56	51.49
499.73	37.45
499.91	28.09
500.08	107.66
500.26	100.64
500.44	102.98
500.61	56.17
500.79	112.35
500.97	0.00
501.14	46.81
501.32	32.77
501.49	107.66
501.67	74.90
501.84	124.05
502.02	63.19
502.20	142.77
502.37	77.24
502.55	74.90
502.72	140.43
502.90	30.43
503.07	25.75
503.25	56.17
503.43	114.69
503.60	84.26
503.78	30.43
503.95	74.90
504.13	28.09
504.30	95.96
504.48	100.64
504.65	133.41
504.83	72.56
505.01	93.62
505.18	51.49
505.36	18.72
505.53	149.79
505.71	4.68
505.88	79.58
506.06	119.37
506.23	35.11
506.41	117.03
506.58	37.45
506.76	77.24
506.93	53.83
507.11	58.51
507.28	60.85
507.46	100.64
507.63	53.83
507.81	28.09
507.98	81.92
508.16	18.72
508.33	53.83
508.50	124.05
508.68	37.45
508.85	79.58
509.03	67.88
509.20	133.41
509.38	51.49
509.55	49.15
509.73	56.17
509.90	88.94
510.08	11.70
510.25	140.43
510.42	53.83
510.60	30.43
510.77	35.11
510.95	79.58
511.12	79.58
511.30	42.13
511.47	124.05
511.64	135.75
511.82	112.35
511.99	138.09
512.17	58.51
512.34	65.54
512.51	100.64
512.69	105.32
512.86	60.85
513.04	65.54
513.21	32.77
513.38	25.75
513.56	7.02
513.73	42.13
513.90	98.30
514.08	77.24
514.25	110.01
514.43	114.69
514.60	0.00
514.77	88.94
514.95	63.19
515.12	60.85
515.29	119.37
515.47	84.26
515.64	63.19
515.81	56.17
515.99	105.32
516.16	72.56
516.33	39.79
516.51	91.28
516.68	124.05
516.85	58.51
517.03	42.13
517.20	4.68
517.37	23.41
517.54	44.47
517.72	0.00
517.89	70.22
518.06	44.47
518.24	81.92
518.41	72.56
518.58	110.01
518.75	95.96
518.93	102.98
519.10	16.38
519.27	81.92
519.45	119.37
519.62	107.66
519.79	124.05
519.96	147.45
520.14	58.51
520.31	95.96
520.48	11.70
520.65	53.83
520.83	21.06
521.00	77.24
521.17	18.72
521.34	105.32
521.52	126.39
521.69	81.92
521.86	161.50
522.03	30.43
522.20	79.58
522.38	124.05
522.55	67.88
522.72	110.01
522.89	119.37
523.07	100.64
523.24	79.58
523.41	0.00
523.58	114.69
523.75	81.92
523.92	72.56
524.10	39.79
524.27	39.79
524.44	60.85
524.61	7.02
524.78	60.85
524.96	112.35
525.13	138.09
525.30	39.79
525.47	140.43
525.64	30.43
525.81	112.35
525.98	70.22
526.16	98.30
526.33	140.43
526.50	95.96
526.67	124.05
526.84	81.92
527.01	100.64
527.18	42.13
527.36	81.92
527.53	107.66
527.70	117.03
527.87	88.94
528.04	79.58
528.21	35.11
528.38	88.94
528.55	110.01
528.72	44.47
528.89	140.43
529.07	93.62
529.24	98.30
529.41	56.17
529.58	74.90
529.75	44.47
529.92	124.05
530.09	112.35
530.26	91.28
530.43	105.32
530.60	98.30
530.77	77.24
530.94	58.51
531.11	88.94
531.28	95.96
531.46	46.81
531.63	135.75
531.80	126.39
531.97	9.36
532.14	112.35
532.31	107.66
532.48	74.90
532.65	65.54
532.82	70.22
532.99	18.72
533.16	72.56
533.33	95.96
533.50	100.64
533.67	25.75
533.84	28.09
534.01	124.05
534.18	86.60
534.35	84.26
534.52	81.92
534.69	81.92
534.86	114.69
535.03	91.28
535.20	74.90
535.37	98.30
535.54	124.05
535.71	84.26
535.88	88.94
536.05	0.00
536.22	30.43
536.38	35.11
536.55	67.88
536.72	42.13
536.89	65.54
537.06	95.96
537.23	60.85
537.40	140.43
537.57	74.90
537.74	105.32
537.91	63.19
538.08	81.92
538.25	58.51
538.42	79.58
538.59	56.17
538.75	74.90
538.92	105.32
539.09	124.05
539.26	53.83
539.43	49.15
539.60	35.11
539.77	72.56
539.94	84.26
540.11	39.79
540.28	42.13
540.44	74.90
540.61	46.81
540.78	9.36
540.95	86.60
541.12	79.58
541.29	67.88
541.46	159.16
541.62	135.75
541.79	140.43
541.96	91.28
542.13	65.54
542.30	121.71
542.47	77.24
542.63	63.19
542.80	42.13
542.97	98.30
543.14	16.38
543.31	81.92
543.48	117.03
543.64	53.83
543.81	42.13
543.98	37.45
544.15	77.24
544.32	88.94
544.48	79.58
544.65	60.85
544.82	84.26
544.99	86.60
545.16	35.11
545.32	88.94
545.49	98.30
545.66	70.22
545.83	154.48
546.00	138.09
546.16	138.09
546.33	88.94
546.50	91.28
546.67	77.24
546.83	102.98
547.00	131.07
547.17	67.88
547.34	81.92
547.50	53.83
547.67	11.70
547.84	140.43
548.00	14.04
548.17	79.58
548.34	93.62
548.51	81.92
548.67	63.19
548.84	110.01
549.01	86.60
549.18	67.88
549.34	114.69
549.51	112.35
549.68	140.43
549.84	84.26
550.01	0.00
550.18	88.94
550.34	156.82
550.51	37.45
550.68	18.72
550.84	44.47
551.01	124.05
551.18	53.83
551.34	84.26
551.51	56.17
551.68	86.60
551.84	117.03
552.01	0.00
552.18	65.54
552.34	7.02
552.51	170.86
552.68	100.64
552.84	63.19
553.01	182.56
553.18	53.83
553.34	65.54
553.51	65.54
553.67	88.94
553.84	95.96
554.01	49.15
554.17	156.82
554.34	70.22
554.51	60.85
554.67	98.30
554.84	58.51
555.00	56.17
555.17	77.24
555.33	147.45
555.50	147.45
555.67	100.64
555.83	0.00
556.00	0.00
556.16	107.66
556.33	159.16
556.50	72.56
556.66	65.54
556.83	53.83
556.99	72.56
557.16	110.01
557.32	42.13
557.49	60.85
557.65	72.56
557.82	88.94
557.98	100.64
558.15	70.22
558.32	28.09
558.48	11.70
558.65	110.01
558.81	133.41
558.98	16.38
559.14	86.60
559.31	121.71
559.47	25.75
559.64	86.60
559.80	105.32
559.97	58.51
560.13	72.56
560.30	100.64
560.46	110.01
560.63	95.96
560.79	114.69
560.96	119.37
561.12	44.47
561.29	145.11
561.45	65.54
561.61	161.50
561.78	0.00
561.94	119.37
562.11	142.77
562.27	21.06
562.44	25.75
562.60	98.30
562.77	65.54
562.93	49.15
563.10	112.35
563.26	49.15
563.42	0.00
563.59	2.34
563.75	74.90
563.92	51.49
564.08	39.79
564.24	95.96
564.41	79.58
564.57	86.60
564.74	124.05
564.90	74.90
565.07	0.00
565.23	46.81
565.39	74.90
565.56	191.92
565.72	9.36
565.88	79.58
566.05	32.77
566.21	81.92
566.38	77.24
566.54	84.26
566.70	84.26
566.87	131.07
567.03	77.24
567.19	100.64
567.36	16.38
567.52	79.58
567.68	72.56
567.85	37.45
568.01	140.43
568.17	65.54
568.34	30.43
568.50	46.81
568.66	86.60
568.83	46.81
568.99	67.88
569.15	110.01
569.32	7.02
569.48	142.77
569.64	72.56
569.81	14.04
569.97	51.49
570.13	32.77
570.30	16.38
570.46	51.49
570.62	70.22
570.78	53.83
570.95	25.75
571.11	72.56
571.27	23.41
571.43	100.64
571.60	119.37
571.76	39.79
571.92	60.85
572.09	93.62
572.25	14.04
572.41	30.43
572.57	105.32
572.74	114.69
572.90	30.43
573.06	67.88
573.22	63.19
573.38	65.54
573.55	166.18
573.71	63.19
573.87	77.24
574.03	67.88
574.20	100.64
574.36	105.32
574.52	14.04
574.68	58.51
574.84	28.09
575.01	70.22
575.17	84.26
575.33	114.69
575.49	119.37
575.65	63.19
575.82	72.56
575.98	58.51
576.14	107.66
576.30	77.24
576.46	84.26
576.62	77.24
576.79	105.32
576.95	74.90
577.11	98.30
577.27	114.69
577.43	67.88
577.59	72.56
577.75	98.30
577.92	44.47
578.08	117.03
578.24	42.13
578.40	98.30
578.56	135.75
578.72	95.96
578.88	124.05
579.04	67.88
579.21	25.75
579.37	42.13
579.53	44.47
579.69	56.17
579.85	56.17
580.01	95.96
580.17	107.66
580.33	72.56
580.49	74.90
580.65	30.43
580.82	49.15
580.98	124.05
581.14	37.45
581.30	72.56
581.46	161.50
581.62	74.90
581.78	18.72
581.94	25.75
582.10	63.19
582.26	77.24
582.42	173.20
582.58	114.69
582.74	58.51
582.90	0.00
583.06	25.75
583.22	39.79
583.38	91.28
583.54	100.64
583.70	81.92
583.86	53.83
584.02	154.48
584.18	79.58
584.34	77.24
584.50	140.43
584.66	95.96
584.82	56.17
584.98	91.28
585.14	105.32
585.30	0.00
585.46	112.35
585.62	23.41
585.78	86.60
585.94	30.43
586.10	16.38
586.26	124.05
586.42	65.54
586.58	60.85
586.74	63.19
586.90	14.04
587.06	23.41
587.22	46.81
587.38	117.03
587.54	91.28
587.70	142.77
587.86	79.58
588.02	119.37
588.18	53.83
588.34	14.04
588.49	72.56
588.65	53.83
588.81	0.00
588.97	56.17
589.13	91.28
589.29	28.09
589.45	0.00
589.61	58.51
589.77	0.00
589.93	51.49
590.08	74.90
590.24	65.54
590.40	42.13
590.56	74.90
590.72	100.64
590.88	49.15
591.04	25.75
591.20	30.43
591.35	91.28
591.51	84.26
591.67	21.06
591.83	74.90
591.99	53.83
592.15	39.79
592.31	112.35
592.46	4.68
592.62	23.41
592.78	84.26
592.94	133.41
593.10	93.62
593.26	91.28
593.41	100.64
593.57	60.85
593.73	28.09
593.89	72.56
594.05	74.90
594.20	18.72
594.36	77.24
594.52	88.94
594.68	91.28
594.84	65.54
594.99	0.00
595.15	142.77
595.31	84.26
595.47	65.54
595.62	65.54
595.78	102.98
595.94	67.88
596.10	145.11
596.25	18.72
596.41	56.17
596.57	98.30
596.73	140.43
596.88	21.06
597.04	65.54
597.20	88.94
597.36	79.58
597.51	53.83
597.67	28.09
597.83	65.54
597.99	154.48
598.14	58.51
598.30	74.90
598.46	42.13
598.61	58.51
598.77	135.75
598.93	23.41
599.09	0.00
599.24	81.92
599.40	140.43
599.56	131.07
599.71	100.64
599.87	67.88
600.03	93.62
600.18	74.90
600.34	0.00
600.50	102.98
600.65	46.81
600.81	168.52
600.97	18.72
601.12	44.47
601.28	32.77
601.44	88.94
601.59	60.85
601.75	84.26
601.91	56.17
602.06	91.28
602.22	124.05
602.37	28.09
602.53	49.15
602.69	74.90
602.84	77.24
603.00	42.13
603.16	39.79
603.31	51.49
603.47	93.62
603.62	49.15
603.78	88.94
603.94	9.36
604.09	18.72
604.25	121.71
604.40	67.88
604.56	86.60
604.71	46.81
604.87	112.35
605.03	30.43
605.18	93.62
605.34	35.11
605.49	46.81
605.65	93.62
605.80	42.13
605.96	39.79
606.12	88.94
606.27	173.20
606.43	37.45
606.58	91.28
606.74	91.28
606.89	58.51
607.05	145.11
607.20	46.81
607.36	126.39
607.51	35.11
607.67	140.43
607.82	72.56
607.98	72.56
608.13	112.35
608.29	0.00
608.44	58.51
608.60	84.26
608.75	84.26
608.91	53.83
609.06	121.71
609.22	39.79
609.37	93.62
609.53	49.15
609.68	49.15
609.84	49.15
609.99	28.09
610.15	114.69
610.30	84.26
610.46	56.17
610.61	51.49
610.76	49.15
610.92	42.13
611.07	77.24
611.23	49.15
611.38	88.94
611.54	37.45
611.69	67.88
611.84	25.75
612.00	121.71
612.15	58.51
612.31	98.30
612.46	91.28
612.62	126.39
612.77	23.41
612.92	60.85
613.08	95.96
613.23	138.09
613.39	32.77
613.54	86.60
613.69	46.81
613.85	107.66
614.00	163.84
614.15	100.64
614.31	86.60
614.46	79.58
614.62	23.41
614.77	70.22
614.92	67.88
615.08	100.64
615.23	0.00
615.38	0.00
615.54	23.41
615.69	37.45
615.84	72.56
616.00	28.09
616.15	0.00
616.30	65.54
616.46	81.92
616.61	102.98
616.76	128.73
616.92	93.62
617.07	98.30
617.22	121.71
617.37	102.98
617.53	23.41
617.68	44.47
617.83	100.64
617.99	102.98
618.14	124.05
618.29	56.17
618.45	86.60
618.60	51.49
618.75	28.09
618.90	81.92
619.06	84.26
619.21	124.05
619.36	56.17
619.51	84.26
619.67	110.01
619.82	67.88
619.97	32.77
620.12	25.75
620.28	2.34
620.43	131.07
620.58	74.90
620.73	119.37
620.89	102.98
621.04	93.62
621.19	72.56
621.34	63.19
621.49	28.09
621.65	35.11
621.80	119.37
621.95	37.45
622.10	98.30
622.25	35.11
622.41	2.34
622.56	98.30
622.71	133.41
622.86	93.62
623.01	7.02
623.16	42.13
623.32	100.64
623.47	56.17
623.62	126.39
623.77	23.41
623.92	72.56
624.07	98.30
624.23	30.43
624.38	35.11
624.53	35.11
624.68	133.41
624.83	2.34
624.98	81.92
625.13	84.26
625.29	23.41
625.44	98.30
625.59	102.98
625.74	53.83
625.89	56.17
626.04	81.92
626.19	60.85
626.34	91.28
626.49	42.13
626.65	119.37
626.80	30.43
626.95	0.00
627.10	23.41
627.25	30.43
627.40	156.82
627.55	23.41
627.70	0.00
627.85	7.02
628.00	166.18
628.15	9.36
628.30	46.81
628.45	74.90
628.60	28.09
628.76	18.72
628.91	0.00
629.06	46.81
629.21	102.98
629.36	0.00
629.51	81.92
629.66	65.54
629.81	100.64
629.96	39.79
630.11	93.62
630.26	84.26
630.41	67.88
630.56	88.94
630.71	95.96
630.86	49.15
631.01	4.68
631.16	72.56
631.31	51.49
631.46	0.00
631.61	30.43
631.76	105.32
631.91	110.01
632.06	86.60
632.21	0.00
632.36	0.00
632.51	0.00
632.66	88.94
632.81	72.56
632.96	88.94
633.10	79.58
633.25	138.09
633.40	77.24
633.55	70.22
633.70	23.41
633.85	77.24
634.00	77.24
634.15	60.85
634.30	49.15
634.45	42.13
634.60	35.11
634.75	100.64
634.90	21.06
635.05	0.00
635.19	60.85
635.34	46.81
635.49	51.49
635.64	70.22
635.79	42.13
635.94	86.60
636.09	32.77
636.24	60.85
636.39	28.09
636.53	39.79
636.68	58.51
636.83	93.62
636.98	23.41
637.13	70.22
637.28	131.07
637.43	39.79
637.57	51.49
637.72	93.62
637.87	16.38
638.02	18.72
638.17	60.85
638.32	65.54
638.46	72.56
638.61	7.02
638.76	121.71
638.91	72.56
639.06	79.58
639.20	91.28
639.35	149.79
639.50	102.98
639.65	21.06
639.80	98.30
639.94	30.43
640.09	46.81
640.24	88.94
640.39	49.15
640.54	88.94
640.68	74.90
640.83	44.47
640.98	53.83
641.13	18.72
641.27	2.34
641.42	0.00
641.57	0.00
641.72	65.54
641.86	74.90
642.01	100.64
642.16	74.90
642.31	147.45
642.45	91.28
642.60	56.17
642.75	91.28
642.90	28.09
643.04	0.00
643.19	63.19
643.34	63.19
643.48	56.17
643.63	49.15
643.78	65.54
643.93	88.94
644.07	32.77
644.22	60.85
644.37	72.56
644.51	72.56
644.66	72.56
644.81	25.75
644.95	30.43
645.10	32.77
645.25	121.71
645.39	49.15
645.54	74.90
645.69	105.32
645.83	0.00
645.98	63.19
646.13	65.54
646.27	98.30
646.42	51.49
646.57	58.51
646.71	81.92
646.86	70.22
647.00	0.00
647.15	51.49
647.30	65.54
647.44	98.30
647.59	28.09
647.74	79.58
647.88	42.13
648.03	0.00
648.17	58.51
648.32	32.77
648.47	16.38
648.61	60.85
648.76	30.43
648.90	0.00
649.05	44.47
649.20	4.68
649.34	49.15
649.49	72.56
649.63	95.96
649.78	77.24
649.92	35.11
650.07	67.88
650.21	37.45
650.36	110.01
650.51	14.04
650.65	49.15
650.80	44.47
650.94	79.58
651.09	53.83
651.23	23.41
651.38	56.17
651.52	35.11
651.67	32.77
651.81	56.17
651.96	102.98
652.10	14.04
652.25	0.00
652.39	32.77
652.54	32.77
652.68	110.01
652.83	0.00
652.97	81.92
653.12	37.45
653.26	30.43
653.41	135.75
653.55	37.45
653.70	37.45
653.84	39.79
653.99	0.00
654.13	28.09
654.27	14.04
654.42	0.00
654.56	112.35
654.71	23.41
654.85	28.09
655.00	25.75
655.14	7.02
655.29	77.24
655.43	28.09
655.57	30.43
655.72	42.13
655.86	39.79
656.01	56.17
656.15	11.70
656.30	72.56
656.44	74.90
656.58	51.49
656.73	56.17
656.87	23.41
657.01	67.88
657.16	110.01
657.30	28.09
657.45	93.62
657.59	0.00
657.73	95.96
657.88	0.00
658.02	86.60
658.16	37.45
658.31	65.54
658.45	28.09
658.60	128.73
658.74	93.62
658.88	70.22
659.03	42.13
659.17	84.26
659.31	0.00
659.46	49.15
659.60	32.77
659.74	44.47
659.89	49.15
660.03	124.05
660.17	100.64
660.32	30.43
660.46	37.45
660.60	44.47
660.74	42.13
660.89	0.00
661.03	67.88
661.17	16.38
661.32	74.90
661.46	35.11
661.60	23.41
661.74	63.19
661.89	60.85
662.03	30.43
662.17	7.02
662.31	16.38
662.46	58.51
662.60	14.04
662.74	67.88
662.88	81.92
663.03	65.54
663.17	4.68
663.31	58.51
663.45	16.38
663.60	21.06
663.74	37.45
663.88	23.41
664.02	0.00
664.17	65.54
664.31	53.83
664.45	42.13
664.59	67.88
664.73	58.51
664.88	39.79
665.02	28.09
665.16	21.06
665.30	16.38
665.44	53.83
665.59	91.28
665.73	42.13
665.87	84.26
666.01	70.22
666.15	100.64
666.29	86.60
666.44	14.04
666.58	32.77
666.72	7.02
666.86	88.94
667.00	35.11
667.14	100.64
667.28	63.19
667.43	53.83
667.57	84.26
667.71	32.77
667.85	79.58
667.99	77.24
668.13	126.39
668.27	110.01
668.41	25.75
668.56	23.41
668.70	53.83
668.84	84.26
668.98	0.00
669.12	63.19
669.26	138.09
669.40	70.22
669.54	25.75
669.68	35.11
669.82	131.07
669.96	21.06
670.10	53.83
670.25	105.32
670.39	0.00
670.53	42.13
670.67	49.15
670.81	39.79
670.95	95.96
671.09	74.90
671.23	0.00
671.37	72.56
671.51	9.36
671.65	44.47
671.79	58.51
671.93	77.24
672.07	9.36
672.21	35.11
672.35	37.45
672.49	18.72
672.63	46.81
672.77	35.11
672.91	105.32
673.05	42.13
673.19	74.90
673.33	37.45
673.47	60.85
673.61	112.35
673.75	0.00
673.89	28.09
674.03	35.11
674.17	51.49
674.31	11.70
674.45	35.11
674.59	25.75
674.73	88.94
674.87	28.09
675.01	44.47
675.15	37.45
675.29	49.15
675.43	4.68
675.56	79.58
675.70	21.06
675.84	14.04
675.98	60.85
676.12	77.24
676.26	4.68
676.40	51.49
676.54	51.49
676.68	28.09
676.82	72.56
676.96	35.11
677.10	56.17
677.23	0.00
677.37	105.32
677.51	0.00
677.65	2.34
677.79	46.81
677.93	37.45
678.07	0.00
678.21	51.49
678.34	63.19
678.48	70.22
678.62	0.00
678.76	0.00
678.90	0.00
679.04	11.70
679.18	63.19
679.31	84.26
679.45	37.45
679.59	49.15
679.73	0.00
679.87	42.13
680.00	0.00
680.14	32.77
680.28	18.72
680.42	28.09
680.56	2.34
680.70	39.79
680.83	42.13
680.97	44.47
681.11	21.06
681.25	67.88
681.39	67.88
681.52	93.62
681.66	79.58
681.80	30.43
681.94	91.28
682.07	63.19
682.21	14.04
682.35	51.49
682.49	0.00
682.62	21.06
682.76	91.28
682.90	44.47
683.04	72.56
683.17	0.00
683.31	16.38
683.45	0.00
683.59	28.09
683.72	126.39
683.86	77.24
684.00	4.68
684.13	63.19
684.27	58.51
684.41	21.06
684.55	18.72
684.68	72.56
684.82	51.49
684.96	51.49
685.09	39.79
685.23	88.94
685.37	0.00
685.50	77.24
685.64	0.00
685.78	7.02
685.91	23.41
686.05	88.94
686.19	23.41
686.32	46.81
686.46	39.79
686.60	25.75
686.73	0.00
686.87	84.26
687.01	58.51
687.14	88.94
687.28	32.77
687.42	21.06
687.55	28.09
687.69	53.83
687.82	81.92
687.96	21.06
688.10	107.66
688.23	35.11
688.37	121.71
688.50	0.00
688.64	25.75
688.78	0.00
688.91	2.34
689.05	42.13
689.18	49.15
689.32	46.81
689.46	46.81
689.59	18.72
689.73	16.38
689.86	91.28
690.00	0.00
690.13	67.88
690.27	84.26
690.41	21.06
690.54	49.15
690.68	100.64
690.81	46.81
690.95	21.06
691.08	21.06
691.22	88.94
691.35	0.00
691.49	65.54
691.62	70.22
691.76	37.45
691.89	9.36
692.03	0.00
692.16	81.92
692.30	23.41
692.43	18.72
692.57	70.22
692.70	0.00
692.84	72.56
692.97	21.06
693.11	44.47
693.24	0.00
693.38	16.38
693.51	39.79
693.65	0.00
693.78	70.22
693.92	65.54
694.05	63.19
694.19	0.00
694.32	100.64
694.45	110.01
694.59	37.45
694.72	35.11
694.86	35.11
694.99	105.32
695.13	63.19
695.26	60.85
695.39	49.15
695.53	0.00
695.66	53.83
695.80	18.72
695.93	0.00
696.07	2.34
696.20	14.04
696.33	30.43
696.47	0.00
696.60	4.68
696.73	11.70
696.87	51.49
697.00	37.45
697.14	93.62
697.27	25.75
697.40	56.17
697.54	74.90
697.67	84.26
697.80	44.47
697.94	72.56
698.07	39.79
698.21	65.54
698.34	30.43
698.47	0.00
698.61	0.00
698.74	28.09
698.87	4.68
699.01	51.49
699.14	11.70
699.27	4.68
699.40	117.03
699.54	14.04
699.67	70.22
699.80	0.00
699.94	0.00
700.07	37.45
700.20	0.00
700.34	63.19
700.47	100.64
700.60	53.83
700.73	37.45
700.87	51.49
701.00	4.68
701.13	51.49
701.26	65.54
701.40	110.01
701.53	42.13
701.66	70.22
701.79	18.72
701.93	67.88
702.06	37.45
702.19	42.13
702.32	42.13
702.46	16.38
702.59	28.09
702.72	18.72
702.85	86.60
702.99	32.77
703.12	2.34
703.25	0.00
703.38	16.38
703.51	72.56
703.65	0.00
703.78	0.00
703.91	79.58
704.04	0.00
704.17	121.71
704.31	14.04
704.44	112.35
704.57	84.26
704.70	14.04
704.83	4.68
704.96	42.13
705.10	30.43
705.23	2.34
>>>>>End Processed Spectral Data<<<<<
