SpectraSuite Data File
++++++++++++++++++++++++++++++++++++
Date: Fri Oct 04 12:13:36 GMT-05:00 2013
User: price-jones
Dark Spectrum Present: No
Reference Spectrum Present: No
Number of Sampled Component Spectra: 1
Spectrometers: USB2+H05261
Integration Time (usec): 10000 (USB2+H05261)
Spectra Averaged: 1 (USB2+H05261)
Boxcar Smoothing: 0 (USB2+H05261)
Correct for Electrical Dark: No (USB2+H05261)
Strobe/Lamp Enabled: No (USB2+H05261)
Correct for Detector Non-linearity: No (USB2+H05261)
Correct for Stray Light: No (USB2+H05261)
Number of Pixels in Processed Spectrum: 2048
>>>>>Begin Processed Spectral Data<<<<<
365.73	0.00
365.92	0.00
366.12	0.00
366.32	0.00
366.52	0.00
366.72	0.00
366.91	0.00
367.11	0.00
367.31	0.00
367.51	0.00
367.70	0.00
367.90	0.00
368.10	0.00
368.30	0.00
368.49	0.00
368.69	0.00
368.89	0.00
369.09	0.00
369.28	0.00
369.48	0.00
369.68	0.00
369.87	0.00
370.07	0.00
370.27	0.00
370.47	0.00
370.66	0.00
370.86	0.00
371.06	0.00
371.25	0.00
371.45	0.00
371.65	0.00
371.84	0.00
372.04	49.15
372.24	21.06
372.44	0.00
372.63	23.41
372.83	23.41
373.03	35.11
373.22	65.54
373.42	30.43
373.62	0.00
373.81	25.75
374.01	14.04
374.21	46.81
374.40	28.09
374.60	16.38
374.79	35.11
374.99	100.64
375.19	91.28
375.38	35.11
375.58	30.43
375.78	0.00
375.97	0.00
376.17	32.77
376.37	2.34
376.56	0.00
376.76	30.43
376.95	56.17
377.15	63.19
377.35	46.81
377.54	70.22
377.74	32.77
377.93	0.00
378.13	35.11
378.33	0.00
378.52	11.70
378.72	9.36
378.91	25.75
379.11	72.56
379.31	42.13
379.50	0.00
379.70	4.68
379.89	60.85
380.09	46.81
380.28	0.00
380.48	18.72
380.68	107.66
380.87	0.00
381.07	98.30
381.26	30.43
381.46	72.56
381.65	0.00
381.85	0.00
382.04	53.83
382.24	18.72
382.43	37.45
382.63	21.06
382.83	7.02
383.02	2.34
383.22	0.00
383.41	0.00
383.61	0.00
383.80	28.09
384.00	4.68
384.19	9.36
384.39	0.00
384.58	23.41
384.78	18.72
384.97	51.49
385.17	53.83
385.36	35.11
385.56	67.88
385.75	42.13
385.95	0.00
386.14	58.51
386.34	60.85
386.53	84.26
386.72	18.72
386.92	21.06
387.11	11.70
387.31	0.00
387.50	7.02
387.70	18.72
387.89	56.17
388.09	42.13
388.28	0.00
388.48	18.72
388.67	49.15
388.86	9.36
389.06	23.41
389.25	79.58
389.45	25.75
389.64	44.47
389.84	18.72
390.03	35.11
390.22	0.00
390.42	2.34
390.61	0.00
390.81	58.51
391.00	42.13
391.19	46.81
391.39	0.00
391.58	65.54
391.78	21.06
391.97	23.41
392.16	0.00
392.36	4.68
392.55	9.36
392.75	0.00
392.94	58.51
393.13	35.11
393.33	35.11
393.52	7.02
393.71	21.06
393.91	131.07
394.10	63.19
394.29	32.77
394.49	28.09
394.68	49.15
394.88	0.00
395.07	18.72
395.26	77.24
395.46	14.04
395.65	46.81
395.84	0.00
396.04	0.00
396.23	0.00
396.42	14.04
396.62	32.77
396.81	56.17
397.00	16.38
397.19	11.70
397.39	9.36
397.58	4.68
397.77	0.00
397.97	32.77
398.16	30.43
398.35	28.09
398.55	18.72
398.74	0.00
398.93	28.09
399.12	0.00
399.32	11.70
399.51	0.00
399.70	35.11
399.90	53.83
400.09	42.13
400.28	63.19
400.47	25.75
400.67	0.00
400.86	9.36
401.05	23.41
401.24	102.98
401.44	49.15
401.63	91.28
401.82	58.51
402.01	46.81
402.21	0.00
402.40	37.45
402.59	0.00
402.78	117.03
402.97	0.00
403.17	35.11
403.36	84.26
403.55	112.35
403.74	100.64
403.93	9.36
404.13	37.45
404.32	9.36
404.51	30.43
404.70	44.47
404.89	0.00
405.09	145.11
405.28	42.13
405.47	0.00
405.66	0.00
405.85	7.02
406.05	63.19
406.24	35.11
406.43	0.00
406.62	4.68
406.81	21.06
407.00	44.47
407.20	46.81
407.39	4.68
407.58	72.56
407.77	56.17
407.96	32.77
408.15	18.72
408.34	14.04
408.54	23.41
408.73	25.75
408.92	25.75
409.11	39.79
409.30	30.43
409.49	65.54
409.68	18.72
409.87	98.30
410.07	11.70
410.26	28.09
410.45	4.68
410.64	9.36
410.83	32.77
411.02	46.81
411.21	0.00
411.40	2.34
411.59	51.49
411.78	16.38
411.98	56.17
412.17	51.49
412.36	23.41
412.55	7.02
412.74	79.58
412.93	28.09
413.12	91.28
413.31	0.00
413.50	112.35
413.69	0.00
413.88	0.00
414.07	30.43
414.26	58.51
414.45	53.83
414.64	4.68
414.83	14.04
415.02	74.90
415.22	63.19
415.41	9.36
415.60	28.09
415.79	9.36
415.98	46.81
416.17	110.01
416.36	7.02
416.55	42.13
416.74	16.38
416.93	63.19
417.12	70.22
417.31	42.13
417.50	25.75
417.69	0.00
417.88	37.45
418.07	4.68
418.26	49.15
418.45	18.72
418.64	67.88
418.83	14.04
419.02	65.54
419.21	58.51
419.39	91.28
419.58	70.22
419.77	23.41
419.96	91.28
420.15	95.96
420.34	70.22
420.53	21.06
420.72	72.56
420.91	23.41
421.10	0.00
421.29	11.70
421.48	42.13
421.67	53.83
421.86	32.77
422.05	51.49
422.24	39.79
422.43	53.83
422.61	51.49
422.80	23.41
422.99	81.92
423.18	32.77
423.37	67.88
423.56	58.51
423.75	110.01
423.94	93.62
424.13	28.09
424.32	58.51
424.50	79.58
424.69	60.85
424.88	79.58
425.07	0.00
425.26	81.92
425.45	39.79
425.64	0.00
425.83	30.43
426.01	58.51
426.20	23.41
426.39	35.11
426.58	28.09
426.77	32.77
426.96	0.00
427.15	102.98
427.33	39.79
427.52	70.22
427.71	39.79
427.90	53.83
428.09	0.00
428.28	35.11
428.46	39.79
428.65	21.06
428.84	70.22
429.03	74.90
429.22	70.22
429.40	72.56
429.59	44.47
429.78	39.79
429.97	2.34
430.16	28.09
430.34	70.22
430.53	0.00
430.72	0.00
430.91	11.70
431.10	72.56
431.28	4.68
431.47	91.28
431.66	95.96
431.85	44.47
432.03	60.85
432.22	23.41
432.41	60.85
432.60	107.66
432.79	51.49
432.97	0.00
433.16	14.04
433.35	84.26
433.54	84.26
433.72	56.17
433.91	51.49
434.10	53.83
434.28	25.75
434.47	9.36
434.66	74.90
434.85	77.24
435.03	51.49
435.22	0.00
435.41	37.45
435.59	60.85
435.78	7.02
435.97	79.58
436.16	0.00
436.34	51.49
436.53	37.45
436.72	32.77
436.90	63.19
437.09	67.88
437.28	44.47
437.46	84.26
437.65	91.28
437.84	14.04
438.02	32.77
438.21	23.41
438.40	18.72
438.58	72.56
438.77	49.15
438.96	86.60
439.14	60.85
439.33	0.00
439.52	39.79
439.70	30.43
439.89	25.75
440.08	79.58
440.26	56.17
440.45	35.11
440.63	98.30
440.82	86.60
441.01	63.19
441.19	67.88
441.38	110.01
441.57	37.45
441.75	58.51
441.94	21.06
442.12	53.83
442.31	14.04
442.50	0.00
442.68	95.96
442.87	23.41
443.05	14.04
443.24	86.60
443.43	51.49
443.61	25.75
443.80	16.38
443.98	42.13
444.17	56.17
444.35	23.41
444.54	23.41
444.73	42.13
444.91	93.62
445.10	37.45
445.28	53.83
445.47	23.41
445.65	70.22
445.84	46.81
446.02	46.81
446.21	0.00
446.39	58.51
446.58	49.15
446.77	32.77
446.95	0.00
447.14	86.60
447.32	63.19
447.51	9.36
447.69	46.81
447.88	77.24
448.06	100.64
448.25	0.00
448.43	79.58
448.62	37.45
448.80	110.01
448.99	37.45
449.17	114.69
449.36	79.58
449.54	67.88
449.73	74.90
449.91	74.90
450.10	0.00
450.28	93.62
450.46	21.06
450.65	117.03
450.83	93.62
451.02	53.83
451.20	32.77
451.39	0.00
451.57	37.45
451.76	98.30
451.94	37.45
452.13	65.54
452.31	25.75
452.49	60.85
452.68	60.85
452.86	28.09
453.05	84.26
453.23	74.90
453.42	60.85
453.60	63.19
453.78	81.92
453.97	58.51
454.15	32.77
454.34	53.83
454.52	65.54
454.70	79.58
454.89	21.06
455.07	49.15
455.26	95.96
455.44	163.84
455.62	70.22
455.81	110.01
455.99	42.13
456.17	107.66
456.36	86.60
456.54	42.13
456.73	30.43
456.91	74.90
457.09	49.15
457.28	51.49
457.46	32.77
457.64	79.58
457.83	63.19
458.01	79.58
458.19	65.54
458.38	49.15
458.56	58.51
458.74	44.47
458.93	67.88
459.11	2.34
459.29	18.72
459.48	138.09
459.66	42.13
459.84	39.79
460.03	37.45
460.21	32.77
460.39	0.00
460.57	70.22
460.76	44.47
460.94	105.32
461.12	77.24
461.31	77.24
461.49	93.62
461.67	9.36
461.85	32.77
462.04	63.19
462.22	142.77
462.40	81.92
462.59	0.00
462.77	21.06
462.95	28.09
463.13	53.83
463.32	86.60
463.50	121.71
463.68	51.49
463.86	77.24
464.05	53.83
464.23	4.68
464.41	56.17
464.59	30.43
464.78	79.58
464.96	72.56
465.14	42.13
465.32	70.22
465.50	81.92
465.69	79.58
465.87	70.22
466.05	72.56
466.23	70.22
466.41	28.09
466.60	28.09
466.78	98.30
466.96	74.90
467.14	32.77
467.32	88.94
467.51	0.00
467.69	37.45
467.87	81.92
468.05	42.13
468.23	81.92
468.41	35.11
468.60	0.00
468.78	18.72
468.96	60.85
469.14	0.00
469.32	30.43
469.50	84.26
469.69	77.24
469.87	63.19
470.05	110.01
470.23	25.75
470.41	0.00
470.59	39.79
470.77	53.83
470.95	53.83
471.14	135.75
471.32	42.13
471.50	49.15
471.68	81.92
471.86	112.35
472.04	63.19
472.22	88.94
472.40	72.56
472.58	79.58
472.77	65.54
472.95	102.98
473.13	131.07
473.31	58.51
473.49	67.88
473.67	72.56
473.85	117.03
474.03	9.36
474.21	23.41
474.39	100.64
474.57	74.90
474.75	126.39
474.93	56.17
475.12	23.41
475.30	0.00
475.48	4.68
475.66	74.90
475.84	2.34
476.02	58.51
476.20	14.04
476.38	32.77
476.56	67.88
476.74	63.19
476.92	67.88
477.10	102.98
477.28	30.43
477.46	49.15
477.64	93.62
477.82	44.47
478.00	60.85
478.18	58.51
478.36	56.17
478.54	81.92
478.72	67.88
478.90	28.09
479.08	88.94
479.26	18.72
479.44	58.51
479.62	86.60
479.80	112.35
479.98	105.32
480.16	72.56
480.34	30.43
480.52	35.11
480.70	60.85
480.88	58.51
481.06	95.96
481.24	88.94
481.41	56.17
481.59	32.77
481.77	32.77
481.95	79.58
482.13	67.88
482.31	0.00
482.49	35.11
482.67	11.70
482.85	58.51
483.03	46.81
483.21	102.98
483.39	135.75
483.57	79.58
483.74	37.45
483.92	77.24
484.10	88.94
484.28	91.28
484.46	91.28
484.64	44.47
484.82	74.90
485.00	60.85
485.18	58.51
485.35	105.32
485.53	58.51
485.71	84.26
485.89	88.94
486.07	51.49
486.25	79.58
486.43	114.69
486.61	74.90
486.78	70.22
486.96	37.45
487.14	16.38
487.32	98.30
487.50	35.11
487.68	86.60
487.85	51.49
488.03	105.32
488.21	0.00
488.39	67.88
488.57	65.54
488.75	180.22
488.92	117.03
489.10	53.83
489.28	117.03
489.46	126.39
489.64	25.75
489.81	39.79
489.99	107.66
490.17	37.45
490.35	107.66
490.53	65.54
490.70	42.13
490.88	168.52
491.06	128.73
491.24	49.15
491.41	107.66
491.59	74.90
491.77	51.49
491.95	88.94
492.13	0.00
492.30	105.32
492.48	117.03
492.66	128.73
492.84	93.62
493.01	37.45
493.19	95.96
493.37	16.38
493.54	25.75
493.72	119.37
493.90	67.88
494.08	70.22
494.25	44.47
494.43	63.19
494.61	39.79
494.79	79.58
494.96	58.51
495.14	88.94
495.32	117.03
495.49	110.01
495.67	18.72
495.85	2.34
496.02	81.92
496.20	39.79
496.38	81.92
496.55	65.54
496.73	25.75
496.91	70.22
497.09	67.88
497.26	145.11
497.44	70.22
497.62	77.24
497.79	4.68
497.97	100.64
498.14	60.85
498.32	81.92
498.50	98.30
498.67	58.51
498.85	42.13
499.03	46.81
499.20	65.54
499.38	60.85
499.56	81.92
499.73	32.77
499.91	91.28
500.08	86.60
500.26	9.36
500.44	25.75
500.61	131.07
500.79	63.19
500.97	70.22
501.14	145.11
501.32	53.83
501.49	84.26
501.67	28.09
501.84	88.94
502.02	77.24
502.20	72.56
502.37	56.17
502.55	44.47
502.72	39.79
502.90	23.41
503.07	110.01
503.25	51.49
503.43	42.13
503.60	67.88
503.78	70.22
503.95	49.15
504.13	98.30
504.30	119.37
504.48	95.96
504.65	124.05
504.83	30.43
505.01	114.69
505.18	53.83
505.36	95.96
505.53	133.41
505.71	98.30
505.88	95.96
506.06	84.26
506.23	18.72
506.41	65.54
506.58	84.26
506.76	60.85
506.93	88.94
507.11	51.49
507.28	42.13
507.46	51.49
507.63	91.28
507.81	81.92
507.98	88.94
508.16	88.94
508.33	63.19
508.50	77.24
508.68	79.58
508.85	138.09
509.03	67.88
509.20	84.26
509.38	86.60
509.55	145.11
509.73	28.09
509.90	138.09
510.08	74.90
510.25	72.56
510.42	107.66
510.60	98.30
510.77	107.66
510.95	53.83
511.12	49.15
511.30	60.85
511.47	58.51
511.64	86.60
511.82	0.00
511.99	102.98
512.17	86.60
512.34	102.98
512.51	95.96
512.69	81.92
512.86	81.92
513.04	100.64
513.21	105.32
513.38	44.47
513.56	56.17
513.73	121.71
513.90	98.30
514.08	72.56
514.25	163.84
514.43	110.01
514.60	114.69
514.77	72.56
514.95	67.88
515.12	72.56
515.29	0.00
515.47	46.81
515.64	100.64
515.81	44.47
515.99	135.75
516.16	84.26
516.33	51.49
516.51	135.75
516.68	86.60
516.85	42.13
517.03	49.15
517.20	140.43
517.37	39.79
517.54	79.58
517.72	114.69
517.89	51.49
518.06	105.32
518.24	0.00
518.41	44.47
518.58	63.19
518.75	58.51
518.93	126.39
519.10	86.60
519.27	72.56
519.45	77.24
519.62	98.30
519.79	88.94
519.96	124.05
520.14	145.11
520.31	126.39
520.48	133.41
520.65	58.51
520.83	72.56
521.00	74.90
521.17	51.49
521.34	51.49
521.52	128.73
521.69	67.88
521.86	42.13
522.03	100.64
522.20	142.77
522.38	124.05
522.55	95.96
522.72	100.64
522.89	112.35
523.07	114.69
523.24	77.24
523.41	149.79
523.58	107.66
523.75	23.41
523.92	149.79
524.10	140.43
524.27	56.17
524.44	42.13
524.61	56.17
524.78	128.73
524.96	79.58
525.13	51.49
525.30	35.11
525.47	60.85
525.64	56.17
525.81	81.92
525.98	161.50
526.16	100.64
526.33	117.03
526.50	67.88
526.67	124.05
526.84	121.71
527.01	67.88
527.18	86.60
527.36	159.16
527.53	124.05
527.70	91.28
527.87	128.73
528.04	166.18
528.21	121.71
528.38	149.79
528.55	107.66
528.72	28.09
528.89	46.81
529.07	72.56
529.24	142.77
529.41	32.77
529.58	121.71
529.75	105.32
529.92	58.51
530.09	100.64
530.26	11.70
530.43	0.00
530.60	98.30
530.77	102.98
530.94	53.83
531.11	11.70
531.28	95.96
531.46	145.11
531.63	107.66
531.80	77.24
531.97	79.58
532.14	110.01
532.31	42.13
532.48	105.32
532.65	25.75
532.82	86.60
532.99	180.22
533.16	140.43
533.33	117.03
533.50	114.69
533.67	100.64
533.84	58.51
534.01	58.51
534.18	37.45
534.35	25.75
534.52	84.26
534.69	81.92
534.86	88.94
535.03	63.19
535.20	98.30
535.37	53.83
535.54	175.54
535.71	100.64
535.88	100.64
536.05	51.49
536.22	42.13
536.38	67.88
536.55	88.94
536.72	16.38
536.89	112.35
537.06	53.83
537.23	84.26
537.40	93.62
537.57	124.05
537.74	53.83
537.91	35.11
538.08	119.37
538.25	37.45
538.42	119.37
538.59	53.83
538.75	121.71
538.92	74.90
539.09	32.77
539.26	67.88
539.43	28.09
539.60	112.35
539.77	93.62
539.94	65.54
540.11	121.71
540.28	25.75
540.44	88.94
540.61	107.66
540.78	84.26
540.95	121.71
541.12	77.24
541.29	110.01
541.46	98.30
541.62	65.54
541.79	91.28
541.96	114.69
542.13	198.95
542.30	25.75
542.47	72.56
542.63	23.41
542.80	56.17
542.97	81.92
543.14	49.15
543.31	70.22
543.48	56.17
543.64	86.60
543.81	79.58
543.98	107.66
544.15	105.32
544.32	37.45
544.48	149.79
544.65	79.58
544.82	102.98
544.99	70.22
545.16	131.07
545.32	95.96
545.49	53.83
545.66	42.13
545.83	32.77
546.00	35.11
546.16	60.85
546.33	126.39
546.50	95.96
546.67	72.56
546.83	100.64
547.00	126.39
547.17	74.90
547.34	58.51
547.50	51.49
547.67	88.94
547.84	44.47
548.00	128.73
548.17	145.11
548.34	0.00
548.51	46.81
548.67	105.32
548.84	11.70
549.01	112.35
549.18	159.16
549.34	14.04
549.51	135.75
549.68	88.94
549.84	58.51
550.01	49.15
550.18	102.98
550.34	117.03
550.51	67.88
550.68	16.38
550.84	0.00
551.01	65.54
551.18	65.54
551.34	67.88
551.51	107.66
551.68	84.26
551.84	65.54
552.01	98.30
552.18	16.38
552.34	91.28
552.51	46.81
552.68	42.13
552.84	91.28
553.01	74.90
553.18	79.58
553.34	65.54
553.51	53.83
553.67	86.60
553.84	28.09
554.01	110.01
554.17	86.60
554.34	60.85
554.51	72.56
554.67	107.66
554.84	60.85
555.00	77.24
555.17	30.43
555.33	56.17
555.50	149.79
555.67	105.32
555.83	98.30
556.00	2.34
556.16	93.62
556.33	131.07
556.50	121.71
556.66	60.85
556.83	86.60
556.99	14.04
557.16	93.62
557.32	86.60
557.49	72.56
557.65	72.56
557.82	163.84
557.98	67.88
558.15	102.98
558.32	86.60
558.48	81.92
558.65	60.85
558.81	98.30
558.98	65.54
559.14	93.62
559.31	72.56
559.47	77.24
559.64	60.85
559.80	91.28
559.97	77.24
560.13	142.77
560.30	88.94
560.46	51.49
560.63	159.16
560.79	74.90
560.96	53.83
561.12	84.26
561.29	63.19
561.45	88.94
561.61	30.43
561.78	7.02
561.94	140.43
562.11	56.17
562.27	93.62
562.44	107.66
562.60	42.13
562.77	86.60
562.93	86.60
563.10	105.32
563.26	9.36
563.42	93.62
563.59	98.30
563.75	30.43
563.92	0.00
564.08	91.28
564.24	70.22
564.41	51.49
564.57	0.00
564.74	124.05
564.90	107.66
565.07	142.77
565.23	95.96
565.39	110.01
565.56	112.35
565.72	91.28
565.88	67.88
566.05	60.85
566.21	112.35
566.38	72.56
566.54	58.51
566.70	110.01
566.87	42.13
567.03	133.41
567.19	77.24
567.36	91.28
567.52	65.54
567.68	95.96
567.85	65.54
568.01	79.58
568.17	65.54
568.34	25.75
568.50	88.94
568.66	32.77
568.83	110.01
568.99	63.19
569.15	88.94
569.32	77.24
569.48	100.64
569.64	70.22
569.81	53.83
569.97	91.28
570.13	138.09
570.30	112.35
570.46	147.45
570.62	93.62
570.78	102.98
570.95	128.73
571.11	117.03
571.27	79.58
571.43	70.22
571.60	67.88
571.76	42.13
571.92	126.39
572.09	70.22
572.25	128.73
572.41	93.62
572.57	86.60
572.74	74.90
572.90	98.30
573.06	135.75
573.22	86.60
573.38	95.96
573.55	74.90
573.71	32.77
573.87	35.11
574.03	124.05
574.20	126.39
574.36	42.13
574.52	170.86
574.68	114.69
574.84	53.83
575.01	32.77
575.17	112.35
575.33	60.85
575.49	23.41
575.65	98.30
575.82	121.71
575.98	86.60
576.14	74.90
576.30	100.64
576.46	84.26
576.62	84.26
576.79	152.13
576.95	140.43
577.11	98.30
577.27	63.19
577.43	84.26
577.59	74.90
577.75	84.26
577.92	46.81
578.08	30.43
578.24	58.51
578.40	84.26
578.56	114.69
578.72	128.73
578.88	84.26
579.04	70.22
579.21	119.37
579.37	93.62
579.53	56.17
579.69	91.28
579.85	51.49
580.01	84.26
580.17	124.05
580.33	18.72
580.49	74.90
580.65	100.64
580.82	51.49
580.98	98.30
581.14	63.19
581.30	88.94
581.46	121.71
581.62	46.81
581.78	58.51
581.94	2.34
582.10	0.00
582.26	110.01
582.42	37.45
582.58	32.77
582.74	117.03
582.90	81.92
583.06	86.60
583.22	107.66
583.38	35.11
583.54	7.02
583.70	117.03
583.86	77.24
584.02	128.73
584.18	72.56
584.34	72.56
584.50	44.47
584.66	135.75
584.82	100.64
584.98	14.04
585.14	51.49
585.30	161.50
585.46	72.56
585.62	88.94
585.78	124.05
585.94	42.13
586.10	0.00
586.26	35.11
586.42	77.24
586.58	53.83
586.74	63.19
586.90	79.58
587.06	63.19
587.22	0.00
587.38	72.56
587.54	79.58
587.70	0.00
587.86	51.49
588.02	44.47
588.18	74.90
588.34	98.30
588.49	70.22
588.65	110.01
588.81	39.79
588.97	37.45
589.13	49.15
589.29	112.35
589.45	100.64
589.61	39.79
589.77	0.00
589.93	95.96
590.08	119.37
590.24	42.13
590.40	16.38
590.56	93.62
590.72	114.69
590.88	42.13
591.04	77.24
591.20	23.41
591.35	53.83
591.51	72.56
591.67	25.75
591.83	93.62
591.99	98.30
592.15	60.85
592.31	42.13
592.46	91.28
592.62	23.41
592.78	105.32
592.94	74.90
593.10	32.77
593.26	63.19
593.41	35.11
593.57	107.66
593.73	91.28
593.89	79.58
594.05	7.02
594.20	74.90
594.36	112.35
594.52	46.81
594.68	100.64
594.84	46.81
594.99	119.37
595.15	53.83
595.31	119.37
595.47	79.58
595.62	128.73
595.78	110.01
595.94	11.70
596.10	152.13
596.25	0.00
596.41	49.15
596.57	70.22
596.73	51.49
596.88	135.75
597.04	84.26
597.20	39.79
597.36	77.24
597.51	0.00
597.67	14.04
597.83	112.35
597.99	133.41
598.14	37.45
598.30	16.38
598.46	65.54
598.61	81.92
598.77	35.11
598.93	67.88
599.09	112.35
599.24	39.79
599.40	77.24
599.56	42.13
599.71	49.15
599.87	39.79
600.03	63.19
600.18	131.07
600.34	53.83
600.50	77.24
600.65	110.01
600.81	16.38
600.97	28.09
601.12	46.81
601.28	32.77
601.44	100.64
601.59	42.13
601.75	121.71
601.91	28.09
602.06	84.26
602.22	74.90
602.37	81.92
602.53	56.17
602.69	107.66
602.84	100.64
603.00	39.79
603.16	79.58
603.31	67.88
603.47	9.36
603.62	28.09
603.78	32.77
603.94	49.15
604.09	58.51
604.25	49.15
604.40	105.32
604.56	65.54
604.71	119.37
604.87	72.56
605.03	58.51
605.18	133.41
605.34	114.69
605.49	107.66
605.65	46.81
605.80	98.30
605.96	60.85
606.12	107.66
606.27	74.90
606.43	72.56
606.58	88.94
606.74	86.60
606.89	70.22
607.05	60.85
607.20	25.75
607.36	53.83
607.51	81.92
607.67	133.41
607.82	91.28
607.98	77.24
608.13	93.62
608.29	32.77
608.44	88.94
608.60	53.83
608.75	88.94
608.91	35.11
609.06	39.79
609.22	44.47
609.37	72.56
609.53	16.38
609.68	18.72
609.84	100.64
609.99	56.17
610.15	121.71
610.30	32.77
610.46	86.60
610.61	98.30
610.76	16.38
610.92	128.73
611.07	105.32
611.23	131.07
611.38	142.77
611.54	32.77
611.69	102.98
611.84	110.01
612.00	81.92
612.15	23.41
612.31	74.90
612.46	44.47
612.62	110.01
612.77	25.75
612.92	65.54
613.08	67.88
613.23	91.28
613.39	100.64
613.54	37.45
613.69	65.54
613.85	95.96
614.00	98.30
614.15	72.56
614.31	86.60
614.46	79.58
614.62	4.68
614.77	124.05
614.92	81.92
615.08	46.81
615.23	35.11
615.38	28.09
615.54	93.62
615.69	72.56
615.84	65.54
616.00	74.90
616.15	49.15
616.30	63.19
616.46	21.06
616.61	72.56
616.76	63.19
616.92	145.11
617.07	112.35
617.22	67.88
617.37	51.49
617.53	74.90
617.68	0.00
617.83	39.79
617.99	126.39
618.14	44.47
618.29	51.49
618.45	46.81
618.60	79.58
618.75	93.62
618.90	74.90
619.06	37.45
619.21	49.15
619.36	77.24
619.51	65.54
619.67	102.98
619.82	86.60
619.97	25.75
620.12	63.19
620.28	161.50
620.43	60.85
620.58	25.75
620.73	42.13
620.89	21.06
621.04	46.81
621.19	112.35
621.34	81.92
621.49	25.75
621.65	74.90
621.80	32.77
621.95	81.92
622.10	58.51
622.25	46.81
622.41	9.36
622.56	51.49
622.71	7.02
622.86	79.58
623.01	63.19
623.16	0.00
623.32	86.60
623.47	39.79
623.62	14.04
623.77	91.28
623.92	133.41
624.07	81.92
624.23	63.19
624.38	11.70
624.53	63.19
624.68	51.49
624.83	51.49
624.98	119.37
625.13	112.35
625.29	0.00
625.44	51.49
625.59	147.45
625.74	49.15
625.89	77.24
626.04	0.00
626.19	60.85
626.34	65.54
626.49	86.60
626.65	46.81
626.80	65.54
626.95	110.01
627.10	74.90
627.25	72.56
627.40	60.85
627.55	77.24
627.70	84.26
627.85	100.64
628.00	37.45
628.15	79.58
628.30	0.00
628.45	53.83
628.60	105.32
628.76	30.43
628.91	79.58
629.06	60.85
629.21	58.51
629.36	65.54
629.51	25.75
629.66	42.13
629.81	37.45
629.96	21.06
630.11	53.83
630.26	86.60
630.41	74.90
630.56	0.00
630.71	4.68
630.86	84.26
631.01	51.49
631.16	126.39
631.31	65.54
631.46	65.54
631.61	81.92
631.76	42.13
631.91	21.06
632.06	60.85
632.21	32.77
632.36	39.79
632.51	124.05
632.66	56.17
632.81	124.05
632.96	39.79
633.10	93.62
633.25	102.98
633.40	0.00
633.55	65.54
633.70	11.70
633.85	53.83
634.00	98.30
634.15	91.28
634.30	107.66
634.45	28.09
634.60	51.49
634.75	79.58
634.90	32.77
635.05	35.11
635.19	72.56
635.34	79.58
635.49	28.09
635.64	32.77
635.79	119.37
635.94	0.00
636.09	74.90
636.24	32.77
636.39	56.17
636.53	35.11
636.68	70.22
636.83	9.36
636.98	91.28
637.13	16.38
637.28	72.56
637.43	28.09
637.57	21.06
637.72	79.58
637.87	126.39
638.02	51.49
638.17	88.94
638.32	46.81
638.46	70.22
638.61	58.51
638.76	56.17
638.91	180.22
639.06	53.83
639.20	25.75
639.35	58.51
639.50	0.00
639.65	7.02
639.80	88.94
639.94	56.17
640.09	159.16
640.24	28.09
640.39	60.85
640.54	2.34
640.68	84.26
640.83	25.75
640.98	60.85
641.13	65.54
641.27	98.30
641.42	46.81
641.57	21.06
641.72	0.00
641.86	133.41
642.01	49.15
642.16	84.26
642.31	81.92
642.45	23.41
642.60	30.43
642.75	46.81
642.90	35.11
643.04	0.00
643.19	14.04
643.34	0.00
643.48	11.70
643.63	46.81
643.78	65.54
643.93	0.00
644.07	77.24
644.22	91.28
644.37	112.35
644.51	91.28
644.66	35.11
644.81	9.36
644.95	51.49
645.10	88.94
645.25	9.36
645.39	79.58
645.54	49.15
645.69	23.41
645.83	7.02
645.98	110.01
646.13	91.28
646.27	49.15
646.42	0.00
646.57	51.49
646.71	93.62
646.86	81.92
647.00	28.09
647.15	44.47
647.30	44.47
647.44	42.13
647.59	105.32
647.74	0.00
647.88	0.00
648.03	56.17
648.17	35.11
648.32	135.75
648.47	42.13
648.61	32.77
648.76	79.58
648.90	65.54
649.05	74.90
649.20	35.11
649.34	65.54
649.49	70.22
649.63	4.68
649.78	42.13
649.92	60.85
650.07	42.13
650.21	44.47
650.36	91.28
650.51	114.69
650.65	124.05
650.80	21.06
650.94	65.54
651.09	23.41
651.23	35.11
651.38	0.00
651.52	112.35
651.67	51.49
651.81	46.81
651.96	114.69
652.10	105.32
652.25	58.51
652.39	39.79
652.54	25.75
652.68	65.54
652.83	42.13
652.97	18.72
653.12	21.06
653.26	35.11
653.41	79.58
653.55	65.54
653.70	84.26
653.84	0.00
653.99	105.32
654.13	4.68
654.27	65.54
654.42	21.06
654.56	28.09
654.71	0.00
654.85	70.22
655.00	35.11
655.14	49.15
655.29	16.38
655.43	86.60
655.57	49.15
655.72	51.49
655.86	44.47
656.01	56.17
656.15	28.09
656.30	35.11
656.44	44.47
656.58	70.22
656.73	46.81
656.87	81.92
657.01	16.38
657.16	23.41
657.30	72.56
657.45	70.22
657.59	28.09
657.73	39.79
657.88	56.17
658.02	56.17
658.16	51.49
658.31	49.15
658.45	9.36
658.60	63.19
658.74	70.22
658.88	91.28
659.03	0.00
659.17	49.15
659.31	95.96
659.46	37.45
659.60	154.48
659.74	91.28
659.89	44.47
660.03	72.56
660.17	35.11
660.32	110.01
660.46	46.81
660.60	86.60
660.74	86.60
660.89	32.77
661.03	0.00
661.17	53.83
661.32	42.13
661.46	11.70
661.60	79.58
661.74	112.35
661.89	30.43
662.03	9.36
662.17	65.54
662.31	95.96
662.46	102.98
662.60	95.96
662.74	30.43
662.88	46.81
663.03	44.47
663.17	35.11
663.31	37.45
663.45	58.51
663.60	28.09
663.74	60.85
663.88	93.62
664.02	30.43
664.17	9.36
664.31	53.83
664.45	98.30
664.59	44.47
664.73	35.11
664.88	0.00
665.02	4.68
665.16	7.02
665.30	37.45
665.44	110.01
665.59	49.15
665.73	60.85
665.87	14.04
666.01	77.24
666.15	74.90
666.29	32.77
666.44	86.60
666.58	0.00
666.72	72.56
666.86	126.39
667.00	28.09
667.14	86.60
667.28	30.43
667.43	39.79
667.57	25.75
667.71	0.00
667.85	63.19
667.99	0.00
668.13	0.00
668.27	100.64
668.41	0.00
668.56	72.56
668.70	67.88
668.84	0.00
668.98	77.24
669.12	114.69
669.26	63.19
669.40	25.75
669.54	77.24
669.68	53.83
669.82	9.36
669.96	0.00
670.10	105.32
670.25	128.73
670.39	25.75
670.53	72.56
670.67	53.83
670.81	72.56
670.95	28.09
671.09	70.22
671.23	88.94
671.37	51.49
671.51	65.54
671.65	21.06
671.79	18.72
671.93	67.88
672.07	46.81
672.21	98.30
672.35	0.00
672.49	11.70
672.63	44.47
672.77	42.13
672.91	0.00
673.05	39.79
673.19	42.13
673.33	53.83
673.47	0.00
673.61	30.43
673.75	58.51
673.89	65.54
674.03	30.43
674.17	35.11
674.31	0.00
674.45	4.68
674.59	32.77
674.73	35.11
674.87	60.85
675.01	44.47
675.15	107.66
675.29	0.00
675.43	53.83
675.56	138.09
675.70	16.38
675.84	28.09
675.98	77.24
676.12	95.96
676.26	28.09
676.40	11.70
676.54	60.85
676.68	46.81
676.82	65.54
676.96	0.00
677.10	56.17
677.23	0.00
677.37	23.41
677.51	7.02
677.65	9.36
677.79	102.98
677.93	51.49
678.07	77.24
678.21	60.85
678.34	81.92
678.48	100.64
678.62	58.51
678.76	46.81
678.90	65.54
679.04	65.54
679.18	2.34
679.31	30.43
679.45	32.77
679.59	65.54
679.73	21.06
679.87	0.00
680.00	95.96
680.14	65.54
680.28	7.02
680.42	9.36
680.56	81.92
680.70	21.06
680.83	0.00
680.97	14.04
681.11	86.60
681.25	72.56
681.39	53.83
681.52	9.36
681.66	35.11
681.80	37.45
681.94	65.54
682.07	77.24
682.21	81.92
682.35	14.04
682.49	21.06
682.62	37.45
682.76	30.43
682.90	88.94
683.04	32.77
683.17	18.72
683.31	49.15
683.45	79.58
683.59	60.85
683.72	65.54
683.86	126.39
684.00	30.43
684.13	67.88
684.27	70.22
684.41	39.79
684.55	95.96
684.68	77.24
684.82	42.13
684.96	37.45
685.09	4.68
685.23	63.19
685.37	21.06
685.50	9.36
685.64	102.98
685.78	42.13
685.91	91.28
686.05	77.24
686.19	88.94
686.32	72.56
686.46	53.83
686.60	72.56
686.73	30.43
686.87	18.72
687.01	98.30
687.14	32.77
687.28	23.41
687.42	53.83
687.55	67.88
687.69	53.83
687.82	72.56
687.96	51.49
688.10	30.43
688.23	72.56
688.37	16.38
688.50	65.54
688.64	58.51
688.78	2.34
688.91	0.00
689.05	0.00
689.18	46.81
689.32	51.49
689.46	53.83
689.59	37.45
689.73	0.00
689.86	39.79
690.00	25.75
690.13	32.77
690.27	37.45
690.41	0.00
690.54	112.35
690.68	21.06
690.81	67.88
690.95	21.06
691.08	0.00
691.22	93.62
691.35	28.09
691.49	86.60
691.62	46.81
691.76	60.85
691.89	56.17
692.03	98.30
692.16	0.00
692.30	42.13
692.43	124.05
692.57	37.45
692.70	65.54
692.84	70.22
692.97	11.70
693.11	23.41
693.24	42.13
693.38	21.06
693.51	0.00
693.65	0.00
693.78	53.83
693.92	23.41
694.05	28.09
694.19	79.58
694.32	39.79
694.45	86.60
694.59	65.54
694.72	79.58
694.86	35.11
694.99	32.77
695.13	30.43
695.26	35.11
695.39	51.49
695.53	30.43
695.66	14.04
695.80	0.00
695.93	46.81
696.07	46.81
696.20	53.83
696.33	0.00
696.47	70.22
696.60	23.41
696.73	23.41
696.87	79.58
697.00	37.45
697.14	93.62
697.27	0.00
697.40	35.11
697.54	58.51
697.67	49.15
697.80	28.09
697.94	9.36
698.07	81.92
698.21	81.92
698.34	60.85
698.47	98.30
698.61	18.72
698.74	16.38
698.87	4.68
699.01	32.77
699.14	4.68
699.27	35.11
699.40	37.45
699.54	39.79
699.67	58.51
699.80	0.00
699.94	135.75
700.07	0.00
700.20	0.00
700.34	58.51
700.47	21.06
700.60	30.43
700.73	9.36
700.87	0.00
701.00	84.26
701.13	16.38
701.26	86.60
701.40	0.00
701.53	0.00
701.66	0.00
701.79	23.41
701.93	56.17
702.06	117.03
702.19	46.81
702.32	49.15
702.46	88.94
702.59	35.11
702.72	70.22
702.85	44.47
702.99	0.00
703.12	21.06
703.25	70.22
703.38	70.22
703.51	105.32
703.65	44.47
703.78	14.04
703.91	18.72
704.04	30.43
704.17	84.26
704.31	0.00
704.44	84.26
704.57	72.56
704.70	0.00
704.83	9.36
704.96	14.04
705.10	37.45
705.23	53.83
>>>>>End Processed Spectral Data<<<<<
