SpectraSuite Data File
++++++++++++++++++++++++++++++++++++
Date: Fri Oct 04 12:13:36 GMT-05:00 2013
User: price-jones
Dark Spectrum Present: No
Reference Spectrum Present: No
Number of Sampled Component Spectra: 1
Spectrometers: USB2+H05261
Integration Time (usec): 10000 (USB2+H05261)
Spectra Averaged: 1 (USB2+H05261)
Boxcar Smoothing: 0 (USB2+H05261)
Correct for Electrical Dark: No (USB2+H05261)
Strobe/Lamp Enabled: No (USB2+H05261)
Correct for Detector Non-linearity: No (USB2+H05261)
Correct for Stray Light: No (USB2+H05261)
Number of Pixels in Processed Spectrum: 2048
>>>>>Begin Processed Spectral Data<<<<<
365.73	67.88
365.92	67.88
366.12	67.88
366.32	0.00
366.52	0.00
366.72	0.00
366.91	0.00
367.11	0.00
367.31	0.00
367.51	0.00
367.70	0.00
367.90	0.00
368.10	0.00
368.30	0.00
368.49	0.00
368.69	0.00
368.89	0.00
369.09	0.00
369.28	0.00
369.48	0.00
369.68	0.00
369.87	0.00
370.07	0.00
370.27	0.00
370.47	0.00
370.66	0.00
370.86	0.00
371.06	0.00
371.25	0.00
371.45	16.38
371.65	0.00
371.84	0.00
372.04	42.13
372.24	0.00
372.44	9.36
372.63	35.11
372.83	84.26
373.03	0.00
373.22	32.77
373.42	42.13
373.62	7.02
373.81	77.24
374.01	77.24
374.21	14.04
374.40	0.00
374.60	37.45
374.79	37.45
374.99	51.49
375.19	16.38
375.38	37.45
375.58	84.26
375.78	28.09
375.97	51.49
376.17	72.56
376.37	49.15
376.56	0.00
376.76	35.11
376.95	0.00
377.15	39.79
377.35	32.77
377.54	0.00
377.74	63.19
377.93	67.88
378.13	74.90
378.33	4.68
378.52	23.41
378.72	98.30
378.91	7.02
379.11	18.72
379.31	14.04
379.50	0.00
379.70	86.60
379.89	32.77
380.09	14.04
380.28	81.92
380.48	0.00
380.68	23.41
380.87	35.11
381.07	4.68
381.26	11.70
381.46	72.56
381.65	44.47
381.85	65.54
382.04	0.00
382.24	32.77
382.43	60.85
382.63	14.04
382.83	49.15
383.02	23.41
383.22	60.85
383.41	11.70
383.61	28.09
383.80	23.41
384.00	51.49
384.19	60.85
384.39	0.00
384.58	56.17
384.78	56.17
384.97	0.00
385.17	7.02
385.36	35.11
385.56	16.38
385.75	18.72
385.95	9.36
386.14	23.41
386.34	58.51
386.53	58.51
386.72	102.98
386.92	0.00
387.11	0.00
387.31	35.11
387.50	0.00
387.70	21.06
387.89	67.88
388.09	0.00
388.28	0.00
388.48	0.00
388.67	0.00
388.86	0.00
389.06	0.00
389.25	0.00
389.45	0.00
389.64	0.00
389.84	0.00
390.03	65.54
390.22	0.00
390.42	110.01
390.61	0.00
390.81	18.72
391.00	21.06
391.19	0.00
391.39	16.38
391.58	18.72
391.78	0.00
391.97	86.60
392.16	35.11
392.36	0.00
392.55	70.22
392.75	53.83
392.94	93.62
393.13	46.81
393.33	42.13
393.52	7.02
393.71	0.00
393.91	65.54
394.10	39.79
394.29	70.22
394.49	60.85
394.68	67.88
394.88	81.92
395.07	51.49
395.26	32.77
395.46	4.68
395.65	42.13
395.84	58.51
396.04	39.79
396.23	0.00
396.42	74.90
396.62	44.47
396.81	25.75
397.00	93.62
397.19	14.04
397.39	35.11
397.58	65.54
397.77	37.45
397.97	95.96
398.16	56.17
398.35	79.58
398.55	32.77
398.74	0.00
398.93	0.00
399.12	37.45
399.32	25.75
399.51	44.47
399.70	56.17
399.90	0.00
400.09	23.41
400.28	4.68
400.47	28.09
400.67	44.47
400.86	11.70
401.05	88.94
401.24	21.06
401.44	0.00
401.63	42.13
401.82	70.22
402.01	0.00
402.21	42.13
402.40	0.00
402.59	0.00
402.78	77.24
402.97	65.54
403.17	77.24
403.36	0.00
403.55	25.75
403.74	42.13
403.93	0.00
404.13	37.45
404.32	0.00
404.51	0.00
404.70	0.00
404.89	30.43
405.09	0.00
405.28	128.73
405.47	14.04
405.66	32.77
405.85	72.56
406.05	0.00
406.24	11.70
406.43	0.00
406.62	91.28
406.81	42.13
407.00	35.11
407.20	39.79
407.39	37.45
407.58	79.58
407.77	7.02
407.96	18.72
408.15	2.34
408.34	14.04
408.54	65.54
408.73	63.19
408.92	112.35
409.11	65.54
409.30	65.54
409.49	7.02
409.68	60.85
409.87	18.72
410.07	0.00
410.26	74.90
410.45	117.03
410.64	77.24
410.83	56.17
411.02	65.54
411.21	65.54
411.40	23.41
411.59	65.54
411.78	95.96
411.98	0.00
412.17	28.09
412.36	0.00
412.55	18.72
412.74	0.00
412.93	16.38
413.12	119.37
413.31	32.77
413.50	0.00
413.69	77.24
413.88	42.13
414.07	70.22
414.26	86.60
414.45	0.00
414.64	28.09
414.83	9.36
415.02	93.62
415.22	30.43
415.41	30.43
415.60	11.70
415.79	58.51
415.98	112.35
416.17	72.56
416.36	9.36
416.55	35.11
416.74	42.13
416.93	0.00
417.12	58.51
417.31	0.00
417.50	21.06
417.69	39.79
417.88	0.00
418.07	70.22
418.26	74.90
418.45	46.81
418.64	0.00
418.83	88.94
419.02	25.75
419.21	11.70
419.39	74.90
419.58	14.04
419.77	53.83
419.96	79.58
420.15	51.49
420.34	11.70
420.53	63.19
420.72	18.72
420.91	105.32
421.10	23.41
421.29	30.43
421.48	4.68
421.67	42.13
421.86	0.00
422.05	4.68
422.24	0.00
422.43	0.00
422.61	25.75
422.80	0.00
422.99	35.11
423.18	91.28
423.37	121.71
423.56	65.54
423.75	79.58
423.94	77.24
424.13	74.90
424.32	14.04
424.50	39.79
424.69	0.00
424.88	42.13
425.07	53.83
425.26	53.83
425.45	60.85
425.64	0.00
425.83	58.51
426.01	46.81
426.20	84.26
426.39	65.54
426.58	49.15
426.77	32.77
426.96	0.00
427.15	88.94
427.33	4.68
427.52	53.83
427.71	21.06
427.90	44.47
428.09	51.49
428.28	74.90
428.46	95.96
428.65	51.49
428.84	63.19
429.03	88.94
429.22	14.04
429.40	25.75
429.59	4.68
429.78	30.43
429.97	32.77
430.16	9.36
430.34	53.83
430.53	0.00
430.72	77.24
430.91	0.00
431.10	0.00
431.28	100.64
431.47	49.15
431.66	25.75
431.85	7.02
432.03	49.15
432.22	74.90
432.41	86.60
432.60	30.43
432.79	0.00
432.97	53.83
433.16	0.00
433.35	0.00
433.54	35.11
433.72	30.43
433.91	60.85
434.10	114.69
434.28	86.60
434.47	49.15
434.66	30.43
434.85	14.04
435.03	30.43
435.22	23.41
435.41	60.85
435.59	65.54
435.78	25.75
435.97	0.00
436.16	53.83
436.34	42.13
436.53	56.17
436.72	0.00
436.90	44.47
437.09	21.06
437.28	72.56
437.46	51.49
437.65	86.60
437.84	37.45
438.02	0.00
438.21	100.64
438.40	0.00
438.58	7.02
438.77	21.06
438.96	93.62
439.14	0.00
439.33	124.05
439.52	81.92
439.70	65.54
439.89	84.26
440.08	16.38
440.26	63.19
440.45	91.28
440.63	128.73
440.82	25.75
441.01	42.13
441.19	7.02
441.38	46.81
441.57	112.35
441.75	44.47
441.94	23.41
442.12	63.19
442.31	30.43
442.50	0.00
442.68	51.49
442.87	86.60
443.05	35.11
443.24	44.47
443.43	102.98
443.61	98.30
443.80	23.41
443.98	46.81
444.17	53.83
444.35	42.13
444.54	56.17
444.73	84.26
444.91	79.58
445.10	39.79
445.28	67.88
445.47	91.28
445.65	53.83
445.84	93.62
446.02	35.11
446.21	58.51
446.39	74.90
446.58	14.04
446.77	79.58
446.95	53.83
447.14	37.45
447.32	70.22
447.51	44.47
447.69	74.90
447.88	159.16
448.06	7.02
448.25	79.58
448.43	28.09
448.62	30.43
448.80	9.36
448.99	11.70
449.17	0.00
449.36	18.72
449.54	32.77
449.73	0.00
449.91	37.45
450.10	79.58
450.28	30.43
450.46	138.09
450.65	16.38
450.83	37.45
451.02	39.79
451.20	37.45
451.39	0.00
451.57	44.47
451.76	60.85
451.94	72.56
452.13	65.54
452.31	105.32
452.49	95.96
452.68	81.92
452.86	35.11
453.05	65.54
453.23	81.92
453.42	63.19
453.60	25.75
453.78	60.85
453.97	32.77
454.15	56.17
454.34	79.58
454.52	58.51
454.70	30.43
454.89	51.49
455.07	39.79
455.26	114.69
455.44	0.00
455.62	67.88
455.81	60.85
455.99	112.35
456.17	42.13
456.36	2.34
456.54	117.03
456.73	84.26
456.91	7.02
457.09	70.22
457.28	58.51
457.46	102.98
457.64	25.75
457.83	7.02
458.01	58.51
458.19	79.58
458.38	0.00
458.56	74.90
458.74	65.54
458.93	79.58
459.11	37.45
459.29	74.90
459.48	2.34
459.66	63.19
459.84	74.90
460.03	65.54
460.21	72.56
460.39	21.06
460.57	23.41
460.76	74.90
460.94	9.36
461.12	42.13
461.31	74.90
461.49	98.30
461.67	32.77
461.85	0.00
462.04	95.96
462.22	156.82
462.40	60.85
462.59	7.02
462.77	110.01
462.95	37.45
463.13	37.45
463.32	100.64
463.50	121.71
463.68	0.00
463.86	46.81
464.05	25.75
464.23	37.45
464.41	30.43
464.59	60.85
464.78	37.45
464.96	25.75
465.14	91.28
465.32	56.17
465.50	44.47
465.69	63.19
465.87	72.56
466.05	86.60
466.23	63.19
466.41	0.00
466.60	35.11
466.78	0.00
466.96	0.00
467.14	84.26
467.32	11.70
467.51	65.54
467.69	93.62
467.87	37.45
468.05	11.70
468.23	81.92
468.41	133.41
468.60	84.26
468.78	4.68
468.96	0.00
469.14	98.30
469.32	74.90
469.50	60.85
469.69	46.81
469.87	67.88
470.05	42.13
470.23	84.26
470.41	44.47
470.59	25.75
470.77	84.26
470.95	16.38
471.14	77.24
471.32	63.19
471.50	126.39
471.68	88.94
471.86	0.00
472.04	53.83
472.22	49.15
472.40	98.30
472.58	7.02
472.77	67.88
472.95	42.13
473.13	14.04
473.31	51.49
473.49	25.75
473.67	7.02
473.85	95.96
474.03	119.37
474.21	67.88
474.39	74.90
474.57	51.49
474.75	25.75
474.93	25.75
475.12	70.22
475.30	0.00
475.48	28.09
475.66	11.70
475.84	67.88
476.02	32.77
476.20	46.81
476.38	37.45
476.56	128.73
476.74	65.54
476.92	67.88
477.10	46.81
477.28	42.13
477.46	7.02
477.64	74.90
477.82	74.90
478.00	37.45
478.18	16.38
478.36	72.56
478.54	72.56
478.72	121.71
478.90	28.09
479.08	21.06
479.26	23.41
479.44	25.75
479.62	91.28
479.80	0.00
479.98	60.85
480.16	42.13
480.34	63.19
480.52	128.73
480.70	102.98
480.88	121.71
481.06	9.36
481.24	100.64
481.41	77.24
481.59	93.62
481.77	70.22
481.95	7.02
482.13	25.75
482.31	53.83
482.49	37.45
482.67	18.72
482.85	91.28
483.03	65.54
483.21	44.47
483.39	84.26
483.57	91.28
483.74	138.09
483.92	100.64
484.10	0.00
484.28	58.51
484.46	74.90
484.64	56.17
484.82	88.94
485.00	112.35
485.18	46.81
485.35	88.94
485.53	16.38
485.71	23.41
485.89	114.69
486.07	28.09
486.25	58.51
486.43	81.92
486.61	39.79
486.78	7.02
486.96	49.15
487.14	0.00
487.32	63.19
487.50	42.13
487.68	42.13
487.85	9.36
488.03	46.81
488.21	65.54
488.39	0.00
488.57	18.72
488.75	28.09
488.92	88.94
489.10	93.62
489.28	77.24
489.46	98.30
489.64	79.58
489.81	114.69
489.99	84.26
490.17	74.90
490.35	121.71
490.53	72.56
490.70	128.73
490.88	72.56
491.06	95.96
491.24	124.05
491.41	37.45
491.59	86.60
491.77	25.75
491.95	42.13
492.13	37.45
492.30	119.37
492.48	70.22
492.66	67.88
492.84	79.58
493.01	72.56
493.19	0.00
493.37	28.09
493.54	0.00
493.72	60.85
493.90	39.79
494.08	100.64
494.25	53.83
494.43	42.13
494.61	42.13
494.79	58.51
494.96	105.32
495.14	30.43
495.32	9.36
495.49	72.56
495.67	84.26
495.85	86.60
496.02	86.60
496.20	98.30
496.38	124.05
496.55	119.37
496.73	81.92
496.91	98.30
497.09	18.72
497.26	77.24
497.44	0.00
497.62	51.49
497.79	56.17
497.97	102.98
498.14	28.09
498.32	177.88
498.50	98.30
498.67	110.01
498.85	63.19
499.03	135.75
499.20	44.47
499.38	30.43
499.56	102.98
499.73	77.24
499.91	67.88
500.08	110.01
500.26	58.51
500.44	117.03
500.61	100.64
500.79	121.71
500.97	58.51
501.14	95.96
501.32	70.22
501.49	46.81
501.67	81.92
501.84	102.98
502.02	79.58
502.20	110.01
502.37	114.69
502.55	28.09
502.72	70.22
502.90	67.88
503.07	77.24
503.25	135.75
503.43	51.49
503.60	65.54
503.78	79.58
503.95	37.45
504.13	23.41
504.30	86.60
504.48	0.00
504.65	37.45
504.83	44.47
505.01	131.07
505.18	138.09
505.36	86.60
505.53	133.41
505.71	23.41
505.88	58.51
506.06	60.85
506.23	81.92
506.41	65.54
506.58	88.94
506.76	25.75
506.93	107.66
507.11	161.50
507.28	67.88
507.46	53.83
507.63	131.07
507.81	42.13
507.98	93.62
508.16	84.26
508.33	95.96
508.50	49.15
508.68	46.81
508.85	107.66
509.03	105.32
509.20	107.66
509.38	124.05
509.55	70.22
509.73	49.15
509.90	25.75
510.08	93.62
510.25	65.54
510.42	21.06
510.60	0.00
510.77	72.56
510.95	88.94
511.12	84.26
511.30	84.26
511.47	0.00
511.64	91.28
511.82	11.70
511.99	81.92
512.17	77.24
512.34	105.32
512.51	93.62
512.69	37.45
512.86	105.32
513.04	86.60
513.21	126.39
513.38	37.45
513.56	4.68
513.73	16.38
513.90	42.13
514.08	81.92
514.25	46.81
514.43	46.81
514.60	100.64
514.77	28.09
514.95	35.11
515.12	42.13
515.29	32.77
515.47	72.56
515.64	72.56
515.81	84.26
515.99	95.96
516.16	79.58
516.33	88.94
516.51	58.51
516.68	35.11
516.85	18.72
517.03	0.00
517.20	114.69
517.37	124.05
517.54	95.96
517.72	86.60
517.89	39.79
518.06	79.58
518.24	98.30
518.41	112.35
518.58	102.98
518.75	86.60
518.93	91.28
519.10	42.13
519.27	175.54
519.45	163.84
519.62	53.83
519.79	46.81
519.96	95.96
520.14	126.39
520.31	74.90
520.48	93.62
520.65	51.49
520.83	117.03
521.00	110.01
521.17	25.75
521.34	70.22
521.52	51.49
521.69	126.39
521.86	37.45
522.03	35.11
522.20	100.64
522.38	110.01
522.55	121.71
522.72	65.54
522.89	77.24
523.07	98.30
523.24	7.02
523.41	49.15
523.58	110.01
523.75	65.54
523.92	117.03
524.10	114.69
524.27	67.88
524.44	110.01
524.61	112.35
524.78	145.11
524.96	105.32
525.13	51.49
525.30	154.48
525.47	95.96
525.64	77.24
525.81	110.01
525.98	142.77
526.16	74.90
526.33	56.17
526.50	77.24
526.67	107.66
526.84	84.26
527.01	100.64
527.18	63.19
527.36	149.79
527.53	147.45
527.70	131.07
527.87	91.28
528.04	70.22
528.21	131.07
528.38	79.58
528.55	63.19
528.72	60.85
528.89	67.88
529.07	39.79
529.24	65.54
529.41	86.60
529.58	63.19
529.75	60.85
529.92	95.96
530.09	91.28
530.26	133.41
530.43	93.62
530.60	37.45
530.77	77.24
530.94	72.56
531.11	84.26
531.28	72.56
531.46	93.62
531.63	131.07
531.80	67.88
531.97	7.02
532.14	124.05
532.31	56.17
532.48	77.24
532.65	121.71
532.82	81.92
532.99	102.98
533.16	135.75
533.33	56.17
533.50	131.07
533.67	110.01
533.84	51.49
534.01	86.60
534.18	25.75
534.35	72.56
534.52	79.58
534.69	88.94
534.86	67.88
535.03	46.81
535.20	124.05
535.37	42.13
535.54	156.82
535.71	74.90
535.88	63.19
536.05	88.94
536.22	117.03
536.38	86.60
536.55	138.09
536.72	100.64
536.89	0.00
537.06	49.15
537.23	84.26
537.40	128.73
537.57	149.79
537.74	32.77
537.91	133.41
538.08	140.43
538.25	79.58
538.42	131.07
538.59	77.24
538.75	107.66
538.92	32.77
539.09	98.30
539.26	56.17
539.43	166.18
539.60	56.17
539.77	77.24
539.94	100.64
540.11	145.11
540.28	196.60
540.44	65.54
540.61	126.39
540.78	107.66
540.95	121.71
541.12	77.24
541.29	53.83
541.46	84.26
541.62	112.35
541.79	65.54
541.96	56.17
542.13	49.15
542.30	98.30
542.47	65.54
542.63	37.45
542.80	65.54
542.97	140.43
543.14	49.15
543.31	114.69
543.48	98.30
543.64	102.98
543.81	42.13
543.98	56.17
544.15	95.96
544.32	112.35
544.48	72.56
544.65	58.51
544.82	58.51
544.99	53.83
545.16	67.88
545.32	42.13
545.49	72.56
545.66	105.32
545.83	72.56
546.00	60.85
546.16	91.28
546.33	107.66
546.50	65.54
546.67	114.69
546.83	46.81
547.00	98.30
547.17	135.75
547.34	95.96
547.50	100.64
547.67	84.26
547.84	107.66
548.00	91.28
548.17	56.17
548.34	70.22
548.51	23.41
548.67	124.05
548.84	145.11
549.01	84.26
549.18	63.19
549.34	196.60
549.51	128.73
549.68	58.51
549.84	86.60
550.01	98.30
550.18	126.39
550.34	98.30
550.51	77.24
550.68	74.90
550.84	79.58
551.01	74.90
551.18	72.56
551.34	184.90
551.51	37.45
551.68	60.85
551.84	128.73
552.01	126.39
552.18	119.37
552.34	46.81
552.51	149.79
552.68	58.51
552.84	138.09
553.01	74.90
553.18	60.85
553.34	51.49
553.51	81.92
553.67	95.96
553.84	156.82
554.01	105.32
554.17	100.64
554.34	128.73
554.51	30.43
554.67	42.13
554.84	112.35
555.00	51.49
555.17	124.05
555.33	86.60
555.50	110.01
555.67	70.22
555.83	107.66
556.00	105.32
556.16	145.11
556.33	86.60
556.50	35.11
556.66	102.98
556.83	39.79
556.99	46.81
557.16	114.69
557.32	98.30
557.49	107.66
557.65	98.30
557.82	39.79
557.98	67.88
558.15	81.92
558.32	107.66
558.48	72.56
558.65	70.22
558.81	7.02
558.98	95.96
559.14	77.24
559.31	95.96
559.47	58.51
559.64	9.36
559.80	67.88
559.97	60.85
560.13	60.85
560.30	67.88
560.46	81.92
560.63	135.75
560.79	37.45
560.96	51.49
561.12	156.82
561.29	105.32
561.45	60.85
561.61	35.11
561.78	74.90
561.94	74.90
562.11	65.54
562.27	98.30
562.44	84.26
562.60	102.98
562.77	0.00
562.93	42.13
563.10	88.94
563.26	60.85
563.42	79.58
563.59	58.51
563.75	70.22
563.92	102.98
564.08	0.00
564.24	53.83
564.41	32.77
564.57	72.56
564.74	32.77
564.90	25.75
565.07	131.07
565.23	65.54
565.39	128.73
565.56	51.49
565.72	112.35
565.88	102.98
566.05	79.58
566.21	135.75
566.38	102.98
566.54	121.71
566.70	88.94
566.87	105.32
567.03	77.24
567.19	100.64
567.36	60.85
567.52	88.94
567.68	65.54
567.85	105.32
568.01	88.94
568.17	56.17
568.34	39.79
568.50	11.70
568.66	86.60
568.83	49.15
568.99	37.45
569.15	72.56
569.32	79.58
569.48	79.58
569.64	124.05
569.81	72.56
569.97	117.03
570.13	107.66
570.30	58.51
570.46	42.13
570.62	11.70
570.78	88.94
570.95	60.85
571.11	121.71
571.27	84.26
571.43	72.56
571.60	114.69
571.76	74.90
571.92	18.72
572.09	86.60
572.25	79.58
572.41	88.94
572.57	60.85
572.74	81.92
572.90	46.81
573.06	72.56
573.22	44.47
573.38	95.96
573.55	142.77
573.71	56.17
573.87	140.43
574.03	95.96
574.20	58.51
574.36	95.96
574.52	84.26
574.68	117.03
574.84	100.64
575.01	53.83
575.17	126.39
575.33	112.35
575.49	121.71
575.65	119.37
575.82	0.00
575.98	72.56
576.14	65.54
576.30	124.05
576.46	93.62
576.62	81.92
576.79	49.15
576.95	100.64
577.11	110.01
577.27	67.88
577.43	140.43
577.59	112.35
577.75	60.85
577.92	100.64
578.08	7.02
578.24	70.22
578.40	140.43
578.56	210.65
578.72	49.15
578.88	67.88
579.04	98.30
579.21	105.32
579.37	86.60
579.53	81.92
579.69	77.24
579.85	105.32
580.01	23.41
580.17	70.22
580.33	124.05
580.49	65.54
580.65	84.26
580.82	107.66
580.98	81.92
581.14	65.54
581.30	95.96
581.46	114.69
581.62	65.54
581.78	79.58
581.94	86.60
582.10	74.90
582.26	37.45
582.42	58.51
582.58	11.70
582.74	72.56
582.90	58.51
583.06	121.71
583.22	86.60
583.38	105.32
583.54	67.88
583.70	102.98
583.86	138.09
584.02	70.22
584.18	138.09
584.34	131.07
584.50	72.56
584.66	154.48
584.82	74.90
584.98	88.94
585.14	86.60
585.30	23.41
585.46	25.75
585.62	60.85
585.78	56.17
585.94	72.56
586.10	30.43
586.26	32.77
586.42	135.75
586.58	110.01
586.74	51.49
586.90	39.79
587.06	117.03
587.22	63.19
587.38	119.37
587.54	44.47
587.70	39.79
587.86	56.17
588.02	60.85
588.18	191.92
588.34	46.81
588.49	60.85
588.65	35.11
588.81	93.62
588.97	2.34
589.13	42.13
589.29	56.17
589.45	135.75
589.61	23.41
589.77	65.54
589.93	112.35
590.08	4.68
590.24	72.56
590.40	102.98
590.56	79.58
590.72	93.62
590.88	28.09
591.04	30.43
591.20	0.00
591.35	91.28
591.51	126.39
591.67	100.64
591.83	39.79
591.99	95.96
592.15	37.45
592.31	67.88
592.46	74.90
592.62	152.13
592.78	98.30
592.94	42.13
593.10	93.62
593.26	74.90
593.41	65.54
593.57	95.96
593.73	4.68
593.89	121.71
594.05	46.81
594.20	56.17
594.36	49.15
594.52	56.17
594.68	44.47
594.84	39.79
594.99	88.94
595.15	77.24
595.31	53.83
595.47	67.88
595.62	39.79
595.78	58.51
595.94	107.66
596.10	77.24
596.25	126.39
596.41	65.54
596.57	35.11
596.73	32.77
596.88	102.98
597.04	65.54
597.20	23.41
597.36	128.73
597.51	88.94
597.67	0.00
597.83	135.75
597.99	70.22
598.14	60.85
598.30	70.22
598.46	98.30
598.61	86.60
598.77	65.54
598.93	7.02
599.09	23.41
599.24	105.32
599.40	91.28
599.56	58.51
599.71	81.92
599.87	74.90
600.03	114.69
600.18	119.37
600.34	60.85
600.50	166.18
600.65	91.28
600.81	79.58
600.97	105.32
601.12	18.72
601.28	93.62
601.44	91.28
601.59	84.26
601.75	128.73
601.91	9.36
602.06	95.96
602.22	7.02
602.37	131.07
602.53	142.77
602.69	98.30
602.84	60.85
603.00	2.34
603.16	30.43
603.31	0.00
603.47	156.82
603.62	100.64
603.78	86.60
603.94	79.58
604.09	42.13
604.25	119.37
604.40	65.54
604.56	88.94
604.71	117.03
604.87	51.49
605.03	100.64
605.18	110.01
605.34	77.24
605.49	58.51
605.65	65.54
605.80	95.96
605.96	74.90
606.12	0.00
606.27	0.00
606.43	21.06
606.58	93.62
606.74	37.45
606.89	30.43
607.05	102.98
607.20	65.54
607.36	56.17
607.51	30.43
607.67	25.75
607.82	7.02
607.98	72.56
608.13	88.94
608.29	42.13
608.44	56.17
608.60	100.64
608.75	63.19
608.91	53.83
609.06	18.72
609.22	81.92
609.37	58.51
609.53	53.83
609.68	95.96
609.84	86.60
609.99	117.03
610.15	51.49
610.30	84.26
610.46	95.96
610.61	65.54
610.76	107.66
610.92	88.94
611.07	128.73
611.23	102.98
611.38	84.26
611.54	23.41
611.69	30.43
611.84	46.81
612.00	63.19
612.15	81.92
612.31	44.47
612.46	93.62
612.62	4.68
612.77	140.43
612.92	81.92
613.08	107.66
613.23	98.30
613.39	53.83
613.54	51.49
613.69	25.75
613.85	58.51
614.00	79.58
614.15	95.96
614.31	30.43
614.46	21.06
614.62	95.96
614.77	18.72
614.92	138.09
615.08	86.60
615.23	42.13
615.38	49.15
615.54	16.38
615.69	63.19
615.84	32.77
616.00	42.13
616.15	51.49
616.30	60.85
616.46	70.22
616.61	28.09
616.76	70.22
616.92	138.09
617.07	58.51
617.22	4.68
617.37	37.45
617.53	72.56
617.68	53.83
617.83	4.68
617.99	11.70
618.14	56.17
618.29	0.00
618.45	135.75
618.60	25.75
618.75	77.24
618.90	98.30
619.06	58.51
619.21	30.43
619.36	0.00
619.51	42.13
619.67	42.13
619.82	81.92
619.97	42.13
620.12	93.62
620.28	56.17
620.43	53.83
620.58	4.68
620.73	163.84
620.89	88.94
621.04	60.85
621.19	81.92
621.34	18.72
621.49	25.75
621.65	88.94
621.80	107.66
621.95	56.17
622.10	23.41
622.25	84.26
622.41	37.45
622.56	112.35
622.71	0.00
622.86	46.81
623.01	58.51
623.16	0.00
623.32	56.17
623.47	25.75
623.62	32.77
623.77	42.13
623.92	112.35
624.07	121.71
624.23	51.49
624.38	70.22
624.53	86.60
624.68	30.43
624.83	114.69
624.98	39.79
625.13	105.32
625.29	72.56
625.44	79.58
625.59	142.77
625.74	63.19
625.89	21.06
626.04	0.00
626.19	63.19
626.34	46.81
626.49	149.79
626.65	42.13
626.80	30.43
626.95	21.06
627.10	56.17
627.25	53.83
627.40	32.77
627.55	39.79
627.70	88.94
627.85	37.45
628.00	14.04
628.15	67.88
628.30	46.81
628.45	77.24
628.60	67.88
628.76	39.79
628.91	60.85
629.06	58.51
629.21	81.92
629.36	88.94
629.51	70.22
629.66	14.04
629.81	49.15
629.96	39.79
630.11	93.62
630.26	117.03
630.41	88.94
630.56	86.60
630.71	124.05
630.86	63.19
631.01	0.00
631.16	58.51
631.31	0.00
631.46	100.64
631.61	72.56
631.76	86.60
631.91	21.06
632.06	114.69
632.21	74.90
632.36	102.98
632.51	42.13
632.66	39.79
632.81	65.54
632.96	86.60
633.10	74.90
633.25	119.37
633.40	49.15
633.55	35.11
633.70	81.92
633.85	51.49
634.00	0.00
634.15	7.02
634.30	42.13
634.45	142.77
634.60	56.17
634.75	100.64
634.90	30.43
635.05	102.98
635.19	25.75
635.34	0.00
635.49	16.38
635.64	107.66
635.79	81.92
635.94	84.26
636.09	58.51
636.24	102.98
636.39	56.17
636.53	0.00
636.68	79.58
636.83	102.98
636.98	58.51
637.13	70.22
637.28	28.09
637.43	124.05
637.57	0.00
637.72	79.58
637.87	128.73
638.02	39.79
638.17	79.58
638.32	67.88
638.46	35.11
638.61	119.37
638.76	79.58
638.91	102.98
639.06	86.60
639.20	81.92
639.35	86.60
639.50	72.56
639.65	81.92
639.80	100.64
639.94	79.58
640.09	119.37
640.24	60.85
640.39	35.11
640.54	88.94
640.68	25.75
640.83	42.13
640.98	67.88
641.13	35.11
641.27	0.00
641.42	4.68
641.57	18.72
641.72	14.04
641.86	70.22
642.01	84.26
642.16	35.11
642.31	128.73
642.45	42.13
642.60	53.83
642.75	58.51
642.90	42.13
643.04	93.62
643.19	105.32
643.34	42.13
643.48	14.04
643.63	51.49
643.78	84.26
643.93	79.58
644.07	105.32
644.22	18.72
644.37	0.00
644.51	25.75
644.66	42.13
644.81	0.00
644.95	95.96
645.10	65.54
645.25	37.45
645.39	63.19
645.54	4.68
645.69	4.68
645.83	0.00
645.98	0.00
646.13	114.69
646.27	56.17
646.42	63.19
646.57	35.11
646.71	51.49
646.86	58.51
647.00	53.83
647.15	81.92
647.30	53.83
647.44	16.38
647.59	46.81
647.74	0.00
647.88	74.90
648.03	91.28
648.17	74.90
648.32	14.04
648.47	93.62
648.61	39.79
648.76	51.49
648.90	79.58
649.05	46.81
649.20	77.24
649.34	60.85
649.49	65.54
649.63	98.30
649.78	63.19
649.92	67.88
650.07	35.11
650.21	11.70
650.36	53.83
650.51	0.00
650.65	35.11
650.80	16.38
650.94	0.00
651.09	53.83
651.23	56.17
651.38	35.11
651.52	72.56
651.67	7.02
651.81	114.69
651.96	70.22
652.10	25.75
652.25	46.81
652.39	77.24
652.54	0.00
652.68	53.83
652.83	46.81
652.97	72.56
653.12	77.24
653.26	56.17
653.41	93.62
653.55	30.43
653.70	18.72
653.84	88.94
653.99	37.45
654.13	32.77
654.27	14.04
654.42	100.64
654.56	135.75
654.71	107.66
654.85	9.36
655.00	37.45
655.14	4.68
655.29	39.79
655.43	0.00
655.57	93.62
655.72	56.17
655.86	35.11
656.01	67.88
656.15	72.56
656.30	37.45
656.44	11.70
656.58	14.04
656.73	63.19
656.87	0.00
657.01	56.17
657.16	9.36
657.30	63.19
657.45	63.19
657.59	23.41
657.73	79.58
657.88	79.58
658.02	119.37
658.16	60.85
658.31	65.54
658.45	42.13
658.60	16.38
658.74	16.38
658.88	100.64
659.03	145.11
659.17	51.49
659.31	98.30
659.46	35.11
659.60	35.11
659.74	18.72
659.89	53.83
660.03	88.94
660.17	63.19
660.32	88.94
660.46	58.51
660.60	65.54
660.74	0.00
660.89	16.38
661.03	112.35
661.17	35.11
661.32	131.07
661.46	194.26
661.60	72.56
661.74	128.73
661.89	53.83
662.03	16.38
662.17	21.06
662.31	102.98
662.46	16.38
662.60	63.19
662.74	79.58
662.88	65.54
663.03	53.83
663.17	84.26
663.31	44.47
663.45	9.36
663.60	49.15
663.74	79.58
663.88	32.77
664.02	0.00
664.17	44.47
664.31	51.49
664.45	32.77
664.59	60.85
664.73	112.35
664.88	35.11
665.02	2.34
665.16	49.15
665.30	79.58
665.44	53.83
665.59	0.00
665.73	49.15
665.87	44.47
666.01	65.54
666.15	2.34
666.29	0.00
666.44	53.83
666.58	44.47
666.72	28.09
666.86	86.60
667.00	16.38
667.14	0.00
667.28	91.28
667.43	25.75
667.57	37.45
667.71	128.73
667.85	0.00
667.99	28.09
668.13	46.81
668.27	2.34
668.41	60.85
668.56	53.83
668.70	32.77
668.84	49.15
668.98	60.85
669.12	81.92
669.26	60.85
669.40	0.00
669.54	56.17
669.68	49.15
669.82	93.62
669.96	56.17
670.10	16.38
670.25	39.79
670.39	67.88
670.53	74.90
670.67	135.75
670.81	0.00
670.95	0.00
671.09	46.81
671.23	49.15
671.37	63.19
671.51	114.69
671.65	9.36
671.79	46.81
671.93	58.51
672.07	79.58
672.21	117.03
672.35	23.41
672.49	0.00
672.63	0.00
672.77	0.00
672.91	79.58
673.05	91.28
673.19	9.36
673.33	67.88
673.47	133.41
673.61	70.22
673.75	2.34
673.89	145.11
674.03	60.85
674.17	9.36
674.31	39.79
674.45	84.26
674.59	51.49
674.73	0.00
674.87	16.38
675.01	37.45
675.15	25.75
675.29	44.47
675.43	84.26
675.56	0.00
675.70	23.41
675.84	0.00
675.98	2.34
676.12	16.38
676.26	63.19
676.40	72.56
676.54	65.54
676.68	51.49
676.82	42.13
676.96	21.06
677.10	79.58
677.23	72.56
677.37	42.13
677.51	28.09
677.65	49.15
677.79	77.24
677.93	42.13
678.07	37.45
678.21	23.41
678.34	60.85
678.48	0.00
678.62	56.17
678.76	53.83
678.90	60.85
679.04	0.00
679.18	0.00
679.31	72.56
679.45	77.24
679.59	0.00
679.73	77.24
679.87	11.70
680.00	35.11
680.14	0.00
680.28	46.81
680.42	86.60
680.56	30.43
680.70	131.07
680.83	84.26
680.97	2.34
681.11	42.13
681.25	79.58
681.39	25.75
681.52	65.54
681.66	21.06
681.80	74.90
681.94	79.58
682.07	49.15
682.21	102.98
682.35	86.60
682.49	28.09
682.62	49.15
682.76	140.43
682.90	58.51
683.04	11.70
683.17	77.24
683.31	14.04
683.45	91.28
683.59	21.06
683.72	30.43
683.86	49.15
684.00	65.54
684.13	65.54
684.27	95.96
684.41	28.09
684.55	14.04
684.68	112.35
684.82	0.00
684.96	56.17
685.09	133.41
685.23	67.88
685.37	32.77
685.50	37.45
685.64	53.83
685.78	110.01
685.91	86.60
686.05	42.13
686.19	21.06
686.32	46.81
686.46	102.98
686.60	128.73
686.73	14.04
686.87	21.06
687.01	0.00
687.14	58.51
687.28	65.54
687.42	14.04
687.55	60.85
687.69	79.58
687.82	0.00
687.96	0.00
688.10	4.68
688.23	79.58
688.37	72.56
688.50	35.11
688.64	35.11
688.78	30.43
688.91	0.00
689.05	0.00
689.18	21.06
689.32	93.62
689.46	14.04
689.59	126.39
689.73	60.85
689.86	9.36
690.00	88.94
690.13	25.75
690.27	25.75
690.41	65.54
690.54	42.13
690.68	56.17
690.81	37.45
690.95	25.75
691.08	110.01
691.22	16.38
691.35	28.09
691.49	46.81
691.62	35.11
691.76	14.04
691.89	32.77
692.03	49.15
692.16	0.00
692.30	35.11
692.43	58.51
692.57	39.79
692.70	65.54
692.84	70.22
692.97	65.54
693.11	46.81
693.24	0.00
693.38	44.47
693.51	30.43
693.65	0.00
693.78	14.04
693.92	79.58
694.05	51.49
694.19	51.49
694.32	32.77
694.45	98.30
694.59	110.01
694.72	72.56
694.86	79.58
694.99	63.19
695.13	46.81
695.26	23.41
695.39	30.43
695.53	67.88
695.66	51.49
695.80	0.00
695.93	4.68
696.07	117.03
696.20	88.94
696.33	14.04
696.47	37.45
696.60	93.62
696.73	0.00
696.87	30.43
697.00	74.90
697.14	11.70
697.27	25.75
697.40	42.13
697.54	16.38
697.67	0.00
697.80	70.22
697.94	53.83
698.07	67.88
698.21	35.11
698.34	30.43
698.47	60.85
698.61	0.00
698.74	37.45
698.87	9.36
699.01	18.72
699.14	88.94
699.27	35.11
699.40	0.00
699.54	21.06
699.67	9.36
699.80	23.41
699.94	0.00
700.07	74.90
700.20	9.36
700.34	51.49
700.47	0.00
700.60	67.88
700.73	70.22
700.87	18.72
701.00	0.00
701.13	2.34
701.26	86.60
701.40	0.00
701.53	93.62
701.66	0.00
701.79	60.85
701.93	58.51
702.06	63.19
702.19	35.11
702.32	39.79
702.46	0.00
702.59	53.83
702.72	32.77
702.85	16.38
702.99	0.00
703.12	58.51
703.25	74.90
703.38	42.13
703.51	53.83
703.65	18.72
703.78	126.39
703.91	0.00
704.04	86.60
704.17	21.06
704.31	72.56
704.44	42.13
704.57	18.72
704.70	0.00
704.83	105.32
704.96	63.19
705.10	112.35
705.23	58.51
>>>>>End Processed Spectral Data<<<<<
