SpectraSuite Data File
++++++++++++++++++++++++++++++++++++
Date: Fri Oct 04 12:13:25 GMT-05:00 2013
User: price-jones
Dark Spectrum Present: No
Reference Spectrum Present: No
Number of Sampled Component Spectra: 1
Spectrometers: USB2+H05261
Integration Time (usec): 10000 (USB2+H05261)
Spectra Averaged: 1 (USB2+H05261)
Boxcar Smoothing: 0 (USB2+H05261)
Correct for Electrical Dark: No (USB2+H05261)
Strobe/Lamp Enabled: No (USB2+H05261)
Correct for Detector Non-linearity: No (USB2+H05261)
Correct for Stray Light: No (USB2+H05261)
Number of Pixels in Processed Spectrum: 2048
>>>>>Begin Processed Spectral Data<<<<<
365.73	11.70
365.92	11.70
366.12	11.70
366.32	0.00
366.52	0.00
366.72	0.00
366.91	0.00
367.11	0.00
367.31	0.00
367.51	0.00
367.70	0.00
367.90	0.00
368.10	0.00
368.30	0.00
368.49	0.00
368.69	0.00
368.89	0.00
369.09	0.00
369.28	0.00
369.48	0.00
369.68	0.00
369.87	0.00
370.07	0.00
370.27	0.00
370.47	0.00
370.66	0.00
370.86	0.00
371.06	0.00
371.25	0.00
371.45	0.00
371.65	30.43
371.84	0.00
372.04	46.81
372.24	25.75
372.44	25.75
372.63	0.00
372.83	21.06
373.03	0.00
373.22	63.19
373.42	0.00
373.62	0.00
373.81	30.43
374.01	11.70
374.21	65.54
374.40	44.47
374.60	14.04
374.79	21.06
374.99	0.00
375.19	32.77
375.38	65.54
375.58	53.83
375.78	28.09
375.97	63.19
376.17	30.43
376.37	11.70
376.56	56.17
376.76	11.70
376.95	65.54
377.15	37.45
377.35	9.36
377.54	56.17
377.74	0.00
377.93	39.79
378.13	44.47
378.33	70.22
378.52	67.88
378.72	0.00
378.91	0.00
379.11	0.00
379.31	16.38
379.50	25.75
379.70	0.00
379.89	32.77
380.09	72.56
380.28	0.00
380.48	0.00
380.68	0.00
380.87	53.83
381.07	4.68
381.26	37.45
381.46	21.06
381.65	56.17
381.85	11.70
382.04	105.32
382.24	0.00
382.43	9.36
382.63	0.00
382.83	0.00
383.02	25.75
383.22	11.70
383.41	28.09
383.61	35.11
383.80	32.77
384.00	0.00
384.19	16.38
384.39	0.00
384.58	0.00
384.78	0.00
384.97	35.11
385.17	18.72
385.36	53.83
385.56	25.75
385.75	0.00
385.95	28.09
386.14	0.00
386.34	81.92
386.53	0.00
386.72	0.00
386.92	9.36
387.11	49.15
387.31	42.13
387.50	18.72
387.70	0.00
387.89	65.54
388.09	0.00
388.28	0.00
388.48	0.00
388.67	28.09
388.86	91.28
389.06	4.68
389.25	0.00
389.45	65.54
389.64	35.11
389.84	18.72
390.03	37.45
390.22	7.02
390.42	30.43
390.61	51.49
390.81	30.43
391.00	0.00
391.19	0.00
391.39	0.00
391.58	0.00
391.78	16.38
391.97	46.81
392.16	0.00
392.36	0.00
392.55	0.00
392.75	28.09
392.94	35.11
393.13	39.79
393.33	42.13
393.52	4.68
393.71	23.41
393.91	18.72
394.10	23.41
394.29	0.00
394.49	0.00
394.68	7.02
394.88	0.00
395.07	35.11
395.26	4.68
395.46	21.06
395.65	21.06
395.84	0.00
396.04	0.00
396.23	16.38
396.42	30.43
396.62	0.00
396.81	67.88
397.00	0.00
397.19	0.00
397.39	4.68
397.58	58.51
397.77	60.85
397.97	0.00
398.16	0.00
398.35	0.00
398.55	79.58
398.74	46.81
398.93	2.34
399.12	88.94
399.32	44.47
399.51	0.00
399.70	56.17
399.90	70.22
400.09	23.41
400.28	0.00
400.47	0.00
400.67	0.00
400.86	65.54
401.05	44.47
401.24	23.41
401.44	37.45
401.63	67.88
401.82	30.43
402.01	63.19
402.21	0.00
402.40	30.43
402.59	79.58
402.78	0.00
402.97	0.00
403.17	21.06
403.36	0.00
403.55	49.15
403.74	0.00
403.93	56.17
404.13	25.75
404.32	2.34
404.51	16.38
404.70	32.77
404.89	7.02
405.09	93.62
405.28	35.11
405.47	0.00
405.66	0.00
405.85	9.36
406.05	14.04
406.24	16.38
406.43	16.38
406.62	25.75
406.81	30.43
407.00	2.34
407.20	0.00
407.39	39.79
407.58	63.19
407.77	0.00
407.96	0.00
408.15	46.81
408.34	14.04
408.54	32.77
408.73	0.00
408.92	28.09
409.11	77.24
409.30	58.51
409.49	51.49
409.68	0.00
409.87	0.00
410.07	21.06
410.26	35.11
410.45	72.56
410.64	21.06
410.83	0.00
411.02	9.36
411.21	42.13
411.40	7.02
411.59	7.02
411.78	25.75
411.98	35.11
412.17	63.19
412.36	35.11
412.55	0.00
412.74	63.19
412.93	14.04
413.12	0.00
413.31	28.09
413.50	18.72
413.69	30.43
413.88	0.00
414.07	44.47
414.26	56.17
414.45	16.38
414.64	81.92
414.83	2.34
415.02	30.43
415.22	65.54
415.41	60.85
415.60	39.79
415.79	79.58
415.98	60.85
416.17	16.38
416.36	7.02
416.55	32.77
416.74	0.00
416.93	79.58
417.12	37.45
417.31	51.49
417.50	23.41
417.69	70.22
417.88	58.51
418.07	11.70
418.26	74.90
418.45	30.43
418.64	21.06
418.83	28.09
419.02	53.83
419.21	67.88
419.39	0.00
419.58	72.56
419.77	74.90
419.96	70.22
420.15	35.11
420.34	0.00
420.53	39.79
420.72	60.85
420.91	21.06
421.10	70.22
421.29	53.83
421.48	7.02
421.67	42.13
421.86	39.79
422.05	14.04
422.24	0.00
422.43	49.15
422.61	18.72
422.80	63.19
422.99	0.00
423.18	30.43
423.37	0.00
423.56	42.13
423.75	0.00
423.94	56.17
424.13	30.43
424.32	72.56
424.50	0.00
424.69	93.62
424.88	28.09
425.07	11.70
425.26	77.24
425.45	70.22
425.64	86.60
425.83	4.68
426.01	25.75
426.20	0.00
426.39	95.96
426.58	0.00
426.77	0.00
426.96	60.85
427.15	35.11
427.33	32.77
427.52	4.68
427.71	18.72
427.90	53.83
428.09	0.00
428.28	84.26
428.46	39.79
428.65	9.36
428.84	105.32
429.03	0.00
429.22	18.72
429.40	84.26
429.59	121.71
429.78	7.02
429.97	72.56
430.16	2.34
430.34	0.00
430.53	74.90
430.72	84.26
430.91	30.43
431.10	25.75
431.28	42.13
431.47	32.77
431.66	4.68
431.85	7.02
432.03	16.38
432.22	67.88
432.41	18.72
432.60	42.13
432.79	84.26
432.97	16.38
433.16	0.00
433.35	70.22
433.54	18.72
433.72	0.00
433.91	88.94
434.10	35.11
434.28	14.04
434.47	28.09
434.66	49.15
434.85	14.04
435.03	0.00
435.22	95.96
435.41	35.11
435.59	112.35
435.78	9.36
435.97	42.13
436.16	60.85
436.34	42.13
436.53	74.90
436.72	44.47
436.90	0.00
437.09	0.00
437.28	14.04
437.46	14.04
437.65	0.00
437.84	11.70
438.02	11.70
438.21	9.36
438.40	0.00
438.58	35.11
438.77	98.30
438.96	30.43
439.14	0.00
439.33	0.00
439.52	0.00
439.70	0.00
439.89	0.00
440.08	0.00
440.26	16.38
440.45	18.72
440.63	117.03
440.82	88.94
441.01	18.72
441.19	86.60
441.38	44.47
441.57	86.60
441.75	0.00
441.94	53.83
442.12	35.11
442.31	28.09
442.50	28.09
442.68	23.41
442.87	42.13
443.05	58.51
443.24	42.13
443.43	112.35
443.61	16.38
443.80	9.36
443.98	74.90
444.17	14.04
444.35	107.66
444.54	0.00
444.73	74.90
444.91	81.92
445.10	18.72
445.28	58.51
445.47	37.45
445.65	84.26
445.84	44.47
446.02	72.56
446.21	30.43
446.39	9.36
446.58	30.43
446.77	30.43
446.95	0.00
447.14	4.68
447.32	30.43
447.51	0.00
447.69	44.47
447.88	58.51
448.06	0.00
448.25	0.00
448.43	0.00
448.62	21.06
448.80	0.00
448.99	49.15
449.17	28.09
449.36	16.38
449.54	35.11
449.73	67.88
449.91	28.09
450.10	25.75
450.28	128.73
450.46	84.26
450.65	93.62
450.83	93.62
451.02	0.00
451.20	23.41
451.39	0.00
451.57	46.81
451.76	23.41
451.94	7.02
452.13	14.04
452.31	28.09
452.49	28.09
452.68	60.85
452.86	35.11
453.05	0.00
453.23	16.38
453.42	32.77
453.60	9.36
453.78	32.77
453.97	0.00
454.15	0.00
454.34	0.00
454.52	2.34
454.70	23.41
454.89	117.03
455.07	0.00
455.26	53.83
455.44	4.68
455.62	25.75
455.81	88.94
455.99	0.00
456.17	88.94
456.36	42.13
456.54	74.90
456.73	32.77
456.91	42.13
457.09	95.96
457.28	65.54
457.46	107.66
457.64	60.85
457.83	18.72
458.01	0.00
458.19	58.51
458.38	74.90
458.56	14.04
458.74	53.83
458.93	0.00
459.11	32.77
459.29	0.00
459.48	9.36
459.66	30.43
459.84	25.75
460.03	9.36
460.21	0.00
460.39	56.17
460.57	2.34
460.76	46.81
460.94	65.54
461.12	56.17
461.31	21.06
461.49	65.54
461.67	35.11
461.85	53.83
462.04	32.77
462.22	74.90
462.40	39.79
462.59	11.70
462.77	14.04
462.95	16.38
463.13	0.00
463.32	32.77
463.50	2.34
463.68	0.00
463.86	0.00
464.05	138.09
464.23	53.83
464.41	0.00
464.59	30.43
464.78	28.09
464.96	86.60
465.14	46.81
465.32	39.79
465.50	67.88
465.69	7.02
465.87	0.00
466.05	9.36
466.23	11.70
466.41	0.00
466.60	44.47
466.78	39.79
466.96	0.00
467.14	23.41
467.32	0.00
467.51	0.00
467.69	0.00
467.87	9.36
468.05	32.77
468.23	25.75
468.41	11.70
468.60	4.68
468.78	65.54
468.96	100.64
469.14	16.38
469.32	16.38
469.50	28.09
469.69	0.00
469.87	70.22
470.05	2.34
470.23	9.36
470.41	51.49
470.59	44.47
470.77	30.43
470.95	9.36
471.14	49.15
471.32	72.56
471.50	56.17
471.68	51.49
471.86	25.75
472.04	32.77
472.22	51.49
472.40	0.00
472.58	65.54
472.77	58.51
472.95	7.02
473.13	102.98
473.31	67.88
473.49	14.04
473.67	16.38
473.85	65.54
474.03	84.26
474.21	60.85
474.39	2.34
474.57	58.51
474.75	39.79
474.93	63.19
475.12	21.06
475.30	28.09
475.48	30.43
475.66	35.11
475.84	63.19
476.02	67.88
476.20	0.00
476.38	39.79
476.56	0.00
476.74	0.00
476.92	23.41
477.10	63.19
477.28	56.17
477.46	4.68
477.64	35.11
477.82	0.00
478.00	9.36
478.18	21.06
478.36	98.30
478.54	42.13
478.72	39.79
478.90	28.09
479.08	9.36
479.26	51.49
479.44	98.30
479.62	84.26
479.80	0.00
479.98	145.11
480.16	37.45
480.34	77.24
480.52	70.22
480.70	74.90
480.88	0.00
481.06	100.64
481.24	4.68
481.41	46.81
481.59	51.49
481.77	7.02
481.95	30.43
482.13	30.43
482.31	56.17
482.49	0.00
482.67	7.02
482.85	98.30
483.03	60.85
483.21	53.83
483.39	32.77
483.57	70.22
483.74	39.79
483.92	37.45
484.10	25.75
484.28	16.38
484.46	2.34
484.64	0.00
484.82	4.68
485.00	0.00
485.18	4.68
485.35	0.00
485.53	28.09
485.71	42.13
485.89	9.36
486.07	25.75
486.25	51.49
486.43	0.00
486.61	32.77
486.78	74.90
486.96	84.26
487.14	79.58
487.32	72.56
487.50	23.41
487.68	119.37
487.85	9.36
488.03	0.00
488.21	84.26
488.39	37.45
488.57	0.00
488.75	0.00
488.92	51.49
489.10	37.45
489.28	65.54
489.46	98.30
489.64	42.13
489.81	30.43
489.99	23.41
490.17	0.00
490.35	23.41
490.53	58.51
490.70	11.70
490.88	81.92
491.06	23.41
491.24	35.11
491.41	23.41
491.59	70.22
491.77	72.56
491.95	63.19
492.13	30.43
492.30	4.68
492.48	4.68
492.66	67.88
492.84	46.81
493.01	42.13
493.19	46.81
493.37	67.88
493.54	14.04
493.72	42.13
493.90	65.54
494.08	16.38
494.25	67.88
494.43	49.15
494.61	14.04
494.79	35.11
494.96	11.70
495.14	81.92
495.32	32.77
495.49	49.15
495.67	49.15
495.85	14.04
496.02	102.98
496.20	23.41
496.38	0.00
496.55	11.70
496.73	79.58
496.91	0.00
497.09	0.00
497.26	0.00
497.44	11.70
497.62	88.94
497.79	9.36
497.97	100.64
498.14	91.28
498.32	25.75
498.50	37.45
498.67	21.06
498.85	32.77
499.03	0.00
499.20	46.81
499.38	32.77
499.56	88.94
499.73	42.13
499.91	53.83
500.08	0.00
500.26	0.00
500.44	23.41
500.61	65.54
500.79	0.00
500.97	58.51
501.14	0.00
501.32	44.47
501.49	70.22
501.67	16.38
501.84	58.51
502.02	16.38
502.20	32.77
502.37	0.00
502.55	4.68
502.72	0.00
502.90	51.49
503.07	35.11
503.25	42.13
503.43	2.34
503.60	58.51
503.78	0.00
503.95	93.62
504.13	46.81
504.30	11.70
504.48	93.62
504.65	102.98
504.83	42.13
505.01	32.77
505.18	7.02
505.36	32.77
505.53	25.75
505.71	107.66
505.88	74.90
506.06	91.28
506.23	16.38
506.41	121.71
506.58	91.28
506.76	42.13
506.93	44.47
507.11	0.00
507.28	4.68
507.46	23.41
507.63	0.00
507.81	0.00
507.98	51.49
508.16	46.81
508.33	58.51
508.50	7.02
508.68	46.81
508.85	93.62
509.03	63.19
509.20	44.47
509.38	53.83
509.55	58.51
509.73	18.72
509.90	0.00
510.08	88.94
510.25	42.13
510.42	0.00
510.60	95.96
510.77	53.83
510.95	53.83
511.12	35.11
511.30	60.85
511.47	51.49
511.64	58.51
511.82	74.90
511.99	14.04
512.17	114.69
512.34	60.85
512.51	95.96
512.69	60.85
512.86	14.04
513.04	28.09
513.21	0.00
513.38	46.81
513.56	42.13
513.73	32.77
513.90	93.62
514.08	39.79
514.25	67.88
514.43	46.81
514.60	39.79
514.77	42.13
514.95	0.00
515.12	0.00
515.29	37.45
515.47	49.15
515.64	0.00
515.81	65.54
515.99	95.96
516.16	44.47
516.33	60.85
516.51	0.00
516.68	0.00
516.85	35.11
517.03	37.45
517.20	91.28
517.37	60.85
517.54	65.54
517.72	112.35
517.89	0.00
518.06	23.41
518.24	56.17
518.41	42.13
518.58	60.85
518.75	102.98
518.93	53.83
519.10	0.00
519.27	79.58
519.45	9.36
519.62	0.00
519.79	0.00
519.96	77.24
520.14	0.00
520.31	7.02
520.48	0.00
520.65	56.17
520.83	2.34
521.00	67.88
521.17	79.58
521.34	72.56
521.52	49.15
521.69	60.85
521.86	28.09
522.03	46.81
522.20	86.60
522.38	0.00
522.55	63.19
522.72	0.00
522.89	46.81
523.07	84.26
523.24	23.41
523.41	30.43
523.58	37.45
523.75	58.51
523.92	51.49
524.10	39.79
524.27	35.11
524.44	56.17
524.61	37.45
524.78	44.47
524.96	32.77
525.13	56.17
525.30	58.51
525.47	70.22
525.64	60.85
525.81	28.09
525.98	25.75
526.16	44.47
526.33	23.41
526.50	53.83
526.67	0.00
526.84	23.41
527.01	25.75
527.18	35.11
527.36	18.72
527.53	16.38
527.70	63.19
527.87	14.04
528.04	77.24
528.21	0.00
528.38	88.94
528.55	0.00
528.72	0.00
528.89	56.17
529.07	42.13
529.24	37.45
529.41	72.56
529.58	53.83
529.75	35.11
529.92	60.85
530.09	86.60
530.26	23.41
530.43	60.85
530.60	0.00
530.77	9.36
530.94	77.24
531.11	0.00
531.28	65.54
531.46	46.81
531.63	56.17
531.80	63.19
531.97	16.38
532.14	56.17
532.31	77.24
532.48	35.11
532.65	16.38
532.82	37.45
532.99	60.85
533.16	51.49
533.33	79.58
533.50	0.00
533.67	21.06
533.84	46.81
534.01	32.77
534.18	79.58
534.35	44.47
534.52	84.26
534.69	0.00
534.86	42.13
535.03	105.32
535.20	25.75
535.37	0.00
535.54	84.26
535.71	95.96
535.88	44.47
536.05	16.38
536.22	28.09
536.38	0.00
536.55	67.88
536.72	9.36
536.89	4.68
537.06	21.06
537.23	37.45
537.40	74.90
537.57	42.13
537.74	58.51
537.91	32.77
538.08	18.72
538.25	51.49
538.42	46.81
538.59	102.98
538.75	44.47
538.92	121.71
539.09	32.77
539.26	72.56
539.43	21.06
539.60	0.00
539.77	58.51
539.94	53.83
540.11	21.06
540.28	88.94
540.44	0.00
540.61	23.41
540.78	56.17
540.95	65.54
541.12	53.83
541.29	49.15
541.46	11.70
541.62	30.43
541.79	30.43
541.96	42.13
542.13	67.88
542.30	42.13
542.47	23.41
542.63	91.28
542.80	138.09
542.97	35.11
543.14	18.72
543.31	0.00
543.48	9.36
543.64	14.04
543.81	58.51
543.98	0.00
544.15	9.36
544.32	0.00
544.48	25.75
544.65	28.09
544.82	0.00
544.99	0.00
545.16	25.75
545.32	37.45
545.49	67.88
545.66	25.75
545.83	0.00
546.00	77.24
546.16	37.45
546.33	0.00
546.50	16.38
546.67	100.64
546.83	77.24
547.00	0.00
547.17	11.70
547.34	7.02
547.50	11.70
547.67	0.00
547.84	35.11
548.00	0.00
548.17	39.79
548.34	30.43
548.51	58.51
548.67	2.34
548.84	77.24
549.01	49.15
549.18	49.15
549.34	0.00
549.51	42.13
549.68	46.81
549.84	65.54
550.01	67.88
550.18	28.09
550.34	49.15
550.51	81.92
550.68	7.02
550.84	67.88
551.01	18.72
551.18	30.43
551.34	58.51
551.51	2.34
551.68	0.00
551.84	88.94
552.01	67.88
552.18	0.00
552.34	25.75
552.51	18.72
552.68	0.00
552.84	2.34
553.01	0.00
553.18	58.51
553.34	51.49
553.51	74.90
553.67	18.72
553.84	53.83
554.01	25.75
554.17	51.49
554.34	4.68
554.51	0.00
554.67	4.68
554.84	30.43
555.00	44.47
555.17	46.81
555.33	35.11
555.50	42.13
555.67	0.00
555.83	30.43
556.00	100.64
556.16	30.43
556.33	42.13
556.50	37.45
556.66	14.04
556.83	39.79
556.99	60.85
557.16	37.45
557.32	35.11
557.49	25.75
557.65	49.15
557.82	60.85
557.98	30.43
558.15	0.00
558.32	28.09
558.48	32.77
558.65	7.02
558.81	86.60
558.98	60.85
559.14	60.85
559.31	95.96
559.47	7.02
559.64	91.28
559.80	110.01
559.97	28.09
560.13	42.13
560.30	14.04
560.46	81.92
560.63	63.19
560.79	84.26
560.96	32.77
561.12	0.00
561.29	77.24
561.45	25.75
561.61	44.47
561.78	63.19
561.94	56.17
562.11	84.26
562.27	86.60
562.44	65.54
562.60	63.19
562.77	16.38
562.93	0.00
563.10	81.92
563.26	44.47
563.42	102.98
563.59	46.81
563.75	0.00
563.92	37.45
564.08	53.83
564.24	16.38
564.41	42.13
564.57	133.41
564.74	56.17
564.90	0.00
565.07	74.90
565.23	0.00
565.39	0.00
565.56	14.04
565.72	32.77
565.88	67.88
566.05	63.19
566.21	56.17
566.38	56.17
566.54	58.51
566.70	58.51
566.87	56.17
567.03	81.92
567.19	9.36
567.36	0.00
567.52	60.85
567.68	2.34
567.85	16.38
568.01	49.15
568.17	37.45
568.34	23.41
568.50	0.00
568.66	44.47
568.83	98.30
568.99	14.04
569.15	0.00
569.32	70.22
569.48	42.13
569.64	39.79
569.81	2.34
569.97	28.09
570.13	4.68
570.30	60.85
570.46	16.38
570.62	0.00
570.78	32.77
570.95	4.68
571.11	23.41
571.27	70.22
571.43	0.00
571.60	53.83
571.76	74.90
571.92	30.43
572.09	23.41
572.25	0.00
572.41	114.69
572.57	53.83
572.74	28.09
572.90	100.64
573.06	0.00
573.22	0.00
573.38	51.49
573.55	0.00
573.71	23.41
573.87	11.70
574.03	35.11
574.20	0.00
574.36	56.17
574.52	88.94
574.68	124.05
574.84	4.68
575.01	93.62
575.17	0.00
575.33	63.19
575.49	0.00
575.65	11.70
575.82	0.00
575.98	49.15
576.14	0.00
576.30	32.77
576.46	7.02
576.62	28.09
576.79	0.00
576.95	32.77
577.11	25.75
577.27	11.70
577.43	11.70
577.59	30.43
577.75	102.98
577.92	39.79
578.08	100.64
578.24	39.79
578.40	70.22
578.56	30.43
578.72	35.11
578.88	67.88
579.04	7.02
579.21	28.09
579.37	0.00
579.53	37.45
579.69	42.13
579.85	2.34
580.01	37.45
580.17	0.00
580.33	53.83
580.49	72.56
580.65	131.07
580.82	39.79
580.98	16.38
581.14	14.04
581.30	42.13
581.46	11.70
581.62	0.00
581.78	30.43
581.94	0.00
582.10	9.36
582.26	35.11
582.42	77.24
582.58	14.04
582.74	0.00
582.90	70.22
583.06	65.54
583.22	65.54
583.38	32.77
583.54	9.36
583.70	46.81
583.86	11.70
584.02	93.62
584.18	51.49
584.34	65.54
584.50	37.45
584.66	79.58
584.82	79.58
584.98	53.83
585.14	0.00
585.30	11.70
585.46	0.00
585.62	39.79
585.78	7.02
585.94	58.51
586.10	37.45
586.26	95.96
586.42	53.83
586.58	0.00
586.74	23.41
586.90	53.83
587.06	35.11
587.22	30.43
587.38	25.75
587.54	0.00
587.70	28.09
587.86	35.11
588.02	0.00
588.18	84.26
588.34	49.15
588.49	37.45
588.65	79.58
588.81	0.00
588.97	0.00
589.13	37.45
589.29	0.00
589.45	46.81
589.61	37.45
589.77	102.98
589.93	0.00
590.08	74.90
590.24	25.75
590.40	37.45
590.56	86.60
590.72	4.68
590.88	28.09
591.04	79.58
591.20	14.04
591.35	39.79
591.51	72.56
591.67	46.81
591.83	119.37
591.99	56.17
592.15	156.82
592.31	32.77
592.46	25.75
592.62	0.00
592.78	35.11
592.94	4.68
593.10	65.54
593.26	65.54
593.41	0.00
593.57	60.85
593.73	16.38
593.89	0.00
594.05	35.11
594.20	14.04
594.36	49.15
594.52	46.81
594.68	7.02
594.84	63.19
594.99	46.81
595.15	0.00
595.31	51.49
595.47	4.68
595.62	65.54
595.78	4.68
595.94	58.51
596.10	2.34
596.25	58.51
596.41	0.00
596.57	65.54
596.73	14.04
596.88	37.45
597.04	0.00
597.20	0.00
597.36	51.49
597.51	65.54
597.67	39.79
597.83	42.13
597.99	21.06
598.14	51.49
598.30	74.90
598.46	25.75
598.61	16.38
598.77	58.51
598.93	21.06
599.09	7.02
599.24	72.56
599.40	49.15
599.56	84.26
599.71	0.00
599.87	46.81
600.03	0.00
600.18	70.22
600.34	28.09
600.50	23.41
600.65	0.00
600.81	39.79
600.97	14.04
601.12	65.54
601.28	86.60
601.44	51.49
601.59	65.54
601.75	63.19
601.91	25.75
602.06	0.00
602.22	35.11
602.37	74.90
602.53	23.41
602.69	39.79
602.84	0.00
603.00	35.11
603.16	102.98
603.31	21.06
603.47	44.47
603.62	46.81
603.78	39.79
603.94	0.00
604.09	11.70
604.25	0.00
604.40	110.01
604.56	39.79
604.71	98.30
604.87	84.26
605.03	42.13
605.18	91.28
605.34	65.54
605.49	16.38
605.65	102.98
605.80	25.75
605.96	81.92
606.12	0.00
606.27	65.54
606.43	21.06
606.58	60.85
606.74	0.00
606.89	56.17
607.05	0.00
607.20	37.45
607.36	32.77
607.51	81.92
607.67	93.62
607.82	46.81
607.98	0.00
608.13	28.09
608.29	81.92
608.44	0.00
608.60	37.45
608.75	0.00
608.91	32.77
609.06	84.26
609.22	37.45
609.37	51.49
609.53	0.00
609.68	4.68
609.84	65.54
609.99	9.36
610.15	79.58
610.30	117.03
610.46	7.02
610.61	0.00
610.76	11.70
610.92	77.24
611.07	0.00
611.23	0.00
611.38	2.34
611.54	105.32
611.69	0.00
611.84	49.15
612.00	93.62
612.15	9.36
612.31	18.72
612.46	0.00
612.62	72.56
612.77	56.17
612.92	70.22
613.08	18.72
613.23	28.09
613.39	14.04
613.54	25.75
613.69	0.00
613.85	0.00
614.00	0.00
614.15	0.00
614.31	32.77
614.46	35.11
614.62	18.72
614.77	51.49
614.92	46.81
615.08	11.70
615.23	7.02
615.38	53.83
615.54	0.00
615.69	51.49
615.84	88.94
616.00	93.62
616.15	32.77
616.30	14.04
616.46	0.00
616.61	72.56
616.76	72.56
616.92	11.70
617.07	37.45
617.22	60.85
617.37	7.02
617.53	0.00
617.68	65.54
617.83	95.96
617.99	0.00
618.14	30.43
618.29	18.72
618.45	0.00
618.60	35.11
618.75	0.00
618.90	35.11
619.06	63.19
619.21	7.02
619.36	51.49
619.51	16.38
619.67	0.00
619.82	7.02
619.97	21.06
620.12	88.94
620.28	72.56
620.43	72.56
620.58	25.75
620.73	16.38
620.89	23.41
621.04	0.00
621.19	49.15
621.34	39.79
621.49	30.43
621.65	51.49
621.80	58.51
621.95	32.77
622.10	0.00
622.25	2.34
622.41	28.09
622.56	49.15
622.71	70.22
622.86	51.49
623.01	46.81
623.16	9.36
623.32	114.69
623.47	39.79
623.62	0.00
623.77	2.34
623.92	21.06
624.07	49.15
624.23	37.45
624.38	0.00
624.53	4.68
624.68	30.43
624.83	119.37
624.98	42.13
625.13	21.06
625.29	58.51
625.44	0.00
625.59	37.45
625.74	84.26
625.89	0.00
626.04	65.54
626.19	7.02
626.34	0.00
626.49	28.09
626.65	39.79
626.80	4.68
626.95	25.75
627.10	35.11
627.25	0.00
627.40	0.00
627.55	0.00
627.70	30.43
627.85	37.45
628.00	51.49
628.15	32.77
628.30	56.17
628.45	65.54
628.60	0.00
628.76	86.60
628.91	9.36
629.06	28.09
629.21	53.83
629.36	35.11
629.51	11.70
629.66	4.68
629.81	0.00
629.96	51.49
630.11	42.13
630.26	0.00
630.41	28.09
630.56	16.38
630.71	49.15
630.86	30.43
631.01	93.62
631.16	28.09
631.31	4.68
631.46	58.51
631.61	74.90
631.76	7.02
631.91	135.75
632.06	58.51
632.21	51.49
632.36	58.51
632.51	98.30
632.66	81.92
632.81	0.00
632.96	0.00
633.10	67.88
633.25	51.49
633.40	0.00
633.55	14.04
633.70	79.58
633.85	77.24
634.00	60.85
634.15	16.38
634.30	32.77
634.45	0.00
634.60	0.00
634.75	9.36
634.90	0.00
635.05	46.81
635.19	18.72
635.34	65.54
635.49	119.37
635.64	53.83
635.79	0.00
635.94	0.00
636.09	0.00
636.24	23.41
636.39	81.92
636.53	18.72
636.68	72.56
636.83	84.26
636.98	32.77
637.13	32.77
637.28	0.00
637.43	37.45
637.57	42.13
637.72	95.96
637.87	25.75
638.02	58.51
638.17	11.70
638.32	18.72
638.46	60.85
638.61	25.75
638.76	37.45
638.91	51.49
639.06	11.70
639.20	114.69
639.35	0.00
639.50	0.00
639.65	28.09
639.80	67.88
639.94	32.77
640.09	70.22
640.24	110.01
640.39	44.47
640.54	65.54
640.68	49.15
640.83	11.70
640.98	42.13
641.13	44.47
641.27	60.85
641.42	81.92
641.57	67.88
641.72	86.60
641.86	79.58
642.01	65.54
642.16	21.06
642.31	49.15
642.45	93.62
642.60	0.00
642.75	128.73
642.90	37.45
643.04	7.02
643.19	30.43
643.34	93.62
643.48	28.09
643.63	42.13
643.78	63.19
643.93	18.72
644.07	0.00
644.22	74.90
644.37	0.00
644.51	60.85
644.66	32.77
644.81	63.19
644.95	70.22
645.10	42.13
645.25	0.00
645.39	25.75
645.54	72.56
645.69	67.88
645.83	0.00
645.98	91.28
646.13	35.11
646.27	37.45
646.42	58.51
646.57	0.00
646.71	91.28
646.86	46.81
647.00	39.79
647.15	72.56
647.30	23.41
647.44	32.77
647.59	79.58
647.74	25.75
647.88	11.70
648.03	37.45
648.17	39.79
648.32	23.41
648.47	25.75
648.61	46.81
648.76	46.81
648.90	0.00
649.05	65.54
649.20	79.58
649.34	2.34
649.49	23.41
649.63	0.00
649.78	30.43
649.92	9.36
650.07	0.00
650.21	56.17
650.36	25.75
650.51	0.00
650.65	44.47
650.80	0.00
650.94	30.43
651.09	0.00
651.23	4.68
651.38	44.47
651.52	7.02
651.67	37.45
651.81	42.13
651.96	88.94
652.10	32.77
652.25	51.49
652.39	0.00
652.54	65.54
652.68	2.34
652.83	18.72
652.97	25.75
653.12	39.79
653.26	23.41
653.41	0.00
653.55	4.68
653.70	0.00
653.84	84.26
653.99	18.72
654.13	0.00
654.27	42.13
654.42	65.54
654.56	0.00
654.71	74.90
654.85	44.47
655.00	0.00
655.14	0.00
655.29	9.36
655.43	21.06
655.57	11.70
655.72	46.81
655.86	0.00
656.01	0.00
656.15	9.36
656.30	39.79
656.44	102.98
656.58	9.36
656.73	14.04
656.87	0.00
657.01	51.49
657.16	58.51
657.30	65.54
657.45	93.62
657.59	49.15
657.73	11.70
657.88	67.88
658.02	37.45
658.16	0.00
658.31	0.00
658.45	0.00
658.60	39.79
658.74	0.00
658.88	2.34
659.03	2.34
659.17	79.58
659.31	25.75
659.46	23.41
659.60	21.06
659.74	9.36
659.89	51.49
660.03	37.45
660.17	35.11
660.32	18.72
660.46	49.15
660.60	95.96
660.74	0.00
660.89	0.00
661.03	32.77
661.17	44.47
661.32	0.00
661.46	51.49
661.60	74.90
661.74	7.02
661.89	60.85
662.03	77.24
662.17	74.90
662.31	14.04
662.46	35.11
662.60	0.00
662.74	88.94
662.88	0.00
663.03	65.54
663.17	72.56
663.31	37.45
663.45	0.00
663.60	28.09
663.74	25.75
663.88	21.06
664.02	67.88
664.17	0.00
664.31	11.70
664.45	79.58
664.59	128.73
664.73	32.77
664.88	67.88
665.02	72.56
665.16	2.34
665.30	0.00
665.44	0.00
665.59	53.83
665.73	0.00
665.87	2.34
666.01	46.81
666.15	0.00
666.29	30.43
666.44	79.58
666.58	0.00
666.72	46.81
666.86	0.00
667.00	95.96
667.14	16.38
667.28	42.13
667.43	0.00
667.57	112.35
667.71	81.92
667.85	30.43
667.99	0.00
668.13	63.19
668.27	25.75
668.41	58.51
668.56	32.77
668.70	16.38
668.84	70.22
668.98	0.00
669.12	56.17
669.26	4.68
669.40	35.11
669.54	25.75
669.68	23.41
669.82	9.36
669.96	58.51
670.10	35.11
670.25	30.43
670.39	35.11
670.53	39.79
670.67	51.49
670.81	30.43
670.95	11.70
671.09	11.70
671.23	39.79
671.37	25.75
671.51	0.00
671.65	18.72
671.79	44.47
671.93	0.00
672.07	74.90
672.21	0.00
672.35	28.09
672.49	81.92
672.63	4.68
672.77	0.00
672.91	0.00
673.05	0.00
673.19	39.79
673.33	63.19
673.47	0.00
673.61	67.88
673.75	93.62
673.89	53.83
674.03	9.36
674.17	32.77
674.31	0.00
674.45	42.13
674.59	44.47
674.73	0.00
674.87	28.09
675.01	18.72
675.15	25.75
675.29	46.81
675.43	35.11
675.56	44.47
675.70	67.88
675.84	32.77
675.98	0.00
676.12	4.68
676.26	37.45
676.40	39.79
676.54	60.85
676.68	25.75
676.82	44.47
676.96	88.94
677.10	9.36
677.23	7.02
677.37	65.54
677.51	88.94
677.65	44.47
677.79	102.98
677.93	74.90
678.07	32.77
678.21	86.60
678.34	39.79
678.48	35.11
678.62	58.51
678.76	0.00
678.90	9.36
679.04	32.77
679.18	23.41
679.31	28.09
679.45	0.00
679.59	77.24
679.73	0.00
679.87	0.00
680.00	49.15
680.14	44.47
680.28	0.00
680.42	114.69
680.56	60.85
680.70	63.19
680.83	70.22
680.97	0.00
681.11	0.00
681.25	56.17
681.39	37.45
681.52	49.15
681.66	0.00
681.80	58.51
681.94	53.83
682.07	11.70
682.21	23.41
682.35	0.00
682.49	49.15
682.62	18.72
682.76	53.83
682.90	53.83
683.04	65.54
683.17	39.79
683.31	49.15
683.45	53.83
683.59	0.00
683.72	11.70
683.86	53.83
684.00	67.88
684.13	23.41
684.27	86.60
684.41	0.00
684.55	11.70
684.68	0.00
684.82	23.41
684.96	0.00
685.09	0.00
685.23	9.36
685.37	23.41
685.50	51.49
685.64	2.34
685.78	51.49
685.91	18.72
686.05	7.02
686.19	28.09
686.32	70.22
686.46	37.45
686.60	35.11
686.73	79.58
686.87	0.00
687.01	18.72
687.14	39.79
687.28	0.00
687.42	100.64
687.55	4.68
687.69	32.77
687.82	7.02
687.96	7.02
688.10	30.43
688.23	4.68
688.37	0.00
688.50	74.90
688.64	30.43
688.78	0.00
688.91	30.43
689.05	46.81
689.18	72.56
689.32	74.90
689.46	65.54
689.59	35.11
689.73	63.19
689.86	0.00
690.00	18.72
690.13	39.79
690.27	46.81
690.41	72.56
690.54	95.96
690.68	77.24
690.81	11.70
690.95	28.09
691.08	49.15
691.22	126.39
691.35	98.30
691.49	0.00
691.62	0.00
691.76	0.00
691.89	46.81
692.03	25.75
692.16	0.00
692.30	39.79
692.43	18.72
692.57	0.00
692.70	46.81
692.84	23.41
692.97	88.94
693.11	37.45
693.24	131.07
693.38	4.68
693.51	0.00
693.65	9.36
693.78	65.54
693.92	42.13
694.05	72.56
694.19	9.36
694.32	74.90
694.45	86.60
694.59	60.85
694.72	60.85
694.86	25.75
694.99	42.13
695.13	93.62
695.26	67.88
695.39	16.38
695.53	42.13
695.66	28.09
695.80	16.38
695.93	0.00
696.07	0.00
696.20	0.00
696.33	2.34
696.47	7.02
696.60	0.00
696.73	74.90
696.87	16.38
697.00	86.60
697.14	0.00
697.27	0.00
697.40	25.75
697.54	37.45
697.67	44.47
697.80	39.79
697.94	11.70
698.07	46.81
698.21	7.02
698.34	7.02
698.47	25.75
698.61	0.00
698.74	72.56
698.87	32.77
699.01	53.83
699.14	117.03
699.27	67.88
699.40	58.51
699.54	37.45
699.67	0.00
699.80	7.02
699.94	49.15
700.07	2.34
700.20	70.22
700.34	74.90
700.47	93.62
700.60	0.00
700.73	0.00
700.87	46.81
701.00	4.68
701.13	42.13
701.26	53.83
701.40	0.00
701.53	0.00
701.66	67.88
701.79	21.06
701.93	67.88
702.06	91.28
702.19	0.00
702.32	98.30
702.46	2.34
702.59	60.85
702.72	0.00
702.85	51.49
702.99	0.00
703.12	9.36
703.25	32.77
703.38	39.79
703.51	37.45
703.65	39.79
703.78	70.22
703.91	67.88
704.04	70.22
704.17	0.00
704.31	25.75
704.44	0.00
704.57	0.00
704.70	28.09
704.83	88.94
704.96	35.11
705.10	11.70
705.23	4.68
>>>>>End Processed Spectral Data<<<<<
