SpectraSuite Data File
++++++++++++++++++++++++++++++++++++
Date: Fri Oct 04 12:13:39 GMT-05:00 2013
User: price-jones
Dark Spectrum Present: No
Reference Spectrum Present: No
Number of Sampled Component Spectra: 1
Spectrometers: USB2+H05261
Integration Time (usec): 10000 (USB2+H05261)
Spectra Averaged: 1 (USB2+H05261)
Boxcar Smoothing: 0 (USB2+H05261)
Correct for Electrical Dark: No (USB2+H05261)
Strobe/Lamp Enabled: No (USB2+H05261)
Correct for Detector Non-linearity: No (USB2+H05261)
Correct for Stray Light: No (USB2+H05261)
Number of Pixels in Processed Spectrum: 2048
>>>>>Begin Processed Spectral Data<<<<<
365.73	16.38
365.92	16.38
366.12	16.38
366.32	0.00
366.52	0.00
366.72	0.00
366.91	0.00
367.11	0.00
367.31	0.00
367.51	0.00
367.70	0.00
367.90	0.00
368.10	0.00
368.30	0.00
368.49	0.00
368.69	0.00
368.89	0.00
369.09	0.00
369.28	0.00
369.48	0.00
369.68	0.00
369.87	0.00
370.07	0.00
370.27	0.00
370.47	0.00
370.66	0.00
370.86	0.00
371.06	0.00
371.25	0.00
371.45	0.00
371.65	0.00
371.84	0.00
372.04	0.00
372.24	39.79
372.44	39.79
372.63	35.11
372.83	67.88
373.03	16.38
373.22	42.13
373.42	4.68
373.62	77.24
373.81	46.81
374.01	42.13
374.21	110.01
374.40	65.54
374.60	11.70
374.79	9.36
374.99	67.88
375.19	21.06
375.38	0.00
375.58	60.85
375.78	49.15
375.97	44.47
376.17	145.11
376.37	39.79
376.56	32.77
376.76	23.41
376.95	37.45
377.15	35.11
377.35	11.70
377.54	7.02
377.74	53.83
377.93	0.00
378.13	4.68
378.33	4.68
378.52	100.64
378.72	58.51
378.91	53.83
379.11	0.00
379.31	60.85
379.50	2.34
379.70	49.15
379.89	35.11
380.09	7.02
380.28	39.79
380.48	25.75
380.68	42.13
380.87	44.47
381.07	0.00
381.26	0.00
381.46	51.49
381.65	0.00
381.85	37.45
382.04	35.11
382.24	56.17
382.43	4.68
382.63	63.19
382.83	16.38
383.02	42.13
383.22	0.00
383.41	25.75
383.61	46.81
383.80	79.58
384.00	0.00
384.19	0.00
384.39	0.00
384.58	65.54
384.78	0.00
384.97	21.06
385.17	0.00
385.36	14.04
385.56	0.00
385.75	44.47
385.95	70.22
386.14	72.56
386.34	11.70
386.53	37.45
386.72	35.11
386.92	46.81
387.11	44.47
387.31	21.06
387.50	0.00
387.70	14.04
387.89	51.49
388.09	4.68
388.28	0.00
388.48	67.88
388.67	42.13
388.86	14.04
389.06	67.88
389.25	9.36
389.45	9.36
389.64	11.70
389.84	42.13
390.03	56.17
390.22	39.79
390.42	16.38
390.61	14.04
390.81	44.47
391.00	28.09
391.19	0.00
391.39	16.38
391.58	37.45
391.78	86.60
391.97	53.83
392.16	0.00
392.36	39.79
392.55	21.06
392.75	77.24
392.94	46.81
393.13	0.00
393.33	4.68
393.52	0.00
393.71	14.04
393.91	39.79
394.10	51.49
394.29	86.60
394.49	4.68
394.68	65.54
394.88	0.00
395.07	11.70
395.26	58.51
395.46	37.45
395.65	74.90
395.84	70.22
396.04	79.58
396.23	53.83
396.42	49.15
396.62	39.79
396.81	23.41
397.00	21.06
397.19	102.98
397.39	46.81
397.58	70.22
397.77	42.13
397.97	11.70
398.16	25.75
398.35	32.77
398.55	39.79
398.74	18.72
398.93	18.72
399.12	117.03
399.32	60.85
399.51	9.36
399.70	119.37
399.90	65.54
400.09	2.34
400.28	51.49
400.47	44.47
400.67	149.79
400.86	9.36
401.05	44.47
401.24	25.75
401.44	21.06
401.63	35.11
401.82	46.81
402.01	0.00
402.21	100.64
402.40	0.00
402.59	0.00
402.78	56.17
402.97	42.13
403.17	74.90
403.36	0.00
403.55	88.94
403.74	42.13
403.93	91.28
404.13	84.26
404.32	23.41
404.51	0.00
404.70	32.77
404.89	51.49
405.09	28.09
405.28	65.54
405.47	28.09
405.66	0.00
405.85	37.45
406.05	63.19
406.24	39.79
406.43	44.47
406.62	81.92
406.81	2.34
407.00	77.24
407.20	2.34
407.39	0.00
407.58	70.22
407.77	65.54
407.96	88.94
408.15	79.58
408.34	7.02
408.54	30.43
408.73	53.83
408.92	60.85
409.11	18.72
409.30	35.11
409.49	11.70
409.68	93.62
409.87	114.69
410.07	63.19
410.26	7.02
410.45	21.06
410.64	2.34
410.83	16.38
411.02	46.81
411.21	0.00
411.40	44.47
411.59	112.35
411.78	112.35
411.98	79.58
412.17	11.70
412.36	30.43
412.55	42.13
412.74	42.13
412.93	58.51
413.12	79.58
413.31	18.72
413.50	98.30
413.69	7.02
413.88	0.00
414.07	0.00
414.26	25.75
414.45	18.72
414.64	42.13
414.83	23.41
415.02	42.13
415.22	49.15
415.41	0.00
415.60	0.00
415.79	95.96
415.98	49.15
416.17	0.00
416.36	28.09
416.55	60.85
416.74	81.92
416.93	77.24
417.12	37.45
417.31	58.51
417.50	0.00
417.69	44.47
417.88	53.83
418.07	4.68
418.26	18.72
418.45	56.17
418.64	74.90
418.83	28.09
419.02	72.56
419.21	49.15
419.39	14.04
419.58	21.06
419.77	53.83
419.96	2.34
420.15	39.79
420.34	110.01
420.53	70.22
420.72	60.85
420.91	51.49
421.10	86.60
421.29	60.85
421.48	21.06
421.67	63.19
421.86	18.72
422.05	105.32
422.24	131.07
422.43	25.75
422.61	25.75
422.80	4.68
422.99	60.85
423.18	60.85
423.37	11.70
423.56	23.41
423.75	28.09
423.94	25.75
424.13	0.00
424.32	58.51
424.50	100.64
424.69	70.22
424.88	49.15
425.07	53.83
425.26	35.11
425.45	42.13
425.64	84.26
425.83	105.32
426.01	72.56
426.20	49.15
426.39	72.56
426.58	72.56
426.77	70.22
426.96	81.92
427.15	112.35
427.33	72.56
427.52	0.00
427.71	7.02
427.90	100.64
428.09	67.88
428.28	14.04
428.46	11.70
428.65	21.06
428.84	65.54
429.03	9.36
429.22	4.68
429.40	110.01
429.59	39.79
429.78	86.60
429.97	25.75
430.16	44.47
430.34	112.35
430.53	107.66
430.72	39.79
430.91	51.49
431.10	63.19
431.28	128.73
431.47	93.62
431.66	77.24
431.85	53.83
432.03	32.77
432.22	23.41
432.41	25.75
432.60	72.56
432.79	60.85
432.97	133.41
433.16	77.24
433.35	7.02
433.54	44.47
433.72	30.43
433.91	44.47
434.10	86.60
434.28	11.70
434.47	60.85
434.66	112.35
434.85	74.90
435.03	16.38
435.22	37.45
435.41	60.85
435.59	56.17
435.78	0.00
435.97	16.38
436.16	4.68
436.34	42.13
436.53	56.17
436.72	28.09
436.90	88.94
437.09	21.06
437.28	81.92
437.46	114.69
437.65	72.56
437.84	79.58
438.02	4.68
438.21	63.19
438.40	53.83
438.58	0.00
438.77	0.00
438.96	72.56
439.14	112.35
439.33	44.47
439.52	60.85
439.70	0.00
439.89	7.02
440.08	49.15
440.26	25.75
440.45	93.62
440.63	49.15
440.82	0.00
441.01	95.96
441.19	145.11
441.38	51.49
441.57	53.83
441.75	39.79
441.94	9.36
442.12	0.00
442.31	63.19
442.50	0.00
442.68	70.22
442.87	18.72
443.05	51.49
443.24	51.49
443.43	2.34
443.61	0.00
443.80	98.30
443.98	81.92
444.17	16.38
444.35	138.09
444.54	32.77
444.73	30.43
444.91	86.60
445.10	44.47
445.28	86.60
445.47	37.45
445.65	14.04
445.84	86.60
446.02	65.54
446.21	4.68
446.39	51.49
446.58	25.75
446.77	79.58
446.95	18.72
447.14	70.22
447.32	98.30
447.51	98.30
447.69	0.00
447.88	0.00
448.06	107.66
448.25	11.70
448.43	70.22
448.62	0.00
448.80	30.43
448.99	21.06
449.17	72.56
449.36	128.73
449.54	42.13
449.73	63.19
449.91	42.13
450.10	16.38
450.28	2.34
450.46	42.13
450.65	91.28
450.83	44.47
451.02	44.47
451.20	84.26
451.39	105.32
451.57	0.00
451.76	51.49
451.94	77.24
452.13	21.06
452.31	102.98
452.49	98.30
452.68	72.56
452.86	14.04
453.05	77.24
453.23	28.09
453.42	56.17
453.60	56.17
453.78	74.90
453.97	32.77
454.15	95.96
454.34	30.43
454.52	98.30
454.70	37.45
454.89	100.64
455.07	2.34
455.26	81.92
455.44	102.98
455.62	105.32
455.81	51.49
455.99	72.56
456.17	28.09
456.36	46.81
456.54	86.60
456.73	86.60
456.91	72.56
457.09	44.47
457.28	25.75
457.46	0.00
457.64	110.01
457.83	63.19
458.01	117.03
458.19	7.02
458.38	152.13
458.56	51.49
458.74	56.17
458.93	56.17
459.11	35.11
459.29	58.51
459.48	51.49
459.66	128.73
459.84	18.72
460.03	39.79
460.21	72.56
460.39	49.15
460.57	79.58
460.76	16.38
460.94	72.56
461.12	44.47
461.31	16.38
461.49	86.60
461.67	65.54
461.85	49.15
462.04	35.11
462.22	133.41
462.40	46.81
462.59	37.45
462.77	56.17
462.95	72.56
463.13	88.94
463.32	42.13
463.50	46.81
463.68	72.56
463.86	65.54
464.05	44.47
464.23	72.56
464.41	65.54
464.59	30.43
464.78	0.00
464.96	32.77
465.14	84.26
465.32	100.64
465.50	42.13
465.69	4.68
465.87	93.62
466.05	63.19
466.23	32.77
466.41	63.19
466.60	63.19
466.78	37.45
466.96	74.90
467.14	86.60
467.32	86.60
467.51	65.54
467.69	60.85
467.87	0.00
468.05	86.60
468.23	114.69
468.41	98.30
468.60	23.41
468.78	25.75
468.96	44.47
469.14	124.05
469.32	14.04
469.50	0.00
469.69	44.47
469.87	25.75
470.05	32.77
470.23	44.47
470.41	0.00
470.59	37.45
470.77	49.15
470.95	46.81
471.14	46.81
471.32	21.06
471.50	18.72
471.68	7.02
471.86	67.88
472.04	44.47
472.22	56.17
472.40	70.22
472.58	14.04
472.77	11.70
472.95	14.04
473.13	67.88
473.31	28.09
473.49	65.54
473.67	72.56
473.85	32.77
474.03	42.13
474.21	56.17
474.39	63.19
474.57	112.35
474.75	0.00
474.93	65.54
475.12	32.77
475.30	114.69
475.48	70.22
475.66	56.17
475.84	51.49
476.02	93.62
476.20	11.70
476.38	93.62
476.56	77.24
476.74	95.96
476.92	131.07
477.10	154.48
477.28	98.30
477.46	11.70
477.64	77.24
477.82	23.41
478.00	49.15
478.18	37.45
478.36	95.96
478.54	67.88
478.72	112.35
478.90	53.83
479.08	74.90
479.26	105.32
479.44	126.39
479.62	70.22
479.80	7.02
479.98	28.09
480.16	72.56
480.34	74.90
480.52	77.24
480.70	44.47
480.88	95.96
481.06	88.94
481.24	84.26
481.41	58.51
481.59	67.88
481.77	56.17
481.95	65.54
482.13	58.51
482.31	53.83
482.49	53.83
482.67	32.77
482.85	44.47
483.03	98.30
483.21	119.37
483.39	32.77
483.57	25.75
483.74	28.09
483.92	124.05
484.10	81.92
484.28	74.90
484.46	105.32
484.64	84.26
484.82	16.38
485.00	81.92
485.18	0.00
485.35	58.51
485.53	149.79
485.71	86.60
485.89	46.81
486.07	56.17
486.25	105.32
486.43	25.75
486.61	23.41
486.78	0.00
486.96	117.03
487.14	114.69
487.32	56.17
487.50	91.28
487.68	51.49
487.85	46.81
488.03	67.88
488.21	84.26
488.39	58.51
488.57	67.88
488.75	51.49
488.92	67.88
489.10	100.64
489.28	63.19
489.46	124.05
489.64	93.62
489.81	60.85
489.99	60.85
490.17	79.58
490.35	140.43
490.53	93.62
490.70	53.83
490.88	110.01
491.06	100.64
491.24	51.49
491.41	0.00
491.59	105.32
491.77	93.62
491.95	110.01
492.13	30.43
492.30	72.56
492.48	60.85
492.66	0.00
492.84	72.56
493.01	86.60
493.19	72.56
493.37	11.70
493.54	88.94
493.72	63.19
493.90	67.88
494.08	84.26
494.25	23.41
494.43	88.94
494.61	28.09
494.79	25.75
494.96	32.77
495.14	121.71
495.32	98.30
495.49	79.58
495.67	74.90
495.85	53.83
496.02	161.50
496.20	98.30
496.38	154.48
496.55	110.01
496.73	79.58
496.91	16.38
497.09	4.68
497.26	114.69
497.44	138.09
497.62	93.62
497.79	11.70
497.97	131.07
498.14	100.64
498.32	67.88
498.50	44.47
498.67	49.15
498.85	42.13
499.03	70.22
499.20	110.01
499.38	112.35
499.56	35.11
499.73	60.85
499.91	105.32
500.08	128.73
500.26	95.96
500.44	18.72
500.61	88.94
500.79	0.00
500.97	77.24
501.14	84.26
501.32	11.70
501.49	44.47
501.67	0.00
501.84	63.19
502.02	107.66
502.20	70.22
502.37	58.51
502.55	70.22
502.72	65.54
502.90	58.51
503.07	81.92
503.25	72.56
503.43	65.54
503.60	72.56
503.78	53.83
503.95	30.43
504.13	60.85
504.30	105.32
504.48	124.05
504.65	28.09
504.83	119.37
505.01	63.19
505.18	79.58
505.36	110.01
505.53	86.60
505.71	102.98
505.88	88.94
506.06	98.30
506.23	100.64
506.41	114.69
506.58	67.88
506.76	149.79
506.93	107.66
507.11	65.54
507.28	100.64
507.46	44.47
507.63	88.94
507.81	93.62
507.98	100.64
508.16	49.15
508.33	93.62
508.50	128.73
508.68	110.01
508.85	95.96
509.03	98.30
509.20	23.41
509.38	88.94
509.55	35.11
509.73	81.92
509.90	152.13
510.08	112.35
510.25	110.01
510.42	35.11
510.60	65.54
510.77	131.07
510.95	21.06
511.12	72.56
511.30	79.58
511.47	124.05
511.64	121.71
511.82	95.96
511.99	49.15
512.17	67.88
512.34	142.77
512.51	58.51
512.69	84.26
512.86	98.30
513.04	58.51
513.21	74.90
513.38	112.35
513.56	91.28
513.73	138.09
513.90	74.90
514.08	98.30
514.25	110.01
514.43	128.73
514.60	88.94
514.77	63.19
514.95	42.13
515.12	126.39
515.29	98.30
515.47	145.11
515.64	39.79
515.81	49.15
515.99	168.52
516.16	84.26
516.33	35.11
516.51	107.66
516.68	39.79
516.85	46.81
517.03	98.30
517.20	67.88
517.37	32.77
517.54	58.51
517.72	100.64
517.89	65.54
518.06	35.11
518.24	56.17
518.41	63.19
518.58	44.47
518.75	72.56
518.93	142.77
519.10	74.90
519.27	84.26
519.45	65.54
519.62	102.98
519.79	133.41
519.96	63.19
520.14	93.62
520.31	37.45
520.48	39.79
520.65	100.64
520.83	128.73
521.00	105.32
521.17	98.30
521.34	77.24
521.52	128.73
521.69	25.75
521.86	46.81
522.03	112.35
522.20	88.94
522.38	49.15
522.55	65.54
522.72	21.06
522.89	35.11
523.07	86.60
523.24	63.19
523.41	51.49
523.58	84.26
523.75	112.35
523.92	63.19
524.10	236.39
524.27	156.82
524.44	107.66
524.61	14.04
524.78	53.83
524.96	102.98
525.13	128.73
525.30	77.24
525.47	121.71
525.64	91.28
525.81	72.56
525.98	147.45
526.16	114.69
526.33	37.45
526.50	88.94
526.67	21.06
526.84	100.64
527.01	81.92
527.18	60.85
527.36	126.39
527.53	105.32
527.70	49.15
527.87	154.48
528.04	28.09
528.21	86.60
528.38	114.69
528.55	63.19
528.72	56.17
528.89	124.05
529.07	67.88
529.24	100.64
529.41	124.05
529.58	95.96
529.75	70.22
529.92	56.17
530.09	107.66
530.26	65.54
530.43	60.85
530.60	95.96
530.77	42.13
530.94	145.11
531.11	65.54
531.28	131.07
531.46	23.41
531.63	77.24
531.80	81.92
531.97	25.75
532.14	56.17
532.31	105.32
532.48	53.83
532.65	117.03
532.82	102.98
532.99	100.64
533.16	51.49
533.33	30.43
533.50	126.39
533.67	67.88
533.84	51.49
534.01	98.30
534.18	42.13
534.35	117.03
534.52	63.19
534.69	107.66
534.86	51.49
535.03	58.51
535.20	56.17
535.37	86.60
535.54	81.92
535.71	152.13
535.88	114.69
536.05	91.28
536.22	49.15
536.38	81.92
536.55	159.16
536.72	58.51
536.89	70.22
537.06	74.90
537.23	149.79
537.40	86.60
537.57	100.64
537.74	98.30
537.91	72.56
538.08	74.90
538.25	51.49
538.42	110.01
538.59	91.28
538.75	60.85
538.92	74.90
539.09	95.96
539.26	65.54
539.43	88.94
539.60	28.09
539.77	98.30
539.94	79.58
540.11	35.11
540.28	60.85
540.44	147.45
540.61	112.35
540.78	49.15
540.95	37.45
541.12	56.17
541.29	117.03
541.46	46.81
541.62	91.28
541.79	114.69
541.96	74.90
542.13	77.24
542.30	79.58
542.47	74.90
542.63	98.30
542.80	201.29
542.97	86.60
543.14	60.85
543.31	86.60
543.48	95.96
543.64	58.51
543.81	121.71
543.98	72.56
544.15	110.01
544.32	86.60
544.48	102.98
544.65	105.32
544.82	67.88
544.99	51.49
545.16	93.62
545.32	65.54
545.49	98.30
545.66	79.58
545.83	110.01
546.00	65.54
546.16	128.73
546.33	107.66
546.50	117.03
546.67	93.62
546.83	44.47
547.00	60.85
547.17	70.22
547.34	86.60
547.50	46.81
547.67	51.49
547.84	77.24
548.00	56.17
548.17	105.32
548.34	105.32
548.51	72.56
548.67	74.90
548.84	112.35
549.01	65.54
549.18	126.39
549.34	51.49
549.51	147.45
549.68	119.37
549.84	72.56
550.01	28.09
550.18	77.24
550.34	60.85
550.51	56.17
550.68	117.03
550.84	86.60
551.01	93.62
551.18	79.58
551.34	112.35
551.51	88.94
551.68	32.77
551.84	102.98
552.01	60.85
552.18	42.13
552.34	119.37
552.51	46.81
552.68	140.43
552.84	53.83
553.01	84.26
553.18	25.75
553.34	35.11
553.51	98.30
553.67	88.94
553.84	37.45
554.01	49.15
554.17	121.71
554.34	88.94
554.51	131.07
554.67	110.01
554.84	39.79
555.00	105.32
555.17	98.30
555.33	154.48
555.50	67.88
555.67	131.07
555.83	102.98
556.00	95.96
556.16	58.51
556.33	65.54
556.50	100.64
556.66	114.69
556.83	39.79
556.99	91.28
557.16	91.28
557.32	51.49
557.49	60.85
557.65	149.79
557.82	51.49
557.98	72.56
558.15	56.17
558.32	152.13
558.48	72.56
558.65	39.79
558.81	67.88
558.98	79.58
559.14	77.24
559.31	79.58
559.47	119.37
559.64	107.66
559.80	49.15
559.97	170.86
560.13	14.04
560.30	0.00
560.46	37.45
560.63	67.88
560.79	79.58
560.96	107.66
561.12	121.71
561.29	140.43
561.45	37.45
561.61	53.83
561.78	46.81
561.94	105.32
562.11	44.47
562.27	46.81
562.44	93.62
562.60	35.11
562.77	105.32
562.93	91.28
563.10	18.72
563.26	60.85
563.42	37.45
563.59	84.26
563.75	93.62
563.92	72.56
564.08	117.03
564.24	100.64
564.41	95.96
564.57	0.00
564.74	77.24
564.90	119.37
565.07	49.15
565.23	67.88
565.39	175.54
565.56	114.69
565.72	77.24
565.88	72.56
566.05	9.36
566.21	81.92
566.38	0.00
566.54	51.49
566.70	39.79
566.87	147.45
567.03	56.17
567.19	67.88
567.36	100.64
567.52	107.66
567.68	110.01
567.85	70.22
568.01	105.32
568.17	65.54
568.34	46.81
568.50	44.47
568.66	58.51
568.83	86.60
568.99	39.79
569.15	79.58
569.32	81.92
569.48	74.90
569.64	91.28
569.81	79.58
569.97	121.71
570.13	161.50
570.30	28.09
570.46	121.71
570.62	23.41
570.78	70.22
570.95	72.56
571.11	133.41
571.27	72.56
571.43	0.00
571.60	79.58
571.76	81.92
571.92	37.45
572.09	86.60
572.25	88.94
572.41	21.06
572.57	23.41
572.74	63.19
572.90	140.43
573.06	49.15
573.22	67.88
573.38	32.77
573.55	0.00
573.71	81.92
573.87	102.98
574.03	81.92
574.20	95.96
574.36	126.39
574.52	72.56
574.68	95.96
574.84	53.83
575.01	70.22
575.17	88.94
575.33	105.32
575.49	30.43
575.65	128.73
575.82	100.64
575.98	51.49
576.14	133.41
576.30	149.79
576.46	25.75
576.62	86.60
576.79	32.77
576.95	131.07
577.11	70.22
577.27	102.98
577.43	166.18
577.59	46.81
577.75	121.71
577.92	124.05
578.08	51.49
578.24	100.64
578.40	18.72
578.56	77.24
578.72	79.58
578.88	81.92
579.04	84.26
579.21	88.94
579.37	49.15
579.53	114.69
579.69	84.26
579.85	93.62
580.01	56.17
580.17	7.02
580.33	93.62
580.49	42.13
580.65	21.06
580.82	131.07
580.98	107.66
581.14	114.69
581.30	110.01
581.46	95.96
581.62	28.09
581.78	107.66
581.94	39.79
582.10	46.81
582.26	60.85
582.42	56.17
582.58	100.64
582.74	194.26
582.90	149.79
583.06	72.56
583.22	39.79
583.38	110.01
583.54	72.56
583.70	67.88
583.86	156.82
584.02	0.00
584.18	128.73
584.34	63.19
584.50	77.24
584.66	60.85
584.82	98.30
584.98	70.22
585.14	18.72
585.30	70.22
585.46	63.19
585.62	81.92
585.78	67.88
585.94	58.51
586.10	93.62
586.26	70.22
586.42	63.19
586.58	91.28
586.74	46.81
586.90	110.01
587.06	67.88
587.22	49.15
587.38	77.24
587.54	7.02
587.70	98.30
587.86	42.13
588.02	42.13
588.18	98.30
588.34	79.58
588.49	133.41
588.65	63.19
588.81	16.38
588.97	53.83
589.13	42.13
589.29	93.62
589.45	21.06
589.61	11.70
589.77	88.94
589.93	84.26
590.08	30.43
590.24	58.51
590.40	117.03
590.56	49.15
590.72	65.54
590.88	60.85
591.04	98.30
591.20	79.58
591.35	105.32
591.51	28.09
591.67	84.26
591.83	49.15
591.99	88.94
592.15	58.51
592.31	79.58
592.46	25.75
592.62	37.45
592.78	0.00
592.94	140.43
593.10	112.35
593.26	32.77
593.41	51.49
593.57	49.15
593.73	67.88
593.89	126.39
594.05	63.19
594.20	2.34
594.36	159.16
594.52	56.17
594.68	126.39
594.84	77.24
594.99	84.26
595.15	58.51
595.31	107.66
595.47	49.15
595.62	49.15
595.78	58.51
595.94	105.32
596.10	39.79
596.25	128.73
596.41	44.47
596.57	107.66
596.73	65.54
596.88	67.88
597.04	159.16
597.20	88.94
597.36	168.52
597.51	21.06
597.67	49.15
597.83	58.51
597.99	30.43
598.14	77.24
598.30	84.26
598.46	44.47
598.61	37.45
598.77	88.94
598.93	133.41
599.09	21.06
599.24	30.43
599.40	0.00
599.56	107.66
599.71	35.11
599.87	88.94
600.03	79.58
600.18	119.37
600.34	98.30
600.50	128.73
600.65	81.92
600.81	95.96
600.97	105.32
601.12	112.35
601.28	56.17
601.44	11.70
601.59	131.07
601.75	114.69
601.91	44.47
602.06	46.81
602.22	93.62
602.37	35.11
602.53	70.22
602.69	32.77
602.84	58.51
603.00	67.88
603.16	37.45
603.31	56.17
603.47	35.11
603.62	4.68
603.78	56.17
603.94	140.43
604.09	70.22
604.25	39.79
604.40	67.88
604.56	98.30
604.71	30.43
604.87	145.11
605.03	63.19
605.18	114.69
605.34	93.62
605.49	53.83
605.65	95.96
605.80	65.54
605.96	44.47
606.12	72.56
606.27	44.47
606.43	18.72
606.58	56.17
606.74	79.58
606.89	63.19
607.05	86.60
607.20	128.73
607.36	114.69
607.51	124.05
607.67	107.66
607.82	67.88
607.98	44.47
608.13	112.35
608.29	46.81
608.44	100.64
608.60	117.03
608.75	86.60
608.91	49.15
609.06	35.11
609.22	4.68
609.37	114.69
609.53	79.58
609.68	46.81
609.84	110.01
609.99	102.98
610.15	77.24
610.30	102.98
610.46	102.98
610.61	88.94
610.76	107.66
610.92	98.30
611.07	124.05
611.23	28.09
611.38	95.96
611.54	37.45
611.69	51.49
611.84	72.56
612.00	98.30
612.15	30.43
612.31	0.00
612.46	51.49
612.62	102.98
612.77	58.51
612.92	0.00
613.08	93.62
613.23	25.75
613.39	182.56
613.54	72.56
613.69	65.54
613.85	0.00
614.00	0.00
614.15	49.15
614.31	91.28
614.46	0.00
614.62	0.00
614.77	44.47
614.92	77.24
615.08	86.60
615.23	49.15
615.38	18.72
615.54	32.77
615.69	25.75
615.84	133.41
616.00	121.71
616.15	126.39
616.30	72.56
616.46	145.11
616.61	53.83
616.76	46.81
616.92	56.17
617.07	95.96
617.22	44.47
617.37	102.98
617.53	32.77
617.68	72.56
617.83	0.00
617.99	72.56
618.14	21.06
618.29	32.77
618.45	72.56
618.60	72.56
618.75	44.47
618.90	74.90
619.06	98.30
619.21	84.26
619.36	0.00
619.51	30.43
619.67	39.79
619.82	65.54
619.97	110.01
620.12	56.17
620.28	53.83
620.43	98.30
620.58	0.00
620.73	39.79
620.89	51.49
621.04	56.17
621.19	28.09
621.34	88.94
621.49	0.00
621.65	65.54
621.80	88.94
621.95	119.37
622.10	18.72
622.25	42.13
622.41	156.82
622.56	131.07
622.71	84.26
622.86	63.19
623.01	114.69
623.16	44.47
623.32	70.22
623.47	189.58
623.62	86.60
623.77	65.54
623.92	95.96
624.07	79.58
624.23	84.26
624.38	35.11
624.53	28.09
624.68	37.45
624.83	65.54
624.98	65.54
625.13	88.94
625.29	58.51
625.44	37.45
625.59	126.39
625.74	98.30
625.89	79.58
626.04	37.45
626.19	23.41
626.34	84.26
626.49	56.17
626.65	51.49
626.80	154.48
626.95	119.37
627.10	0.00
627.25	37.45
627.40	9.36
627.55	60.85
627.70	72.56
627.85	58.51
628.00	25.75
628.15	53.83
628.30	79.58
628.45	133.41
628.60	30.43
628.76	37.45
628.91	142.77
629.06	49.15
629.21	0.00
629.36	152.13
629.51	11.70
629.66	37.45
629.81	124.05
629.96	65.54
630.11	77.24
630.26	23.41
630.41	147.45
630.56	72.56
630.71	53.83
630.86	51.49
631.01	74.90
631.16	51.49
631.31	63.19
631.46	65.54
631.61	16.38
631.76	11.70
631.91	131.07
632.06	100.64
632.21	39.79
632.36	16.38
632.51	60.85
632.66	46.81
632.81	93.62
632.96	70.22
633.10	67.88
633.25	98.30
633.40	152.13
633.55	32.77
633.70	44.47
633.85	53.83
634.00	39.79
634.15	81.92
634.30	0.00
634.45	39.79
634.60	100.64
634.75	128.73
634.90	147.45
635.05	9.36
635.19	63.19
635.34	112.35
635.49	88.94
635.64	135.75
635.79	93.62
635.94	42.13
636.09	25.75
636.24	39.79
636.39	105.32
636.53	23.41
636.68	53.83
636.83	72.56
636.98	88.94
637.13	44.47
637.28	0.00
637.43	77.24
637.57	77.24
637.72	63.19
637.87	105.32
638.02	9.36
638.17	84.26
638.32	51.49
638.46	53.83
638.61	44.47
638.76	67.88
638.91	53.83
639.06	44.47
639.20	23.41
639.35	44.47
639.50	95.96
639.65	51.49
639.80	149.79
639.94	77.24
640.09	86.60
640.24	77.24
640.39	131.07
640.54	51.49
640.68	84.26
640.83	18.72
640.98	0.00
641.13	37.45
641.27	14.04
641.42	23.41
641.57	18.72
641.72	0.00
641.86	39.79
642.01	95.96
642.16	56.17
642.31	25.75
642.45	65.54
642.60	58.51
642.75	77.24
642.90	65.54
643.04	30.43
643.19	46.81
643.34	86.60
643.48	65.54
643.63	117.03
643.78	88.94
643.93	67.88
644.07	14.04
644.22	58.51
644.37	72.56
644.51	16.38
644.66	56.17
644.81	70.22
644.95	79.58
645.10	11.70
645.25	93.62
645.39	119.37
645.54	16.38
645.69	67.88
645.83	37.45
645.98	107.66
646.13	79.58
646.27	0.00
646.42	65.54
646.57	72.56
646.71	11.70
646.86	98.30
647.00	107.66
647.15	60.85
647.30	72.56
647.44	39.79
647.59	107.66
647.74	114.69
647.88	2.34
648.03	42.13
648.17	86.60
648.32	114.69
648.47	79.58
648.61	95.96
648.76	46.81
648.90	44.47
649.05	30.43
649.20	63.19
649.34	28.09
649.49	44.47
649.63	121.71
649.78	42.13
649.92	81.92
650.07	7.02
650.21	60.85
650.36	25.75
650.51	95.96
650.65	60.85
650.80	95.96
650.94	63.19
651.09	25.75
651.23	35.11
651.38	65.54
651.52	72.56
651.67	56.17
651.81	86.60
651.96	32.77
652.10	30.43
652.25	21.06
652.39	0.00
652.54	58.51
652.68	56.17
652.83	93.62
652.97	4.68
653.12	60.85
653.26	0.00
653.41	112.35
653.55	58.51
653.70	107.66
653.84	168.52
653.99	60.85
654.13	86.60
654.27	30.43
654.42	7.02
654.56	126.39
654.71	117.03
654.85	14.04
655.00	23.41
655.14	117.03
655.29	7.02
655.43	28.09
655.57	32.77
655.72	18.72
655.86	102.98
656.01	4.68
656.15	79.58
656.30	110.01
656.44	16.38
656.58	81.92
656.73	46.81
656.87	63.19
657.01	79.58
657.16	53.83
657.30	46.81
657.45	91.28
657.59	51.49
657.73	44.47
657.88	0.00
658.02	58.51
658.16	46.81
658.31	67.88
658.45	98.30
658.60	58.51
658.74	32.77
658.88	112.35
659.03	0.00
659.17	0.00
659.31	56.17
659.46	58.51
659.60	32.77
659.74	14.04
659.89	30.43
660.03	58.51
660.17	42.13
660.32	35.11
660.46	30.43
660.60	58.51
660.74	67.88
660.89	105.32
661.03	91.28
661.17	42.13
661.32	0.00
661.46	93.62
661.60	60.85
661.74	18.72
661.89	88.94
662.03	119.37
662.17	53.83
662.31	140.43
662.46	51.49
662.60	56.17
662.74	67.88
662.88	14.04
663.03	100.64
663.17	105.32
663.31	0.00
663.45	49.15
663.60	86.60
663.74	0.00
663.88	0.00
664.02	37.45
664.17	37.45
664.31	63.19
664.45	67.88
664.59	51.49
664.73	0.00
664.88	49.15
665.02	42.13
665.16	110.01
665.30	51.49
665.44	88.94
665.59	32.77
665.73	74.90
665.87	72.56
666.01	42.13
666.15	0.00
666.29	16.38
666.44	21.06
666.58	30.43
666.72	2.34
666.86	42.13
667.00	86.60
667.14	0.00
667.28	98.30
667.43	9.36
667.57	77.24
667.71	9.36
667.85	16.38
667.99	74.90
668.13	79.58
668.27	32.77
668.41	35.11
668.56	16.38
668.70	53.83
668.84	39.79
668.98	0.00
669.12	51.49
669.26	0.00
669.40	81.92
669.54	7.02
669.68	65.54
669.82	67.88
669.96	25.75
670.10	11.70
670.25	72.56
670.39	16.38
670.53	67.88
670.67	39.79
670.81	46.81
670.95	49.15
671.09	98.30
671.23	49.15
671.37	72.56
671.51	7.02
671.65	88.94
671.79	46.81
671.93	21.06
672.07	84.26
672.21	44.47
672.35	67.88
672.49	56.17
672.63	0.00
672.77	51.49
672.91	7.02
673.05	67.88
673.19	37.45
673.33	30.43
673.47	95.96
673.61	60.85
673.75	30.43
673.89	39.79
674.03	0.00
674.17	51.49
674.31	84.26
674.45	42.13
674.59	0.00
674.73	0.00
674.87	0.00
675.01	0.00
675.15	14.04
675.29	14.04
675.43	0.00
675.56	84.26
675.70	0.00
675.84	51.49
675.98	58.51
676.12	0.00
676.26	77.24
676.40	39.79
676.54	0.00
676.68	0.00
676.82	46.81
676.96	110.01
677.10	79.58
677.23	0.00
677.37	44.47
677.51	18.72
677.65	42.13
677.79	58.51
677.93	0.00
678.07	0.00
678.21	30.43
678.34	11.70
678.48	18.72
678.62	32.77
678.76	0.00
678.90	28.09
679.04	70.22
679.18	0.00
679.31	4.68
679.45	53.83
679.59	11.70
679.73	44.47
679.87	18.72
680.00	70.22
680.14	37.45
680.28	84.26
680.42	7.02
680.56	23.41
680.70	2.34
680.83	63.19
680.97	88.94
681.11	49.15
681.25	0.00
681.39	44.47
681.52	7.02
681.66	21.06
681.80	0.00
681.94	35.11
682.07	46.81
682.21	25.75
682.35	25.75
682.49	131.07
682.62	60.85
682.76	0.00
682.90	65.54
683.04	74.90
683.17	4.68
683.31	30.43
683.45	14.04
683.59	0.00
683.72	30.43
683.86	39.79
684.00	30.43
684.13	135.75
684.27	91.28
684.41	0.00
684.55	77.24
684.68	0.00
684.82	16.38
684.96	0.00
685.09	65.54
685.23	44.47
685.37	2.34
685.50	44.47
685.64	35.11
685.78	35.11
685.91	72.56
686.05	86.60
686.19	28.09
686.32	28.09
686.46	124.05
686.60	0.00
686.73	72.56
686.87	58.51
687.01	74.90
687.14	39.79
687.28	39.79
687.42	35.11
687.55	93.62
687.69	14.04
687.82	37.45
687.96	49.15
688.10	14.04
688.23	28.09
688.37	56.17
688.50	86.60
688.64	23.41
688.78	39.79
688.91	74.90
689.05	39.79
689.18	110.01
689.32	9.36
689.46	2.34
689.59	121.71
689.73	112.35
689.86	7.02
690.00	16.38
690.13	18.72
690.27	23.41
690.41	16.38
690.54	100.64
690.68	49.15
690.81	28.09
690.95	0.00
691.08	65.54
691.22	39.79
691.35	0.00
691.49	72.56
691.62	0.00
691.76	23.41
691.89	51.49
692.03	79.58
692.16	65.54
692.30	35.11
692.43	32.77
692.57	63.19
692.70	81.92
692.84	32.77
692.97	72.56
693.11	105.32
693.24	28.09
693.38	60.85
693.51	37.45
693.65	58.51
693.78	0.00
693.92	28.09
694.05	9.36
694.19	112.35
694.32	4.68
694.45	25.75
694.59	9.36
694.72	25.75
694.86	56.17
694.99	32.77
695.13	67.88
695.26	46.81
695.39	58.51
695.53	18.72
695.66	60.85
695.80	0.00
695.93	93.62
696.07	56.17
696.20	63.19
696.33	23.41
696.47	44.47
696.60	147.45
696.73	63.19
696.87	51.49
697.00	42.13
697.14	53.83
697.27	16.38
697.40	16.38
697.54	0.00
697.67	28.09
697.80	0.00
697.94	2.34
698.07	95.96
698.21	30.43
698.34	98.30
698.47	11.70
698.61	49.15
698.74	30.43
698.87	39.79
699.01	0.00
699.14	79.58
699.27	11.70
699.40	114.69
699.54	88.94
699.67	114.69
699.80	49.15
699.94	0.00
700.07	42.13
700.20	110.01
700.34	32.77
700.47	16.38
700.60	14.04
700.73	81.92
700.87	32.77
701.00	56.17
701.13	0.00
701.26	25.75
701.40	93.62
701.53	32.77
701.66	117.03
701.79	39.79
701.93	32.77
702.06	154.48
702.19	28.09
702.32	91.28
702.46	18.72
702.59	0.00
702.72	51.49
702.85	42.13
702.99	88.94
703.12	60.85
703.25	14.04
703.38	58.51
703.51	72.56
703.65	11.70
703.78	70.22
703.91	72.56
704.04	53.83
704.17	114.69
704.31	21.06
704.44	16.38
704.57	30.43
704.70	0.00
704.83	32.77
704.96	0.00
705.10	77.24
705.23	0.00
>>>>>End Processed Spectral Data<<<<<
