SpectraSuite Data File
++++++++++++++++++++++++++++++++++++
Date: Fri Oct 04 12:13:35 GMT-05:00 2013
User: price-jones
Dark Spectrum Present: No
Reference Spectrum Present: No
Number of Sampled Component Spectra: 1
Spectrometers: USB2+H05261
Integration Time (usec): 10000 (USB2+H05261)
Spectra Averaged: 1 (USB2+H05261)
Boxcar Smoothing: 0 (USB2+H05261)
Correct for Electrical Dark: No (USB2+H05261)
Strobe/Lamp Enabled: No (USB2+H05261)
Correct for Detector Non-linearity: No (USB2+H05261)
Correct for Stray Light: No (USB2+H05261)
Number of Pixels in Processed Spectrum: 2048
>>>>>Begin Processed Spectral Data<<<<<
365.73	9.36
365.92	9.36
366.12	9.36
366.32	0.00
366.52	0.00
366.72	0.00
366.91	0.00
367.11	0.00
367.31	0.00
367.51	0.00
367.70	0.00
367.90	0.00
368.10	0.00
368.30	0.00
368.49	0.00
368.69	0.00
368.89	0.00
369.09	0.00
369.28	0.00
369.48	0.00
369.68	0.00
369.87	0.00
370.07	0.00
370.27	0.00
370.47	0.00
370.66	0.00
370.86	0.00
371.06	0.00
371.25	58.51
371.45	2.34
371.65	0.00
371.84	0.00
372.04	25.75
372.24	0.00
372.44	14.04
372.63	51.49
372.83	53.83
373.03	49.15
373.22	0.00
373.42	60.85
373.62	16.38
373.81	0.00
374.01	16.38
374.21	18.72
374.40	0.00
374.60	81.92
374.79	86.60
374.99	28.09
375.19	56.17
375.38	42.13
375.58	2.34
375.78	51.49
375.97	53.83
376.17	32.77
376.37	21.06
376.56	28.09
376.76	72.56
376.95	42.13
377.15	0.00
377.35	149.79
377.54	46.81
377.74	93.62
377.93	14.04
378.13	56.17
378.33	67.88
378.52	65.54
378.72	9.36
378.91	9.36
379.11	0.00
379.31	4.68
379.50	0.00
379.70	0.00
379.89	11.70
380.09	16.38
380.28	7.02
380.48	18.72
380.68	0.00
380.87	14.04
381.07	44.47
381.26	0.00
381.46	0.00
381.65	23.41
381.85	0.00
382.04	21.06
382.24	81.92
382.43	53.83
382.63	39.79
382.83	39.79
383.02	21.06
383.22	0.00
383.41	46.81
383.61	35.11
383.80	28.09
384.00	7.02
384.19	25.75
384.39	56.17
384.58	7.02
384.78	53.83
384.97	28.09
385.17	44.47
385.36	9.36
385.56	0.00
385.75	0.00
385.95	42.13
386.14	0.00
386.34	30.43
386.53	35.11
386.72	18.72
386.92	37.45
387.11	2.34
387.31	51.49
387.50	0.00
387.70	42.13
387.89	56.17
388.09	0.00
388.28	51.49
388.48	46.81
388.67	39.79
388.86	7.02
389.06	14.04
389.25	93.62
389.45	25.75
389.64	65.54
389.84	46.81
390.03	7.02
390.22	63.19
390.42	0.00
390.61	14.04
390.81	0.00
391.00	30.43
391.19	46.81
391.39	32.77
391.58	53.83
391.78	39.79
391.97	0.00
392.16	32.77
392.36	35.11
392.55	25.75
392.75	30.43
392.94	53.83
393.13	11.70
393.33	11.70
393.52	0.00
393.71	46.81
393.91	70.22
394.10	39.79
394.29	0.00
394.49	28.09
394.68	25.75
394.88	100.64
395.07	35.11
395.26	65.54
395.46	42.13
395.65	4.68
395.84	32.77
396.04	44.47
396.23	39.79
396.42	2.34
396.62	2.34
396.81	0.00
397.00	21.06
397.19	16.38
397.39	0.00
397.58	37.45
397.77	63.19
397.97	46.81
398.16	32.77
398.35	0.00
398.55	9.36
398.74	0.00
398.93	63.19
399.12	77.24
399.32	51.49
399.51	32.77
399.70	21.06
399.90	30.43
400.09	56.17
400.28	63.19
400.47	53.83
400.67	63.19
400.86	11.70
401.05	44.47
401.24	49.15
401.44	0.00
401.63	74.90
401.82	0.00
402.01	46.81
402.21	7.02
402.40	42.13
402.59	0.00
402.78	16.38
402.97	42.13
403.17	58.51
403.36	35.11
403.55	4.68
403.74	53.83
403.93	23.41
404.13	7.02
404.32	14.04
404.51	32.77
404.70	11.70
404.89	35.11
405.09	67.88
405.28	0.00
405.47	63.19
405.66	35.11
405.85	60.85
406.05	23.41
406.24	110.01
406.43	42.13
406.62	28.09
406.81	23.41
407.00	119.37
407.20	100.64
407.39	37.45
407.58	9.36
407.77	7.02
407.96	32.77
408.15	53.83
408.34	9.36
408.54	2.34
408.73	28.09
408.92	49.15
409.11	180.22
409.30	30.43
409.49	58.51
409.68	0.00
409.87	0.00
410.07	65.54
410.26	81.92
410.45	21.06
410.64	37.45
410.83	35.11
411.02	35.11
411.21	67.88
411.40	32.77
411.59	42.13
411.78	84.26
411.98	74.90
412.17	110.01
412.36	0.00
412.55	58.51
412.74	72.56
412.93	72.56
413.12	86.60
413.31	0.00
413.50	23.41
413.69	88.94
413.88	49.15
414.07	18.72
414.26	16.38
414.45	9.36
414.64	65.54
414.83	51.49
415.02	11.70
415.22	2.34
415.41	37.45
415.60	72.56
415.79	39.79
415.98	67.88
416.17	77.24
416.36	53.83
416.55	16.38
416.74	49.15
416.93	105.32
417.12	65.54
417.31	0.00
417.50	0.00
417.69	58.51
417.88	74.90
418.07	93.62
418.26	30.43
418.45	23.41
418.64	72.56
418.83	23.41
419.02	42.13
419.21	65.54
419.39	70.22
419.58	121.71
419.77	9.36
419.96	0.00
420.15	53.83
420.34	37.45
420.53	88.94
420.72	28.09
420.91	53.83
421.10	7.02
421.29	14.04
421.48	18.72
421.67	16.38
421.86	32.77
422.05	44.47
422.24	84.26
422.43	28.09
422.61	23.41
422.80	9.36
422.99	0.00
423.18	7.02
423.37	30.43
423.56	30.43
423.75	0.00
423.94	11.70
424.13	18.72
424.32	58.51
424.50	77.24
424.69	0.00
424.88	23.41
425.07	53.83
425.26	95.96
425.45	44.47
425.64	28.09
425.83	0.00
426.01	60.85
426.20	58.51
426.39	16.38
426.58	21.06
426.77	30.43
426.96	72.56
427.15	42.13
427.33	16.38
427.52	60.85
427.71	32.77
427.90	65.54
428.09	0.00
428.28	56.17
428.46	39.79
428.65	37.45
428.84	0.00
429.03	86.60
429.22	2.34
429.40	72.56
429.59	0.00
429.78	23.41
429.97	49.15
430.16	88.94
430.34	4.68
430.53	37.45
430.72	84.26
430.91	72.56
431.10	9.36
431.28	67.88
431.47	21.06
431.66	49.15
431.85	16.38
432.03	135.75
432.22	7.02
432.41	49.15
432.60	14.04
432.79	63.19
432.97	91.28
433.16	72.56
433.35	18.72
433.54	79.58
433.72	16.38
433.91	35.11
434.10	135.75
434.28	84.26
434.47	28.09
434.66	46.81
434.85	28.09
435.03	44.47
435.22	21.06
435.41	49.15
435.59	88.94
435.78	65.54
435.97	11.70
436.16	46.81
436.34	100.64
436.53	110.01
436.72	37.45
436.90	49.15
437.09	11.70
437.28	53.83
437.46	23.41
437.65	74.90
437.84	51.49
438.02	70.22
438.21	72.56
438.40	58.51
438.58	53.83
438.77	88.94
438.96	60.85
439.14	91.28
439.33	74.90
439.52	110.01
439.70	0.00
439.89	77.24
440.08	46.81
440.26	49.15
440.45	79.58
440.63	11.70
440.82	9.36
441.01	11.70
441.19	56.17
441.38	114.69
441.57	112.35
441.75	46.81
441.94	51.49
442.12	84.26
442.31	0.00
442.50	39.79
442.68	37.45
442.87	88.94
443.05	49.15
443.24	88.94
443.43	44.47
443.61	86.60
443.80	21.06
443.98	67.88
444.17	4.68
444.35	58.51
444.54	51.49
444.73	91.28
444.91	37.45
445.10	53.83
445.28	39.79
445.47	49.15
445.65	42.13
445.84	70.22
446.02	128.73
446.21	23.41
446.39	53.83
446.58	21.06
446.77	9.36
446.95	0.00
447.14	70.22
447.32	65.54
447.51	126.39
447.69	77.24
447.88	138.09
448.06	74.90
448.25	70.22
448.43	25.75
448.62	30.43
448.80	74.90
448.99	81.92
449.17	63.19
449.36	0.00
449.54	60.85
449.73	81.92
449.91	72.56
450.10	63.19
450.28	18.72
450.46	32.77
450.65	46.81
450.83	42.13
451.02	25.75
451.20	25.75
451.39	100.64
451.57	70.22
451.76	77.24
451.94	14.04
452.13	44.47
452.31	72.56
452.49	74.90
452.68	49.15
452.86	30.43
453.05	0.00
453.23	128.73
453.42	74.90
453.60	124.05
453.78	16.38
453.97	56.17
454.15	70.22
454.34	121.71
454.52	100.64
454.70	107.66
454.89	0.00
455.07	67.88
455.26	18.72
455.44	16.38
455.62	65.54
455.81	30.43
455.99	23.41
456.17	63.19
456.36	37.45
456.54	42.13
456.73	0.00
456.91	28.09
457.09	30.43
457.28	44.47
457.46	51.49
457.64	72.56
457.83	74.90
458.01	114.69
458.19	105.32
458.38	23.41
458.56	58.51
458.74	49.15
458.93	112.35
459.11	14.04
459.29	65.54
459.48	28.09
459.66	25.75
459.84	138.09
460.03	51.49
460.21	37.45
460.39	7.02
460.57	95.96
460.76	91.28
460.94	81.92
461.12	86.60
461.31	53.83
461.49	102.98
461.67	77.24
461.85	117.03
462.04	91.28
462.22	124.05
462.40	60.85
462.59	30.43
462.77	42.13
462.95	74.90
463.13	39.79
463.32	72.56
463.50	39.79
463.68	46.81
463.86	25.75
464.05	21.06
464.23	49.15
464.41	81.92
464.59	114.69
464.78	21.06
464.96	72.56
465.14	49.15
465.32	65.54
465.50	32.77
465.69	58.51
465.87	79.58
466.05	7.02
466.23	140.43
466.41	110.01
466.60	32.77
466.78	16.38
466.96	72.56
467.14	42.13
467.32	7.02
467.51	86.60
467.69	37.45
467.87	46.81
468.05	9.36
468.23	77.24
468.41	77.24
468.60	93.62
468.78	72.56
468.96	79.58
469.14	98.30
469.32	0.00
469.50	37.45
469.69	105.32
469.87	86.60
470.05	91.28
470.23	49.15
470.41	0.00
470.59	53.83
470.77	39.79
470.95	88.94
471.14	119.37
471.32	102.98
471.50	4.68
471.68	65.54
471.86	58.51
472.04	74.90
472.22	0.00
472.40	49.15
472.58	72.56
472.77	95.96
472.95	0.00
473.13	49.15
473.31	77.24
473.49	44.47
473.67	32.77
473.85	93.62
474.03	79.58
474.21	72.56
474.39	37.45
474.57	42.13
474.75	37.45
474.93	14.04
475.12	110.01
475.30	112.35
475.48	53.83
475.66	46.81
475.84	65.54
476.02	44.47
476.20	28.09
476.38	72.56
476.56	81.92
476.74	0.00
476.92	117.03
477.10	84.26
477.28	63.19
477.46	0.00
477.64	128.73
477.82	100.64
478.00	4.68
478.18	124.05
478.36	72.56
478.54	30.43
478.72	28.09
478.90	14.04
479.08	37.45
479.26	74.90
479.44	84.26
479.62	107.66
479.80	21.06
479.98	46.81
480.16	128.73
480.34	110.01
480.52	49.15
480.70	9.36
480.88	16.38
481.06	35.11
481.24	30.43
481.41	0.00
481.59	0.00
481.77	60.85
481.95	39.79
482.13	16.38
482.31	32.77
482.49	23.41
482.67	84.26
482.85	81.92
483.03	49.15
483.21	42.13
483.39	102.98
483.57	81.92
483.74	51.49
483.92	65.54
484.10	58.51
484.28	93.62
484.46	37.45
484.64	46.81
484.82	25.75
485.00	9.36
485.18	11.70
485.35	32.77
485.53	161.50
485.71	0.00
485.89	74.90
486.07	56.17
486.25	60.85
486.43	79.58
486.61	74.90
486.78	70.22
486.96	63.19
487.14	58.51
487.32	84.26
487.50	25.75
487.68	58.51
487.85	35.11
488.03	91.28
488.21	102.98
488.39	107.66
488.57	60.85
488.75	110.01
488.92	102.98
489.10	70.22
489.28	86.60
489.46	84.26
489.64	7.02
489.81	100.64
489.99	32.77
490.17	53.83
490.35	126.39
490.53	100.64
490.70	93.62
490.88	65.54
491.06	72.56
491.24	74.90
491.41	74.90
491.59	93.62
491.77	30.43
491.95	21.06
492.13	67.88
492.30	98.30
492.48	42.13
492.66	74.90
492.84	60.85
493.01	81.92
493.19	46.81
493.37	37.45
493.54	25.75
493.72	49.15
493.90	56.17
494.08	105.32
494.25	49.15
494.43	44.47
494.61	86.60
494.79	72.56
494.96	81.92
495.14	81.92
495.32	65.54
495.49	42.13
495.67	91.28
495.85	65.54
496.02	133.41
496.20	37.45
496.38	105.32
496.55	74.90
496.73	100.64
496.91	72.56
497.09	58.51
497.26	44.47
497.44	79.58
497.62	102.98
497.79	168.52
497.97	98.30
498.14	14.04
498.32	121.71
498.50	107.66
498.67	112.35
498.85	105.32
499.03	112.35
499.20	77.24
499.38	102.98
499.56	117.03
499.73	67.88
499.91	88.94
500.08	95.96
500.26	77.24
500.44	0.00
500.61	56.17
500.79	77.24
500.97	86.60
501.14	142.77
501.32	16.38
501.49	114.69
501.67	105.32
501.84	88.94
502.02	65.54
502.20	107.66
502.37	23.41
502.55	128.73
502.72	42.13
502.90	28.09
503.07	79.58
503.25	81.92
503.43	39.79
503.60	79.58
503.78	21.06
503.95	56.17
504.13	67.88
504.30	46.81
504.48	84.26
504.65	65.54
504.83	42.13
505.01	46.81
505.18	95.96
505.36	110.01
505.53	124.05
505.71	98.30
505.88	114.69
506.06	11.70
506.23	37.45
506.41	95.96
506.58	121.71
506.76	37.45
506.93	98.30
507.11	93.62
507.28	93.62
507.46	81.92
507.63	128.73
507.81	77.24
507.98	56.17
508.16	9.36
508.33	65.54
508.50	81.92
508.68	14.04
508.85	112.35
509.03	65.54
509.20	81.92
509.38	42.13
509.55	131.07
509.73	154.48
509.90	98.30
510.08	77.24
510.25	86.60
510.42	74.90
510.60	84.26
510.77	60.85
510.95	112.35
511.12	119.37
511.30	4.68
511.47	60.85
511.64	88.94
511.82	70.22
511.99	77.24
512.17	102.98
512.34	102.98
512.51	28.09
512.69	46.81
512.86	49.15
513.04	42.13
513.21	51.49
513.38	84.26
513.56	126.39
513.73	63.19
513.90	112.35
514.08	56.17
514.25	100.64
514.43	154.48
514.60	32.77
514.77	37.45
514.95	44.47
515.12	95.96
515.29	147.45
515.47	110.01
515.64	74.90
515.81	67.88
515.99	147.45
516.16	70.22
516.33	65.54
516.51	30.43
516.68	112.35
516.85	37.45
517.03	35.11
517.20	119.37
517.37	84.26
517.54	46.81
517.72	138.09
517.89	86.60
518.06	4.68
518.24	67.88
518.41	49.15
518.58	56.17
518.75	0.00
518.93	44.47
519.10	131.07
519.27	74.90
519.45	0.00
519.62	117.03
519.79	14.04
519.96	124.05
520.14	79.58
520.31	110.01
520.48	53.83
520.65	4.68
520.83	88.94
521.00	81.92
521.17	70.22
521.34	74.90
521.52	65.54
521.69	35.11
521.86	49.15
522.03	107.66
522.20	42.13
522.38	91.28
522.55	91.28
522.72	100.64
522.89	126.39
523.07	53.83
523.24	4.68
523.41	95.96
523.58	112.35
523.75	88.94
523.92	77.24
524.10	63.19
524.27	77.24
524.44	53.83
524.61	58.51
524.78	44.47
524.96	65.54
525.13	114.69
525.30	46.81
525.47	35.11
525.64	131.07
525.81	102.98
525.98	79.58
526.16	72.56
526.33	74.90
526.50	16.38
526.67	91.28
526.84	201.29
527.01	23.41
527.18	91.28
527.36	112.35
527.53	105.32
527.70	105.32
527.87	37.45
528.04	86.60
528.21	46.81
528.38	105.32
528.55	28.09
528.72	67.88
528.89	117.03
529.07	98.30
529.24	49.15
529.41	32.77
529.58	30.43
529.75	93.62
529.92	74.90
530.09	9.36
530.26	95.96
530.43	0.00
530.60	63.19
530.77	114.69
530.94	81.92
531.11	126.39
531.28	30.43
531.46	63.19
531.63	95.96
531.80	42.13
531.97	102.98
532.14	100.64
532.31	110.01
532.48	163.84
532.65	121.71
532.82	72.56
532.99	51.49
533.16	58.51
533.33	56.17
533.50	86.60
533.67	63.19
533.84	119.37
534.01	173.20
534.18	37.45
534.35	105.32
534.52	51.49
534.69	98.30
534.86	91.28
535.03	49.15
535.20	58.51
535.37	72.56
535.54	60.85
535.71	23.41
535.88	49.15
536.05	107.66
536.22	119.37
536.38	70.22
536.55	72.56
536.72	84.26
536.89	37.45
537.06	0.00
537.23	102.98
537.40	149.79
537.57	88.94
537.74	23.41
537.91	16.38
538.08	72.56
538.25	95.96
538.42	95.96
538.59	18.72
538.75	60.85
538.92	49.15
539.09	98.30
539.26	138.09
539.43	91.28
539.60	98.30
539.77	84.26
539.94	18.72
540.11	35.11
540.28	124.05
540.44	142.77
540.61	44.47
540.78	105.32
540.95	138.09
541.12	35.11
541.29	110.01
541.46	156.82
541.62	74.90
541.79	39.79
541.96	60.85
542.13	110.01
542.30	100.64
542.47	32.77
542.63	119.37
542.80	65.54
542.97	88.94
543.14	56.17
543.31	100.64
543.48	79.58
543.64	93.62
543.81	77.24
543.98	95.96
544.15	149.79
544.32	23.41
544.48	128.73
544.65	168.52
544.82	119.37
544.99	67.88
545.16	88.94
545.32	7.02
545.49	53.83
545.66	0.00
545.83	72.56
546.00	88.94
546.16	135.75
546.33	95.96
546.50	112.35
546.67	110.01
546.83	58.51
547.00	133.41
547.17	58.51
547.34	25.75
547.50	91.28
547.67	81.92
547.84	117.03
548.00	102.98
548.17	81.92
548.34	114.69
548.51	84.26
548.67	133.41
548.84	56.17
549.01	30.43
549.18	21.06
549.34	126.39
549.51	79.58
549.68	44.47
549.84	107.66
550.01	25.75
550.18	128.73
550.34	133.41
550.51	145.11
550.68	72.56
550.84	142.77
551.01	49.15
551.18	37.45
551.34	81.92
551.51	60.85
551.68	110.01
551.84	25.75
552.01	110.01
552.18	152.13
552.34	72.56
552.51	65.54
552.68	44.47
552.84	98.30
553.01	91.28
553.18	119.37
553.34	35.11
553.51	93.62
553.67	42.13
553.84	88.94
554.01	56.17
554.17	44.47
554.34	44.47
554.51	84.26
554.67	117.03
554.84	84.26
555.00	23.41
555.17	121.71
555.33	138.09
555.50	91.28
555.67	74.90
555.83	110.01
556.00	16.38
556.16	93.62
556.33	72.56
556.50	100.64
556.66	65.54
556.83	74.90
556.99	46.81
557.16	63.19
557.32	49.15
557.49	65.54
557.65	138.09
557.82	91.28
557.98	0.00
558.15	102.98
558.32	105.32
558.48	49.15
558.65	18.72
558.81	0.00
558.98	28.09
559.14	114.69
559.31	105.32
559.47	154.48
559.64	53.83
559.80	79.58
559.97	88.94
560.13	67.88
560.30	98.30
560.46	44.47
560.63	14.04
560.79	145.11
560.96	37.45
561.12	23.41
561.29	102.98
561.45	84.26
561.61	79.58
561.78	93.62
561.94	105.32
562.11	126.39
562.27	79.58
562.44	98.30
562.60	65.54
562.77	105.32
562.93	70.22
563.10	152.13
563.26	67.88
563.42	124.05
563.59	2.34
563.75	37.45
563.92	191.92
564.08	98.30
564.24	25.75
564.41	58.51
564.57	18.72
564.74	79.58
564.90	7.02
565.07	98.30
565.23	105.32
565.39	110.01
565.56	105.32
565.72	77.24
565.88	102.98
566.05	4.68
566.21	65.54
566.38	107.66
566.54	65.54
566.70	7.02
566.87	39.79
567.03	112.35
567.19	107.66
567.36	32.77
567.52	79.58
567.68	100.64
567.85	126.39
568.01	107.66
568.17	0.00
568.34	0.00
568.50	46.81
568.66	102.98
568.83	107.66
568.99	60.85
569.15	49.15
569.32	88.94
569.48	18.72
569.64	37.45
569.81	51.49
569.97	84.26
570.13	91.28
570.30	72.56
570.46	102.98
570.62	63.19
570.78	95.96
570.95	126.39
571.11	121.71
571.27	100.64
571.43	86.60
571.60	46.81
571.76	105.32
571.92	95.96
572.09	88.94
572.25	67.88
572.41	67.88
572.57	11.70
572.74	102.98
572.90	56.17
573.06	100.64
573.22	65.54
573.38	30.43
573.55	67.88
573.71	51.49
573.87	74.90
574.03	98.30
574.20	77.24
574.36	74.90
574.52	131.07
574.68	30.43
574.84	42.13
575.01	100.64
575.17	49.15
575.33	39.79
575.49	98.30
575.65	60.85
575.82	51.49
575.98	37.45
576.14	93.62
576.30	79.58
576.46	11.70
576.62	46.81
576.79	187.24
576.95	81.92
577.11	67.88
577.27	67.88
577.43	126.39
577.59	117.03
577.75	70.22
577.92	121.71
578.08	84.26
578.24	77.24
578.40	105.32
578.56	102.98
578.72	49.15
578.88	107.66
579.04	63.19
579.21	53.83
579.37	77.24
579.53	140.43
579.69	140.43
579.85	98.30
580.01	128.73
580.17	35.11
580.33	84.26
580.49	0.00
580.65	102.98
580.82	67.88
580.98	77.24
581.14	84.26
581.30	102.98
581.46	58.51
581.62	70.22
581.78	135.75
581.94	46.81
582.10	70.22
582.26	105.32
582.42	11.70
582.58	23.41
582.74	107.66
582.90	39.79
583.06	56.17
583.22	14.04
583.38	72.56
583.54	105.32
583.70	102.98
583.86	114.69
584.02	65.54
584.18	77.24
584.34	84.26
584.50	107.66
584.66	42.13
584.82	86.60
584.98	65.54
585.14	67.88
585.30	77.24
585.46	39.79
585.62	84.26
585.78	77.24
585.94	121.71
586.10	114.69
586.26	9.36
586.42	107.66
586.58	142.77
586.74	30.43
586.90	25.75
587.06	46.81
587.22	88.94
587.38	51.49
587.54	39.79
587.70	49.15
587.86	65.54
588.02	0.00
588.18	119.37
588.34	98.30
588.49	49.15
588.65	117.03
588.81	105.32
588.97	30.43
589.13	149.79
589.29	58.51
589.45	124.05
589.61	112.35
589.77	77.24
589.93	53.83
590.08	91.28
590.24	37.45
590.40	0.00
590.56	0.00
590.72	37.45
590.88	18.72
591.04	98.30
591.20	84.26
591.35	37.45
591.51	88.94
591.67	65.54
591.83	79.58
591.99	98.30
592.15	98.30
592.31	110.01
592.46	46.81
592.62	44.47
592.78	84.26
592.94	53.83
593.10	58.51
593.26	65.54
593.41	2.34
593.57	28.09
593.73	74.90
593.89	84.26
594.05	49.15
594.20	0.00
594.36	88.94
594.52	44.47
594.68	95.96
594.84	16.38
594.99	98.30
595.15	65.54
595.31	100.64
595.47	46.81
595.62	49.15
595.78	63.19
595.94	100.64
596.10	32.77
596.25	114.69
596.41	149.79
596.57	51.49
596.73	107.66
596.88	11.70
597.04	105.32
597.20	42.13
597.36	72.56
597.51	70.22
597.67	72.56
597.83	112.35
597.99	119.37
598.14	30.43
598.30	84.26
598.46	100.64
598.61	133.41
598.77	79.58
598.93	119.37
599.09	133.41
599.24	0.00
599.40	93.62
599.56	67.88
599.71	16.38
599.87	102.98
600.03	79.58
600.18	65.54
600.34	0.00
600.50	0.00
600.65	112.35
600.81	138.09
600.97	0.00
601.12	28.09
601.28	135.75
601.44	131.07
601.59	74.90
601.75	81.92
601.91	56.17
602.06	98.30
602.22	81.92
602.37	21.06
602.53	72.56
602.69	30.43
602.84	51.49
603.00	42.13
603.16	0.00
603.31	135.75
603.47	91.28
603.62	63.19
603.78	149.79
603.94	60.85
604.09	117.03
604.25	56.17
604.40	18.72
604.56	42.13
604.71	77.24
604.87	21.06
605.03	58.51
605.18	49.15
605.34	21.06
605.49	74.90
605.65	110.01
605.80	46.81
605.96	133.41
606.12	37.45
606.27	28.09
606.43	7.02
606.58	49.15
606.74	37.45
606.89	133.41
607.05	46.81
607.20	63.19
607.36	0.00
607.51	65.54
607.67	98.30
607.82	35.11
607.98	70.22
608.13	56.17
608.29	77.24
608.44	39.79
608.60	0.00
608.75	152.13
608.91	49.15
609.06	135.75
609.22	21.06
609.37	51.49
609.53	124.05
609.68	44.47
609.84	147.45
609.99	84.26
610.15	84.26
610.30	107.66
610.46	79.58
610.61	79.58
610.76	53.83
610.92	95.96
611.07	18.72
611.23	84.26
611.38	49.15
611.54	86.60
611.69	72.56
611.84	46.81
612.00	93.62
612.15	37.45
612.31	11.70
612.46	53.83
612.62	21.06
612.77	77.24
612.92	51.49
613.08	32.77
613.23	74.90
613.39	95.96
613.54	74.90
613.69	79.58
613.85	86.60
614.00	46.81
614.15	30.43
614.31	107.66
614.46	74.90
614.62	88.94
614.77	56.17
614.92	25.75
615.08	0.00
615.23	42.13
615.38	70.22
615.54	65.54
615.69	37.45
615.84	53.83
616.00	117.03
616.15	88.94
616.30	56.17
616.46	51.49
616.61	72.56
616.76	86.60
616.92	39.79
617.07	79.58
617.22	84.26
617.37	46.81
617.53	30.43
617.68	28.09
617.83	58.51
617.99	65.54
618.14	110.01
618.29	42.13
618.45	30.43
618.60	105.32
618.75	37.45
618.90	4.68
619.06	49.15
619.21	32.77
619.36	44.47
619.51	49.15
619.67	44.47
619.82	42.13
619.97	49.15
620.12	81.92
620.28	74.90
620.43	0.00
620.58	28.09
620.73	39.79
620.89	107.66
621.04	77.24
621.19	98.30
621.34	0.00
621.49	133.41
621.65	46.81
621.80	28.09
621.95	65.54
622.10	2.34
622.25	49.15
622.41	67.88
622.56	35.11
622.71	0.00
622.86	35.11
623.01	63.19
623.16	72.56
623.32	39.79
623.47	49.15
623.62	39.79
623.77	0.00
623.92	60.85
624.07	60.85
624.23	79.58
624.38	21.06
624.53	39.79
624.68	72.56
624.83	0.00
624.98	63.19
625.13	95.96
625.29	84.26
625.44	77.24
625.59	0.00
625.74	0.00
625.89	11.70
626.04	42.13
626.19	37.45
626.34	11.70
626.49	138.09
626.65	81.92
626.80	7.02
626.95	46.81
627.10	39.79
627.25	0.00
627.40	25.75
627.55	65.54
627.70	25.75
627.85	86.60
628.00	74.90
628.15	86.60
628.30	0.00
628.45	79.58
628.60	58.51
628.76	39.79
628.91	100.64
629.06	58.51
629.21	44.47
629.36	0.00
629.51	35.11
629.66	124.05
629.81	23.41
629.96	44.47
630.11	65.54
630.26	60.85
630.41	0.00
630.56	77.24
630.71	4.68
630.86	18.72
631.01	105.32
631.16	63.19
631.31	93.62
631.46	110.01
631.61	131.07
631.76	39.79
631.91	72.56
632.06	46.81
632.21	72.56
632.36	56.17
632.51	0.00
632.66	49.15
632.81	74.90
632.96	63.19
633.10	21.06
633.25	53.83
633.40	63.19
633.55	72.56
633.70	102.98
633.85	63.19
634.00	46.81
634.15	21.06
634.30	117.03
634.45	84.26
634.60	72.56
634.75	42.13
634.90	67.88
635.05	58.51
635.19	25.75
635.34	95.96
635.49	110.01
635.64	100.64
635.79	37.45
635.94	21.06
636.09	88.94
636.24	77.24
636.39	16.38
636.53	21.06
636.68	88.94
636.83	65.54
636.98	35.11
637.13	77.24
637.28	2.34
637.43	14.04
637.57	25.75
637.72	28.09
637.87	65.54
638.02	70.22
638.17	30.43
638.32	63.19
638.46	9.36
638.61	7.02
638.76	79.58
638.91	81.92
639.06	16.38
639.20	49.15
639.35	74.90
639.50	46.81
639.65	42.13
639.80	21.06
639.94	81.92
640.09	53.83
640.24	49.15
640.39	74.90
640.54	86.60
640.68	93.62
640.83	7.02
640.98	107.66
641.13	58.51
641.27	74.90
641.42	100.64
641.57	93.62
641.72	16.38
641.86	107.66
642.01	53.83
642.16	84.26
642.31	42.13
642.45	100.64
642.60	58.51
642.75	23.41
642.90	11.70
643.04	74.90
643.19	37.45
643.34	51.49
643.48	121.71
643.63	11.70
643.78	91.28
643.93	44.47
644.07	25.75
644.22	32.77
644.37	49.15
644.51	14.04
644.66	39.79
644.81	84.26
644.95	86.60
645.10	72.56
645.25	9.36
645.39	79.58
645.54	65.54
645.69	95.96
645.83	30.43
645.98	70.22
646.13	77.24
646.27	81.92
646.42	32.77
646.57	149.79
646.71	77.24
646.86	51.49
647.00	21.06
647.15	39.79
647.30	16.38
647.44	56.17
647.59	65.54
647.74	65.54
647.88	0.00
648.03	79.58
648.17	11.70
648.32	51.49
648.47	60.85
648.61	88.94
648.76	0.00
648.90	46.81
649.05	21.06
649.20	11.70
649.34	11.70
649.49	11.70
649.63	91.28
649.78	23.41
649.92	67.88
650.07	46.81
650.21	84.26
650.36	0.00
650.51	98.30
650.65	79.58
650.80	32.77
650.94	11.70
651.09	53.83
651.23	35.11
651.38	25.75
651.52	32.77
651.67	18.72
651.81	60.85
651.96	32.77
652.10	37.45
652.25	35.11
652.39	53.83
652.54	11.70
652.68	95.96
652.83	74.90
652.97	53.83
653.12	65.54
653.26	18.72
653.41	60.85
653.55	63.19
653.70	81.92
653.84	121.71
653.99	51.49
654.13	0.00
654.27	63.19
654.42	25.75
654.56	63.19
654.71	56.17
654.85	4.68
655.00	58.51
655.14	39.79
655.29	42.13
655.43	79.58
655.57	72.56
655.72	46.81
655.86	44.47
656.01	77.24
656.15	49.15
656.30	0.00
656.44	14.04
656.58	30.43
656.73	79.58
656.87	65.54
657.01	74.90
657.16	0.00
657.30	53.83
657.45	105.32
657.59	0.00
657.73	11.70
657.88	72.56
658.02	42.13
658.16	9.36
658.31	46.81
658.45	32.77
658.60	84.26
658.74	23.41
658.88	91.28
659.03	44.47
659.17	0.00
659.31	0.00
659.46	86.60
659.60	100.64
659.74	35.11
659.89	0.00
660.03	2.34
660.17	88.94
660.32	16.38
660.46	98.30
660.60	42.13
660.74	32.77
660.89	84.26
661.03	18.72
661.17	63.19
661.32	70.22
661.46	70.22
661.60	37.45
661.74	51.49
661.89	53.83
662.03	30.43
662.17	2.34
662.31	0.00
662.46	112.35
662.60	100.64
662.74	63.19
662.88	166.18
663.03	100.64
663.17	53.83
663.31	117.03
663.45	0.00
663.60	51.49
663.74	58.51
663.88	0.00
664.02	53.83
664.17	37.45
664.31	60.85
664.45	0.00
664.59	28.09
664.73	21.06
664.88	16.38
665.02	56.17
665.16	119.37
665.30	39.79
665.44	65.54
665.59	60.85
665.73	91.28
665.87	4.68
666.01	16.38
666.15	58.51
666.29	7.02
666.44	67.88
666.58	23.41
666.72	65.54
666.86	49.15
667.00	46.81
667.14	42.13
667.28	42.13
667.43	0.00
667.57	16.38
667.71	58.51
667.85	63.19
667.99	56.17
668.13	9.36
668.27	95.96
668.41	30.43
668.56	51.49
668.70	39.79
668.84	51.49
668.98	110.01
669.12	0.00
669.26	93.62
669.40	32.77
669.54	79.58
669.68	56.17
669.82	67.88
669.96	44.47
670.10	74.90
670.25	39.79
670.39	56.17
670.53	74.90
670.67	42.13
670.81	37.45
670.95	91.28
671.09	63.19
671.23	0.00
671.37	18.72
671.51	51.49
671.65	9.36
671.79	0.00
671.93	25.75
672.07	63.19
672.21	154.48
672.35	81.92
672.49	79.58
672.63	102.98
672.77	58.51
672.91	44.47
673.05	28.09
673.19	37.45
673.33	56.17
673.47	42.13
673.61	37.45
673.75	14.04
673.89	102.98
674.03	49.15
674.17	51.49
674.31	60.85
674.45	91.28
674.59	77.24
674.73	70.22
674.87	53.83
675.01	32.77
675.15	65.54
675.29	77.24
675.43	35.11
675.56	53.83
675.70	56.17
675.84	32.77
675.98	95.96
676.12	21.06
676.26	0.00
676.40	53.83
676.54	39.79
676.68	86.60
676.82	0.00
676.96	77.24
677.10	105.32
677.23	63.19
677.37	56.17
677.51	42.13
677.65	138.09
677.79	28.09
677.93	37.45
678.07	49.15
678.21	30.43
678.34	79.58
678.48	30.43
678.62	0.00
678.76	18.72
678.90	25.75
679.04	105.32
679.18	56.17
679.31	60.85
679.45	65.54
679.59	46.81
679.73	0.00
679.87	77.24
680.00	65.54
680.14	0.00
680.28	79.58
680.42	0.00
680.56	74.90
680.70	74.90
680.83	32.77
680.97	0.00
681.11	37.45
681.25	63.19
681.39	39.79
681.52	44.47
681.66	0.00
681.80	35.11
681.94	0.00
682.07	14.04
682.21	107.66
682.35	0.00
682.49	28.09
682.62	91.28
682.76	56.17
682.90	37.45
683.04	37.45
683.17	46.81
683.31	95.96
683.45	105.32
683.59	9.36
683.72	91.28
683.86	84.26
684.00	37.45
684.13	81.92
684.27	23.41
684.41	11.70
684.55	9.36
684.68	35.11
684.82	100.64
684.96	0.00
685.09	32.77
685.23	51.49
685.37	0.00
685.50	18.72
685.64	32.77
685.78	9.36
685.91	79.58
686.05	79.58
686.19	88.94
686.32	100.64
686.46	14.04
686.60	46.81
686.73	16.38
686.87	56.17
687.01	63.19
687.14	9.36
687.28	25.75
687.42	28.09
687.55	51.49
687.69	16.38
687.82	0.00
687.96	23.41
688.10	56.17
688.23	0.00
688.37	0.00
688.50	51.49
688.64	93.62
688.78	0.00
688.91	51.49
689.05	21.06
689.18	30.43
689.32	79.58
689.46	65.54
689.59	56.17
689.73	44.47
689.86	14.04
690.00	0.00
690.13	11.70
690.27	0.00
690.41	11.70
690.54	0.00
690.68	16.38
690.81	74.90
690.95	42.13
691.08	42.13
691.22	16.38
691.35	35.11
691.49	65.54
691.62	79.58
691.76	30.43
691.89	51.49
692.03	53.83
692.16	39.79
692.30	102.98
692.43	32.77
692.57	0.00
692.70	0.00
692.84	119.37
692.97	46.81
693.11	23.41
693.24	39.79
693.38	39.79
693.51	100.64
693.65	51.49
693.78	30.43
693.92	9.36
694.05	4.68
694.19	0.00
694.32	0.00
694.45	88.94
694.59	0.00
694.72	95.96
694.86	65.54
694.99	46.81
695.13	0.00
695.26	72.56
695.39	0.00
695.53	4.68
695.66	30.43
695.80	81.92
695.93	21.06
696.07	44.47
696.20	35.11
696.33	14.04
696.47	0.00
696.60	51.49
696.73	79.58
696.87	0.00
697.00	28.09
697.14	7.02
697.27	9.36
697.40	39.79
697.54	25.75
697.67	9.36
697.80	56.17
697.94	32.77
698.07	44.47
698.21	79.58
698.34	46.81
698.47	7.02
698.61	28.09
698.74	0.00
698.87	42.13
699.01	0.00
699.14	0.00
699.27	14.04
699.40	77.24
699.54	67.88
699.67	0.00
699.80	117.03
699.94	2.34
700.07	18.72
700.20	51.49
700.34	67.88
700.47	42.13
700.60	107.66
700.73	2.34
700.87	107.66
701.00	100.64
701.13	63.19
701.26	7.02
701.40	49.15
701.53	0.00
701.66	32.77
701.79	35.11
701.93	30.43
702.06	21.06
702.19	32.77
702.32	21.06
702.46	32.77
702.59	37.45
702.72	93.62
702.85	23.41
702.99	4.68
703.12	0.00
703.25	84.26
703.38	39.79
703.51	14.04
703.65	23.41
703.78	72.56
703.91	0.00
704.04	46.81
704.17	0.00
704.31	44.47
704.44	77.24
704.57	42.13
704.70	0.00
704.83	0.00
704.96	72.56
705.10	56.17
705.23	112.35
>>>>>End Processed Spectral Data<<<<<
