SpectraSuite Data File
++++++++++++++++++++++++++++++++++++
Date: Tue Oct 01 18:25:09 GMT-05:00 2013
User: stostad
Dark Spectrum Present: No
Reference Spectrum Present: No
Number of Sampled Component Spectra: 1
Spectrometers: USB2+H05261
Integration Time (usec): 100000 (USB2+H05261)
Spectra Averaged: 1 (USB2+H05261)
Boxcar Smoothing: 0 (USB2+H05261)
Correct for Electrical Dark: No (USB2+H05261)
Strobe/Lamp Enabled: No (USB2+H05261)
Correct for Detector Non-linearity: No (USB2+H05261)
Correct for Stray Light: No (USB2+H05261)
Number of Pixels in Processed Spectrum: 2048
>>>>>Begin Processed Spectral Data<<<<<
365.73	112.35
365.92	112.35
366.12	112.35
366.32	28.09
366.52	25.75
366.72	11.70
366.91	0.00
367.11	42.13
367.31	0.00
367.51	21.06
367.70	0.00
367.90	0.00
368.10	0.00
368.30	0.00
368.49	0.00
368.69	0.00
368.89	0.00
369.09	0.00
369.28	0.00
369.48	0.00
369.68	14.04
369.87	65.54
370.07	79.58
370.27	35.11
370.47	79.58
370.66	95.96
370.86	93.62
371.06	194.26
371.25	100.64
371.45	51.49
371.65	117.03
371.84	51.49
372.04	67.88
372.24	154.48
372.44	37.45
372.63	77.24
372.83	93.62
373.03	14.04
373.22	145.11
373.42	133.41
373.62	77.24
373.81	196.60
374.01	156.82
374.21	114.69
374.40	135.75
374.60	166.18
374.79	84.26
374.99	133.41
375.19	79.58
375.38	154.48
375.58	128.73
375.78	182.56
375.97	187.24
376.17	152.13
376.37	135.75
376.56	112.35
376.76	77.24
376.95	67.88
377.15	170.86
377.35	163.84
377.54	138.09
377.74	95.96
377.93	170.86
378.13	156.82
378.33	159.16
378.52	117.03
378.72	166.18
378.91	88.94
379.11	135.75
379.31	88.94
379.50	154.48
379.70	163.84
379.89	180.22
380.09	102.98
380.28	159.16
380.48	135.75
380.68	4.68
380.87	117.03
381.07	168.52
381.26	269.16
381.46	163.84
381.65	110.01
381.85	119.37
382.04	114.69
382.24	53.83
382.43	93.62
382.63	168.52
382.83	110.01
383.02	126.39
383.22	156.82
383.41	135.75
383.61	88.94
383.80	91.28
384.00	135.75
384.19	128.73
384.39	159.16
384.58	117.03
384.78	138.09
384.97	161.50
385.17	124.05
385.36	182.56
385.56	128.73
385.75	135.75
385.95	152.13
386.14	163.84
386.34	149.79
386.53	173.20
386.72	159.16
386.92	133.41
387.11	177.88
387.31	166.18
387.50	126.39
387.70	147.45
387.89	156.82
388.09	84.26
388.28	154.48
388.48	154.48
388.67	67.88
388.86	93.62
389.06	114.69
389.25	161.50
389.45	145.11
389.64	91.28
389.84	112.35
390.03	173.20
390.22	166.18
390.42	175.54
390.61	98.30
390.81	88.94
391.00	95.96
391.19	262.14
391.39	154.48
391.58	114.69
391.78	201.29
391.97	145.11
392.16	95.96
392.36	163.84
392.55	119.37
392.75	147.45
392.94	203.63
393.13	182.56
393.33	110.01
393.52	112.35
393.71	189.58
393.91	102.98
394.10	180.22
394.29	147.45
394.49	114.69
394.68	156.82
394.88	147.45
395.07	135.75
395.26	149.79
395.46	194.26
395.65	135.75
395.84	135.75
396.04	170.86
396.23	121.71
396.42	138.09
396.62	194.26
396.81	201.29
397.00	53.83
397.19	124.05
397.39	60.85
397.58	184.90
397.77	131.07
397.97	117.03
398.16	88.94
398.35	159.16
398.55	187.24
398.74	95.96
398.93	145.11
399.12	128.73
399.32	145.11
399.51	105.32
399.70	133.41
399.90	74.90
400.09	63.19
400.28	159.16
400.47	145.11
400.67	161.50
400.86	100.64
401.05	152.13
401.24	163.84
401.44	194.26
401.63	117.03
401.82	161.50
402.01	145.11
402.21	140.43
402.40	140.43
402.59	100.64
402.78	93.62
402.97	138.09
403.17	159.16
403.36	149.79
403.55	138.09
403.74	117.03
403.93	138.09
404.13	159.16
404.32	163.84
404.51	159.16
404.70	182.56
404.89	112.35
405.09	175.54
405.28	194.26
405.47	110.01
405.66	124.05
405.85	184.90
406.05	194.26
406.24	152.13
406.43	149.79
406.62	117.03
406.81	220.01
407.00	152.13
407.20	88.94
407.39	79.58
407.58	154.48
407.77	149.79
407.96	166.18
408.15	112.35
408.34	145.11
408.54	124.05
408.73	152.13
408.92	126.39
409.11	191.92
409.30	79.58
409.49	100.64
409.68	159.16
409.87	149.79
410.07	149.79
410.26	112.35
410.45	196.60
410.64	102.98
410.83	161.50
411.02	105.32
411.21	112.35
411.40	175.54
411.59	119.37
411.78	126.39
411.98	100.64
412.17	121.71
412.36	126.39
412.55	98.30
412.74	166.18
412.93	166.18
413.12	98.30
413.31	84.26
413.50	88.94
413.69	124.05
413.88	145.11
414.07	173.20
414.26	191.92
414.45	65.54
414.64	201.29
414.83	91.28
415.02	145.11
415.22	168.52
415.41	154.48
415.60	114.69
415.79	236.39
415.98	147.45
416.17	135.75
416.36	184.90
416.55	51.49
416.74	182.56
416.93	159.16
417.12	117.03
417.31	102.98
417.50	142.77
417.69	191.92
417.88	159.16
418.07	107.66
418.26	175.54
418.45	201.29
418.64	220.01
418.83	135.75
419.02	112.35
419.21	177.88
419.39	128.73
419.58	142.77
419.77	124.05
419.96	191.92
420.15	161.50
420.34	135.75
420.53	140.43
420.72	180.22
420.91	170.86
421.10	154.48
421.29	177.88
421.48	156.82
421.67	133.41
421.86	126.39
422.05	173.20
422.24	210.65
422.43	105.32
422.61	121.71
422.80	191.92
422.99	159.16
423.18	133.41
423.37	119.37
423.56	163.84
423.75	93.62
423.94	46.81
424.13	152.13
424.32	163.84
424.50	117.03
424.69	194.26
424.88	187.24
425.07	107.66
425.26	147.45
425.45	159.16
425.64	142.77
425.83	147.45
426.01	114.69
426.20	147.45
426.39	163.84
426.58	142.77
426.77	124.05
426.96	159.16
427.15	119.37
427.33	114.69
427.52	86.60
427.71	159.16
427.90	93.62
428.09	128.73
428.28	203.63
428.46	112.35
428.65	142.77
428.84	128.73
429.03	105.32
429.22	147.45
429.40	180.22
429.59	98.30
429.78	149.79
429.97	180.22
430.16	105.32
430.34	126.39
430.53	98.30
430.72	196.60
430.91	117.03
431.10	170.86
431.28	100.64
431.47	100.64
431.66	152.13
431.85	114.69
432.03	135.75
432.22	201.29
432.41	145.11
432.60	79.58
432.79	166.18
432.97	210.65
433.16	180.22
433.35	161.50
433.54	170.86
433.72	107.66
433.91	215.33
434.10	161.50
434.28	184.90
434.47	163.84
434.66	170.86
434.85	135.75
435.03	93.62
435.22	124.05
435.41	138.09
435.59	175.54
435.78	105.32
435.97	131.07
436.16	152.13
436.34	107.66
436.53	65.54
436.72	229.37
436.90	180.22
437.09	180.22
437.28	138.09
437.46	191.92
437.65	161.50
437.84	194.26
438.02	161.50
438.21	175.54
438.40	117.03
438.58	114.69
438.77	168.52
438.96	163.84
439.14	84.26
439.33	203.63
439.52	81.92
439.70	140.43
439.89	163.84
440.08	98.30
440.26	161.50
440.45	140.43
440.63	201.29
440.82	74.90
441.01	140.43
441.19	184.90
441.38	81.92
441.57	128.73
441.75	175.54
441.94	173.20
442.12	105.32
442.31	88.94
442.50	166.18
442.68	79.58
442.87	67.88
443.05	154.48
443.24	163.84
443.43	222.35
443.61	166.18
443.80	154.48
443.98	105.32
444.17	140.43
444.35	163.84
444.54	110.01
444.73	140.43
444.91	102.98
445.10	112.35
445.28	105.32
445.47	93.62
445.65	100.64
445.84	117.03
446.02	126.39
446.21	140.43
446.39	77.24
446.58	100.64
446.77	63.19
446.95	105.32
447.14	74.90
447.32	102.98
447.51	86.60
447.69	149.79
447.88	135.75
448.06	161.50
448.25	140.43
448.43	100.64
448.62	91.28
448.80	91.28
448.99	154.48
449.17	77.24
449.36	117.03
449.54	208.31
449.73	140.43
449.91	88.94
450.10	107.66
450.28	166.18
450.46	217.67
450.65	102.98
450.83	175.54
451.02	131.07
451.20	100.64
451.39	119.37
451.57	84.26
451.76	142.77
451.94	124.05
452.13	131.07
452.31	208.31
452.49	135.75
452.68	128.73
452.86	159.16
453.05	147.45
453.23	91.28
453.42	175.54
453.60	102.98
453.78	224.69
453.97	91.28
454.15	107.66
454.34	107.66
454.52	93.62
454.70	149.79
454.89	145.11
455.07	180.22
455.26	166.18
455.44	112.35
455.62	166.18
455.81	112.35
455.99	114.69
456.17	182.56
456.36	154.48
456.54	138.09
456.73	93.62
456.91	110.01
457.09	154.48
457.28	191.92
457.46	145.11
457.64	203.63
457.83	149.79
458.01	117.03
458.19	156.82
458.38	212.99
458.56	180.22
458.74	135.75
458.93	152.13
459.11	135.75
459.29	140.43
459.48	133.41
459.66	159.16
459.84	95.96
460.03	177.88
460.21	180.22
460.39	159.16
460.57	53.83
460.76	177.88
460.94	117.03
461.12	166.18
461.31	142.77
461.49	121.71
461.67	114.69
461.85	142.77
462.04	88.94
462.22	557.05
462.40	166.18
462.59	198.95
462.77	114.69
462.95	217.67
463.13	60.85
463.32	156.82
463.50	128.73
463.68	98.30
463.86	105.32
464.05	173.20
464.23	145.11
464.41	168.52
464.59	184.90
464.78	156.82
464.96	117.03
465.14	128.73
465.32	107.66
465.50	133.41
465.69	154.48
465.87	156.82
466.05	159.16
466.23	147.45
466.41	175.54
466.60	98.30
466.78	117.03
466.96	147.45
467.14	135.75
467.32	163.84
467.51	138.09
467.69	124.05
467.87	229.37
468.05	189.58
468.23	191.92
468.41	198.95
468.60	107.66
468.78	142.77
468.96	152.13
469.14	152.13
469.32	121.71
469.50	77.24
469.69	177.88
469.87	105.32
470.05	114.69
470.23	145.11
470.41	128.73
470.59	163.84
470.77	154.48
470.95	184.90
471.14	184.90
471.32	180.22
471.50	161.50
471.68	105.32
471.86	166.18
472.04	95.96
472.22	124.05
472.40	110.01
472.58	163.84
472.77	205.97
472.95	77.24
473.13	191.92
473.31	194.26
473.49	175.54
473.67	163.84
473.85	154.48
474.03	121.71
474.21	161.50
474.39	128.73
474.57	182.56
474.75	133.41
474.93	95.96
475.12	126.39
475.30	124.05
475.48	175.54
475.66	110.01
475.84	110.01
476.02	156.82
476.20	212.99
476.38	166.18
476.56	231.71
476.74	124.05
476.92	135.75
477.10	117.03
477.28	154.48
477.46	177.88
477.64	117.03
477.82	112.35
478.00	107.66
478.18	112.35
478.36	147.45
478.54	163.84
478.72	170.86
478.90	124.05
479.08	142.77
479.26	112.35
479.44	70.22
479.62	74.90
479.80	119.37
479.98	112.35
480.16	138.09
480.34	220.01
480.52	126.39
480.70	88.94
480.88	119.37
481.06	128.73
481.24	81.92
481.41	72.56
481.59	67.88
481.77	56.17
481.95	119.37
482.13	212.99
482.31	91.28
482.49	72.56
482.67	166.18
482.85	184.90
483.03	135.75
483.21	161.50
483.39	107.66
483.57	84.26
483.74	227.03
483.92	95.96
484.10	88.94
484.28	67.88
484.46	222.35
484.64	121.71
484.82	105.32
485.00	159.16
485.18	142.77
485.35	121.71
485.53	140.43
485.71	117.03
485.89	105.32
486.07	121.71
486.25	220.01
486.43	205.97
486.61	147.45
486.78	135.75
486.96	177.88
487.14	135.75
487.32	236.39
487.50	100.64
487.68	180.22
487.85	102.98
488.03	154.48
488.21	184.90
488.39	145.11
488.57	119.37
488.75	124.05
488.92	283.20
489.10	175.54
489.28	191.92
489.46	147.45
489.64	166.18
489.81	110.01
489.99	201.29
490.17	142.77
490.35	126.39
490.53	145.11
490.70	131.07
490.88	88.94
491.06	124.05
491.24	135.75
491.41	149.79
491.59	173.20
491.77	32.77
491.95	124.05
492.13	156.82
492.30	173.20
492.48	112.35
492.66	182.56
492.84	74.90
493.01	156.82
493.19	135.75
493.37	152.13
493.54	114.69
493.72	189.58
493.90	114.69
494.08	98.30
494.25	117.03
494.43	166.18
494.61	86.60
494.79	140.43
494.96	74.90
495.14	133.41
495.32	117.03
495.49	98.30
495.67	154.48
495.85	121.71
496.02	154.48
496.20	208.31
496.38	168.52
496.55	117.03
496.73	74.90
496.91	79.58
497.09	140.43
497.26	105.32
497.44	11.70
497.62	95.96
497.79	114.69
497.97	147.45
498.14	170.86
498.32	121.71
498.50	170.86
498.67	124.05
498.85	39.79
499.03	145.11
499.20	131.07
499.38	93.62
499.56	177.88
499.73	147.45
499.91	175.54
500.08	152.13
500.26	184.90
500.44	102.98
500.61	177.88
500.79	212.99
500.97	107.66
501.14	168.52
501.32	105.32
501.49	175.54
501.67	65.54
501.84	138.09
502.02	117.03
502.20	149.79
502.37	159.16
502.55	170.86
502.72	72.56
502.90	224.69
503.07	168.52
503.25	140.43
503.43	189.58
503.60	198.95
503.78	133.41
503.95	152.13
504.13	126.39
504.30	173.20
504.48	184.90
504.65	163.84
504.83	229.37
505.01	105.32
505.18	114.69
505.36	121.71
505.53	142.77
505.71	138.09
505.88	166.18
506.06	121.71
506.23	170.86
506.41	128.73
506.58	147.45
506.76	86.60
506.93	121.71
507.11	110.01
507.28	91.28
507.46	124.05
507.63	100.64
507.81	88.94
507.98	222.35
508.16	170.86
508.33	126.39
508.50	154.48
508.68	166.18
508.85	74.90
509.03	102.98
509.20	133.41
509.38	121.71
509.55	149.79
509.73	154.48
509.90	117.03
510.08	121.71
510.25	156.82
510.42	147.45
510.60	138.09
510.77	250.44
510.95	154.48
511.12	203.63
511.30	161.50
511.47	196.60
511.64	201.29
511.82	168.52
511.99	173.20
512.17	98.30
512.34	128.73
512.51	156.82
512.69	135.75
512.86	180.22
513.04	159.16
513.21	175.54
513.38	42.13
513.56	107.66
513.73	95.96
513.90	107.66
514.08	177.88
514.25	117.03
514.43	163.84
514.60	117.03
514.77	65.54
514.95	128.73
515.12	173.20
515.29	210.65
515.47	177.88
515.64	65.54
515.81	91.28
515.99	166.18
516.16	142.77
516.33	119.37
516.51	124.05
516.68	133.41
516.85	175.54
517.03	81.92
517.20	124.05
517.37	198.95
517.54	152.13
517.72	131.07
517.89	184.90
518.06	156.82
518.24	187.24
518.41	187.24
518.58	189.58
518.75	173.20
518.93	182.56
519.10	161.50
519.27	138.09
519.45	102.98
519.62	142.77
519.79	88.94
519.96	98.30
520.14	135.75
520.31	194.26
520.48	126.39
520.65	117.03
520.83	215.33
521.00	166.18
521.17	138.09
521.34	166.18
521.52	100.64
521.69	217.67
521.86	145.11
522.03	194.26
522.20	180.22
522.38	128.73
522.55	124.05
522.72	112.35
522.89	114.69
523.07	175.54
523.24	124.05
523.41	119.37
523.58	142.77
523.75	70.22
523.92	112.35
524.10	182.56
524.27	93.62
524.44	166.18
524.61	168.52
524.78	154.48
524.96	180.22
525.13	203.63
525.30	110.01
525.47	128.73
525.64	138.09
525.81	189.58
525.98	191.92
526.16	145.11
526.33	114.69
526.50	117.03
526.67	154.48
526.84	149.79
527.01	135.75
527.18	163.84
527.36	173.20
527.53	102.98
527.70	105.32
527.87	159.16
528.04	166.18
528.21	140.43
528.38	170.86
528.55	154.48
528.72	163.84
528.89	133.41
529.07	117.03
529.24	67.88
529.41	128.73
529.58	156.82
529.75	142.77
529.92	161.50
530.09	201.29
530.26	191.92
530.43	180.22
530.60	182.56
530.77	142.77
530.94	145.11
531.11	79.58
531.28	161.50
531.46	51.49
531.63	159.16
531.80	145.11
531.97	163.84
532.14	126.39
532.31	128.73
532.48	166.18
532.65	205.97
532.82	208.31
532.99	184.90
533.16	198.95
533.33	177.88
533.50	201.29
533.67	196.60
533.84	255.12
534.01	175.54
534.18	161.50
534.35	138.09
534.52	201.29
534.69	187.24
534.86	51.49
535.03	140.43
535.20	102.98
535.37	126.39
535.54	142.77
535.71	149.79
535.88	142.77
536.05	184.90
536.22	131.07
536.38	154.48
536.55	173.20
536.72	117.03
536.89	117.03
537.06	16.38
537.23	102.98
537.40	128.73
537.57	173.20
537.74	149.79
537.91	149.79
538.08	175.54
538.25	145.11
538.42	91.28
538.59	121.71
538.75	88.94
538.92	70.22
539.09	210.65
539.26	128.73
539.43	299.59
539.60	624.92
539.77	875.36
539.94	662.37
540.11	414.27
540.28	290.23
540.44	276.18
540.61	210.65
540.78	119.37
540.95	210.65
541.12	210.65
541.29	102.98
541.46	159.16
541.62	170.86
541.79	159.16
541.96	117.03
542.13	110.01
542.30	107.66
542.47	149.79
542.63	119.37
542.80	191.92
542.97	177.88
543.14	46.81
543.31	81.92
543.48	58.51
543.64	147.45
543.81	51.49
543.98	72.56
544.15	156.82
544.32	107.66
544.48	138.09
544.65	173.20
544.82	182.56
544.99	170.86
545.16	170.86
545.32	77.24
545.49	147.45
545.66	147.45
545.83	88.94
546.00	128.73
546.16	128.73
546.33	121.71
546.50	182.56
546.67	210.65
546.83	145.11
547.00	133.41
547.17	145.11
547.34	170.86
547.50	210.65
547.67	163.84
547.84	170.86
548.00	161.50
548.17	161.50
548.34	124.05
548.51	147.45
548.67	140.43
548.84	142.77
549.01	135.75
549.18	152.13
549.34	201.29
549.51	140.43
549.68	121.71
549.84	117.03
550.01	182.56
550.18	217.67
550.34	217.67
550.51	205.97
550.68	285.55
550.84	112.35
551.01	154.48
551.18	182.56
551.34	100.64
551.51	236.39
551.68	102.98
551.84	140.43
552.01	93.62
552.18	173.20
552.34	117.03
552.51	147.45
552.68	198.95
552.84	177.88
553.01	149.79
553.18	100.64
553.34	81.92
553.51	124.05
553.67	149.79
553.84	175.54
554.01	217.67
554.17	173.20
554.34	65.54
554.51	105.32
554.67	168.52
554.84	145.11
555.00	86.60
555.17	173.20
555.33	131.07
555.50	70.22
555.67	238.73
555.83	177.88
556.00	166.18
556.16	285.55
556.33	107.66
556.50	145.11
556.66	170.86
556.83	173.20
556.99	91.28
557.16	95.96
557.32	163.84
557.49	91.28
557.65	149.79
557.82	121.71
557.98	138.09
558.15	133.41
558.32	145.11
558.48	91.28
558.65	117.03
558.81	102.98
558.98	152.13
559.14	163.84
559.31	203.63
559.47	210.65
559.64	168.52
559.80	95.96
559.97	152.13
560.13	166.18
560.30	145.11
560.46	91.28
560.63	154.48
560.79	189.58
560.96	161.50
561.12	191.92
561.29	189.58
561.45	117.03
561.61	147.45
561.78	297.25
561.94	159.16
562.11	145.11
562.27	102.98
562.44	133.41
562.60	119.37
562.77	95.96
562.93	184.90
563.10	81.92
563.26	196.60
563.42	152.13
563.59	184.90
563.75	126.39
563.92	112.35
564.08	124.05
564.24	135.75
564.41	210.65
564.57	163.84
564.74	100.64
564.90	156.82
565.07	154.48
565.23	119.37
565.39	86.60
565.56	217.67
565.72	173.20
565.88	161.50
566.05	81.92
566.21	142.77
566.38	98.30
566.54	154.48
566.70	142.77
566.87	170.86
567.03	98.30
567.19	133.41
567.36	107.66
567.52	105.32
567.68	140.43
567.85	124.05
568.01	102.98
568.17	121.71
568.34	152.13
568.50	203.63
568.66	154.48
568.83	187.24
568.99	98.30
569.15	142.77
569.32	119.37
569.48	217.67
569.64	142.77
569.81	81.92
569.97	159.16
570.13	117.03
570.30	105.32
570.46	154.48
570.62	180.22
570.78	154.48
570.95	191.92
571.11	133.41
571.27	126.39
571.43	166.18
571.60	128.73
571.76	91.28
571.92	149.79
572.09	100.64
572.25	126.39
572.41	166.18
572.57	86.60
572.74	191.92
572.90	241.08
573.06	147.45
573.22	79.58
573.38	220.01
573.55	215.33
573.71	170.86
573.87	161.50
574.03	126.39
574.20	114.69
574.36	191.92
574.52	154.48
574.68	194.26
574.84	168.52
575.01	161.50
575.17	159.16
575.33	147.45
575.49	168.52
575.65	184.90
575.82	262.14
575.98	348.74
576.14	428.32
576.30	283.20
576.46	269.16
576.62	191.92
576.79	180.22
576.95	100.64
577.11	77.24
577.27	84.26
577.43	142.77
577.59	217.67
577.75	140.43
577.92	182.56
578.08	138.09
578.24	215.33
578.40	159.16
578.56	131.07
578.72	124.05
578.88	257.46
579.04	133.41
579.21	147.45
579.37	149.79
579.53	166.18
579.69	138.09
579.85	166.18
580.01	231.71
580.17	201.29
580.33	238.73
580.49	201.29
580.65	210.65
580.82	248.10
580.98	133.41
581.14	156.82
581.30	259.80
581.46	215.33
581.62	241.08
581.78	304.27
581.94	227.03
582.10	152.13
582.26	194.26
582.42	212.99
582.58	264.48
582.74	280.86
582.90	227.03
583.06	259.80
583.22	229.37
583.38	269.16
583.54	210.65
583.70	369.80
583.86	447.04
584.02	360.44
584.18	620.24
584.34	1029.84
584.50	6773.51
584.66	23332.80
584.82	39880.39
584.98	42115.60
585.14	25647.59
585.30	13860.65
585.46	6715.00
585.62	2626.08
585.78	1144.52
585.94	716.20
586.10	435.34
586.26	365.12
586.42	425.98
586.58	367.46
586.74	320.65
586.90	327.68
587.06	299.59
587.22	238.73
587.38	463.43
587.54	1308.36
587.70	2569.91
587.86	3253.34
588.02	2434.16
588.18	1490.92
588.34	802.80
588.49	407.25
588.65	292.57
588.81	210.65
588.97	210.65
589.13	194.26
589.29	140.43
589.45	227.03
589.61	182.56
589.77	229.37
589.93	255.12
590.08	208.31
590.24	222.35
590.40	271.50
590.56	266.82
590.72	180.22
590.88	168.52
591.04	238.73
591.20	210.65
591.35	191.92
591.51	198.95
591.67	227.03
591.83	159.16
591.99	170.86
592.15	191.92
592.31	222.35
592.46	182.56
592.62	173.20
592.78	149.79
592.94	250.44
593.10	166.18
593.26	131.07
593.41	255.12
593.57	332.36
593.73	1062.60
593.89	3157.38
594.05	5093.01
594.20	5011.09
594.36	3372.71
594.52	2043.29
594.68	1121.12
594.84	645.99
594.99	344.06
595.15	215.33
595.31	220.01
595.47	140.43
595.62	198.95
595.78	142.77
595.94	236.39
596.10	227.03
596.25	177.88
596.41	229.37
596.57	173.20
596.73	257.46
596.88	608.54
597.04	973.66
597.20	1296.66
597.36	1015.79
597.51	741.95
597.67	491.51
597.83	308.95
597.99	212.99
598.14	168.52
598.30	194.26
598.46	234.05
598.61	152.13
598.77	110.01
598.93	159.16
599.09	191.92
599.24	135.75
599.40	126.39
599.56	149.79
599.71	177.88
599.87	203.63
600.03	131.07
600.18	102.98
600.34	145.11
600.50	222.35
600.65	46.81
600.81	149.79
600.97	168.52
601.12	170.86
601.28	238.73
601.44	95.96
601.59	112.35
601.75	168.52
601.91	170.86
602.06	175.54
602.22	416.62
602.37	816.85
602.53	1334.11
602.69	1345.81
602.84	1036.86
603.00	638.97
603.16	454.06
603.31	353.42
603.47	266.82
603.62	107.66
603.78	250.44
603.94	194.26
604.09	173.20
604.25	194.26
604.40	142.77
604.56	180.22
604.71	227.03
604.87	149.79
605.03	231.71
605.18	168.52
605.34	212.99
605.49	175.54
605.65	234.05
605.80	259.80
605.96	184.90
606.12	156.82
606.27	250.44
606.43	154.48
606.58	496.19
606.74	1586.88
606.89	3185.47
607.05	4177.86
607.20	3459.31
607.36	2417.77
607.51	1561.14
607.67	868.34
607.82	561.73
607.98	318.31
608.13	210.65
608.29	217.67
608.44	250.44
608.60	191.92
608.75	734.93
608.91	2551.18
609.06	5242.80
609.22	7316.51
609.37	6204.76
609.53	4236.37
609.68	2651.83
609.84	1502.62
609.99	770.04
610.15	402.57
610.30	264.48
610.46	166.18
610.61	280.86
610.76	180.22
610.92	194.26
611.07	196.60
611.23	236.39
611.38	212.99
611.54	189.58
611.69	259.80
611.84	147.45
612.00	205.97
612.15	283.20
612.31	353.42
612.46	348.74
612.62	292.57
612.77	243.42
612.92	313.63
613.08	325.33
613.23	208.31
613.39	575.77
613.54	2752.47
613.69	6885.86
613.85	10963.07
614.00	11356.28
614.15	7847.82
614.31	5097.69
614.46	3288.45
614.62	1748.38
614.77	823.87
614.92	362.78
615.08	344.06
615.23	250.44
615.38	252.78
615.54	514.92
615.69	1535.39
615.84	2513.74
616.00	3110.57
616.15	2555.86
616.30	1645.40
616.46	1125.80
616.61	674.07
616.76	414.27
616.92	262.14
617.07	201.29
617.22	184.90
617.37	126.39
617.53	203.63
617.68	177.88
617.83	191.92
617.99	152.13
618.14	229.37
618.29	177.88
618.45	163.84
618.60	177.88
618.75	72.56
618.90	121.71
619.06	170.86
619.21	196.60
619.36	194.26
619.51	128.73
619.67	88.94
619.82	84.26
619.97	175.54
620.12	210.65
620.28	210.65
620.43	124.05
620.58	285.55
620.73	236.39
620.89	353.42
621.04	844.93
621.19	1598.59
621.34	1746.04
621.49	1507.30
621.65	1008.77
621.80	660.03
621.95	503.22
622.10	393.21
622.25	161.50
622.41	135.75
622.56	166.18
622.71	210.65
622.86	177.88
623.01	88.94
623.16	161.50
623.32	140.43
623.47	147.45
623.62	203.63
623.77	114.69
623.92	175.54
624.07	126.39
624.23	124.05
624.38	222.35
624.53	156.82
624.68	170.86
624.83	224.69
624.98	114.69
625.13	154.48
625.29	168.52
625.44	201.29
625.59	208.31
625.74	454.06
625.89	1483.90
626.04	3550.59
626.19	5605.58
626.34	5694.52
626.49	4294.88
626.65	2799.28
626.80	1858.39
626.95	1153.88
627.10	592.16
627.25	348.74
627.40	234.05
627.55	238.73
627.70	191.92
627.85	177.88
628.00	175.54
628.15	142.77
628.30	194.26
628.45	182.56
628.60	187.24
628.76	102.98
628.91	220.01
629.06	86.60
629.21	166.18
629.36	259.80
629.51	187.24
629.66	369.80
629.81	784.08
629.96	1317.72
630.11	1481.56
630.26	1399.64
630.41	1020.47
630.56	690.46
630.71	444.70
630.86	238.73
631.01	227.03
631.16	131.07
631.31	210.65
631.46	182.56
631.61	198.95
631.76	234.05
631.91	60.85
632.06	145.11
632.21	238.73
632.36	203.63
632.51	351.08
632.66	875.36
632.81	2017.54
632.96	3417.18
633.10	3913.38
633.25	3066.10
633.40	2120.53
633.55	1521.35
633.70	940.90
633.85	550.03
634.00	243.42
634.15	180.22
634.30	168.52
634.45	210.65
634.60	184.90
634.75	182.56
634.90	161.50
635.05	201.29
635.19	145.11
635.34	126.39
635.49	147.45
635.64	217.67
635.79	187.24
635.94	205.97
636.09	161.50
636.24	205.97
636.39	159.16
636.53	107.66
636.68	210.65
636.83	201.29
636.98	217.67
637.13	203.63
637.28	227.03
637.43	660.03
637.57	2223.51
637.72	4667.03
637.87	7094.16
638.02	6726.70
638.17	5149.18
638.32	3482.72
638.46	2373.30
638.61	1280.27
638.76	653.01
638.91	425.98
639.06	301.93
639.20	351.08
639.35	926.85
639.50	3251.00
639.65	7119.91
639.80	10560.50
639.94	10270.27
640.09	7571.63
640.24	5245.14
640.39	3487.40
640.54	1853.70
640.68	971.32
640.83	514.92
640.98	320.65
641.13	285.55
641.27	266.82
641.42	205.97
641.57	212.99
641.72	187.24
641.86	234.05
642.01	224.69
642.16	145.11
642.31	184.90
642.45	248.10
642.60	196.60
642.75	191.92
642.90	152.13
643.04	154.48
643.19	212.99
643.34	124.05
643.48	145.11
643.63	149.79
643.78	198.95
643.93	257.46
644.07	177.88
644.22	142.77
644.37	156.82
644.51	173.20
644.66	163.84
644.81	156.82
644.95	145.11
645.10	135.75
645.25	149.79
645.39	117.03
645.54	163.84
645.69	217.67
645.83	152.13
645.98	198.95
646.13	140.43
646.27	154.48
646.42	145.11
646.57	117.03
646.71	110.01
646.86	128.73
647.00	117.03
647.15	173.20
647.30	152.13
647.44	98.30
647.59	191.92
647.74	245.76
647.88	100.64
648.03	86.60
648.17	187.24
648.32	173.20
648.47	229.37
648.61	131.07
648.76	168.52
648.90	177.88
649.05	168.52
649.20	88.94
649.34	212.99
649.49	243.42
649.63	194.26
649.78	348.74
649.92	1406.66
650.07	3316.54
650.21	5224.08
650.36	5949.64
650.51	4524.26
650.65	3171.43
650.80	2057.33
650.94	1240.48
651.09	624.92
651.23	362.78
651.38	278.52
651.52	241.08
651.67	140.43
651.81	177.88
651.96	220.01
652.10	236.39
652.25	166.18
652.39	196.60
652.54	526.62
652.68	1121.12
652.83	1736.68
652.97	2106.48
653.12	1762.42
653.26	1352.83
653.41	933.87
653.55	636.63
653.70	414.27
653.84	215.33
653.99	177.88
654.13	194.26
654.27	194.26
654.42	222.35
654.56	159.16
654.71	210.65
654.85	133.41
655.00	177.88
655.14	72.56
655.29	112.35
655.43	152.13
655.57	152.13
655.72	102.98
655.86	184.90
656.01	194.26
656.15	135.75
656.30	182.56
656.44	128.73
656.58	217.67
656.73	177.88
656.87	110.01
657.01	131.07
657.16	191.92
657.30	152.13
657.45	252.78
657.59	107.66
657.73	163.84
657.88	91.28
658.02	189.58
658.16	117.03
658.31	166.18
658.45	145.11
658.60	154.48
658.74	184.90
658.88	191.92
659.03	152.13
659.17	580.45
659.31	1526.03
659.46	2520.76
659.60	3059.08
659.74	2478.63
659.89	1701.57
660.03	1174.95
660.17	746.63
660.32	489.17
660.46	280.86
660.60	205.97
660.74	227.03
660.89	217.67
661.03	224.69
661.17	154.48
661.32	121.71
661.46	145.11
661.60	107.66
661.74	173.20
661.89	259.80
662.03	180.22
662.17	102.98
662.31	189.58
662.46	177.88
662.60	163.84
662.74	161.50
662.88	187.24
663.03	203.63
663.17	110.01
663.31	126.39
663.45	159.16
663.60	184.90
663.74	135.75
663.88	105.32
664.02	182.56
664.17	117.03
664.31	128.73
664.45	124.05
664.59	105.32
664.73	203.63
664.88	140.43
665.02	191.92
665.16	163.84
665.30	248.10
665.44	177.88
665.59	198.95
665.73	152.13
665.87	142.77
666.01	187.24
666.15	156.82
666.29	173.20
666.44	184.90
666.58	194.26
666.72	128.73
666.86	163.84
667.00	337.04
667.14	1130.48
667.28	2668.21
667.43	4505.53
667.57	5240.46
667.71	4484.47
667.85	3000.57
667.99	1926.26
668.13	1074.31
668.27	704.50
668.41	435.34
668.56	330.02
668.70	229.37
668.84	184.90
668.98	266.82
669.12	91.28
669.26	131.07
669.40	220.01
669.54	163.84
669.68	217.67
669.82	210.65
669.96	191.92
670.10	170.86
670.25	250.44
670.39	177.88
670.53	140.43
670.67	234.05
670.81	170.86
670.95	355.76
671.09	1114.10
671.23	2244.57
671.37	3138.66
671.51	3122.27
671.65	2401.39
671.79	1612.63
671.93	908.13
672.07	690.46
672.21	440.02
672.35	250.44
672.49	215.33
672.63	163.84
672.77	159.16
672.91	114.69
673.05	175.54
673.19	156.82
673.33	131.07
673.47	196.60
673.61	154.48
673.75	70.22
673.89	128.73
674.03	107.66
674.17	152.13
674.31	194.26
674.45	173.20
674.59	208.31
674.73	135.75
674.87	180.22
675.01	180.22
675.15	142.77
675.29	220.01
675.43	187.24
675.56	236.39
675.70	198.95
675.84	142.77
675.98	88.94
676.12	110.01
676.26	124.05
676.40	133.41
676.54	114.69
676.68	107.66
676.82	140.43
676.96	170.86
677.10	154.48
677.23	121.71
677.37	203.63
677.51	140.43
677.65	189.58
677.79	152.13
677.93	119.37
678.07	128.73
678.21	112.35
678.34	119.37
678.48	168.52
678.62	152.13
678.76	131.07
678.90	177.88
679.04	131.07
679.18	215.33
679.31	159.16
679.45	142.77
679.59	210.65
679.73	88.94
679.87	163.84
680.00	152.13
680.14	140.43
680.28	49.15
680.42	140.43
680.56	98.30
680.70	93.62
680.83	128.73
680.97	124.05
681.11	163.84
681.25	236.39
681.39	194.26
681.52	91.28
681.66	42.13
681.80	201.29
681.94	102.98
682.07	95.96
682.21	100.64
682.35	110.01
682.49	67.88
682.62	149.79
682.76	102.98
682.90	182.56
683.04	175.54
683.17	133.41
683.31	133.41
683.45	145.11
683.59	156.82
683.72	159.16
683.86	187.24
684.00	208.31
684.13	191.92
684.27	147.45
684.41	187.24
684.55	133.41
684.68	135.75
684.82	100.64
684.96	163.84
685.09	102.98
685.23	156.82
685.37	138.09
685.50	145.11
685.64	205.97
685.78	154.48
685.91	159.16
686.05	210.65
686.19	177.88
686.32	180.22
686.46	88.94
686.60	95.96
686.73	217.67
686.87	236.39
687.01	177.88
687.14	135.75
687.28	210.65
687.42	168.52
687.55	140.43
687.69	222.35
687.82	163.84
687.96	121.71
688.10	182.56
688.23	128.73
688.37	234.05
688.50	93.62
688.64	124.05
688.78	149.79
688.91	100.64
689.05	177.88
689.18	121.71
689.32	112.35
689.46	154.48
689.59	128.73
689.73	95.96
689.86	98.30
690.00	220.01
690.13	114.69
690.27	138.09
690.41	126.39
690.54	166.18
690.68	86.60
690.81	138.09
690.95	145.11
691.08	138.09
691.22	147.45
691.35	177.88
691.49	102.98
691.62	177.88
691.76	140.43
691.89	105.32
692.03	173.20
692.16	154.48
692.30	416.62
692.43	1053.24
692.57	1753.06
692.70	2153.29
692.84	2015.20
692.97	1483.90
693.11	1198.35
693.24	882.38
693.38	528.96
693.51	447.04
693.65	337.04
693.78	259.80
693.92	236.39
694.05	154.48
694.19	112.35
694.32	175.54
694.45	170.86
694.59	74.90
694.72	142.77
694.86	156.82
694.99	142.77
695.13	142.77
695.26	107.66
695.39	147.45
695.53	166.18
695.66	170.86
695.80	215.33
695.93	128.73
696.07	255.12
696.20	299.59
696.33	334.70
696.47	299.59
696.60	313.63
696.73	180.22
696.87	257.46
697.00	201.29
697.14	135.75
697.27	145.11
697.40	205.97
697.54	159.16
697.67	74.90
697.80	149.79
697.94	65.54
698.07	131.07
698.21	126.39
698.34	180.22
698.47	93.62
698.61	177.88
698.74	154.48
698.87	203.63
699.01	72.56
699.14	107.66
699.27	152.13
699.40	255.12
699.54	140.43
699.67	154.48
699.80	161.50
699.94	177.88
700.07	117.03
700.20	107.66
700.34	191.92
700.47	100.64
700.60	77.24
700.73	166.18
700.87	191.92
701.00	135.75
701.13	102.98
701.26	114.69
701.40	210.65
701.53	163.84
701.66	102.98
701.79	234.05
701.93	128.73
702.06	320.65
702.19	278.52
702.32	355.76
702.46	313.63
702.59	550.03
702.72	1345.81
702.85	2544.16
702.99	3583.36
703.12	4107.64
703.25	3522.51
703.38	2892.90
703.51	2382.67
703.65	1694.55
703.78	1196.01
703.91	779.40
704.04	545.34
704.17	292.57
704.31	264.48
704.44	269.16
704.57	208.31
704.70	257.46
704.83	133.41
704.96	203.63
705.10	152.13
705.23	201.29
>>>>>End Processed Spectral Data<<<<<
