SpectraSuite Data File
++++++++++++++++++++++++++++++++++++
Date: Fri Oct 04 12:13:31 GMT-05:00 2013
User: price-jones
Dark Spectrum Present: No
Reference Spectrum Present: No
Number of Sampled Component Spectra: 1
Spectrometers: USB2+H05261
Integration Time (usec): 10000 (USB2+H05261)
Spectra Averaged: 1 (USB2+H05261)
Boxcar Smoothing: 0 (USB2+H05261)
Correct for Electrical Dark: No (USB2+H05261)
Strobe/Lamp Enabled: No (USB2+H05261)
Correct for Detector Non-linearity: No (USB2+H05261)
Correct for Stray Light: No (USB2+H05261)
Number of Pixels in Processed Spectrum: 2048
>>>>>Begin Processed Spectral Data<<<<<
365.73	25.75
365.92	25.75
366.12	25.75
366.32	0.00
366.52	0.00
366.72	0.00
366.91	0.00
367.11	0.00
367.31	0.00
367.51	0.00
367.70	0.00
367.90	0.00
368.10	0.00
368.30	0.00
368.49	0.00
368.69	0.00
368.89	0.00
369.09	0.00
369.28	0.00
369.48	0.00
369.68	0.00
369.87	0.00
370.07	0.00
370.27	0.00
370.47	0.00
370.66	0.00
370.86	0.00
371.06	0.00
371.25	0.00
371.45	0.00
371.65	0.00
371.84	0.00
372.04	16.38
372.24	0.00
372.44	72.56
372.63	39.79
372.83	18.72
373.03	18.72
373.22	0.00
373.42	0.00
373.62	0.00
373.81	65.54
374.01	102.98
374.21	28.09
374.40	0.00
374.60	37.45
374.79	51.49
374.99	65.54
375.19	79.58
375.38	72.56
375.58	84.26
375.78	0.00
375.97	56.17
376.17	30.43
376.37	14.04
376.56	37.45
376.76	0.00
376.95	84.26
377.15	56.17
377.35	21.06
377.54	53.83
377.74	25.75
377.93	46.81
378.13	42.13
378.33	11.70
378.52	37.45
378.72	28.09
378.91	51.49
379.11	0.00
379.31	0.00
379.50	0.00
379.70	18.72
379.89	60.85
380.09	28.09
380.28	0.00
380.48	60.85
380.68	0.00
380.87	46.81
381.07	51.49
381.26	35.11
381.46	0.00
381.65	0.00
381.85	84.26
382.04	53.83
382.24	4.68
382.43	23.41
382.63	0.00
382.83	46.81
383.02	23.41
383.22	77.24
383.41	14.04
383.61	49.15
383.80	14.04
384.00	44.47
384.19	46.81
384.39	0.00
384.58	0.00
384.78	0.00
384.97	0.00
385.17	18.72
385.36	58.51
385.56	0.00
385.75	0.00
385.95	37.45
386.14	11.70
386.34	32.77
386.53	126.39
386.72	32.77
386.92	0.00
387.11	39.79
387.31	0.00
387.50	56.17
387.70	9.36
387.89	0.00
388.09	32.77
388.28	9.36
388.48	0.00
388.67	63.19
388.86	2.34
389.06	23.41
389.25	28.09
389.45	9.36
389.64	35.11
389.84	88.94
390.03	14.04
390.22	7.02
390.42	28.09
390.61	25.75
390.81	53.83
391.00	0.00
391.19	72.56
391.39	58.51
391.58	77.24
391.78	21.06
391.97	35.11
392.16	53.83
392.36	98.30
392.55	30.43
392.75	0.00
392.94	0.00
393.13	42.13
393.33	23.41
393.52	0.00
393.71	23.41
393.91	37.45
394.10	16.38
394.29	30.43
394.49	18.72
394.68	7.02
394.88	25.75
395.07	37.45
395.26	16.38
395.46	23.41
395.65	49.15
395.84	21.06
396.04	18.72
396.23	0.00
396.42	56.17
396.62	0.00
396.81	28.09
397.00	51.49
397.19	46.81
397.39	0.00
397.58	0.00
397.77	100.64
397.97	0.00
398.16	105.32
398.35	0.00
398.55	0.00
398.74	42.13
398.93	0.00
399.12	56.17
399.32	25.75
399.51	0.00
399.70	9.36
399.90	4.68
400.09	0.00
400.28	23.41
400.47	56.17
400.67	30.43
400.86	0.00
401.05	28.09
401.24	53.83
401.44	49.15
401.63	65.54
401.82	0.00
402.01	2.34
402.21	49.15
402.40	11.70
402.59	46.81
402.78	0.00
402.97	23.41
403.17	21.06
403.36	72.56
403.55	23.41
403.74	63.19
403.93	0.00
404.13	18.72
404.32	117.03
404.51	39.79
404.70	0.00
404.89	0.00
405.09	0.00
405.28	11.70
405.47	0.00
405.66	25.75
405.85	93.62
406.05	0.00
406.24	23.41
406.43	0.00
406.62	9.36
406.81	46.81
407.00	0.00
407.20	0.00
407.39	11.70
407.58	0.00
407.77	16.38
407.96	32.77
408.15	91.28
408.34	0.00
408.54	147.45
408.73	72.56
408.92	42.13
409.11	0.00
409.30	21.06
409.49	37.45
409.68	51.49
409.87	0.00
410.07	30.43
410.26	0.00
410.45	58.51
410.64	0.00
410.83	51.49
411.02	25.75
411.21	0.00
411.40	42.13
411.59	0.00
411.78	39.79
411.98	67.88
412.17	81.92
412.36	30.43
412.55	25.75
412.74	58.51
412.93	56.17
413.12	58.51
413.31	56.17
413.50	30.43
413.69	79.58
413.88	28.09
414.07	35.11
414.26	0.00
414.45	60.85
414.64	0.00
414.83	51.49
415.02	23.41
415.22	58.51
415.41	49.15
415.60	16.38
415.79	56.17
415.98	86.60
416.17	0.00
416.36	86.60
416.55	60.85
416.74	58.51
416.93	70.22
417.12	9.36
417.31	4.68
417.50	21.06
417.69	42.13
417.88	77.24
418.07	28.09
418.26	30.43
418.45	16.38
418.64	56.17
418.83	21.06
419.02	0.00
419.21	58.51
419.39	44.47
419.58	0.00
419.77	0.00
419.96	53.83
420.15	39.79
420.34	25.75
420.53	37.45
420.72	58.51
420.91	30.43
421.10	46.81
421.29	0.00
421.48	0.00
421.67	21.06
421.86	72.56
422.05	0.00
422.24	25.75
422.43	44.47
422.61	0.00
422.80	4.68
422.99	0.00
423.18	2.34
423.37	30.43
423.56	32.77
423.75	18.72
423.94	56.17
424.13	9.36
424.32	70.22
424.50	84.26
424.69	30.43
424.88	39.79
425.07	81.92
425.26	102.98
425.45	149.79
425.64	100.64
425.83	37.45
426.01	114.69
426.20	4.68
426.39	30.43
426.58	11.70
426.77	9.36
426.96	18.72
427.15	0.00
427.33	35.11
427.52	0.00
427.71	0.00
427.90	0.00
428.09	84.26
428.28	30.43
428.46	21.06
428.65	37.45
428.84	77.24
429.03	0.00
429.22	28.09
429.40	0.00
429.59	44.47
429.78	88.94
429.97	0.00
430.16	88.94
430.34	18.72
430.53	28.09
430.72	44.47
430.91	0.00
431.10	25.75
431.28	140.43
431.47	91.28
431.66	30.43
431.85	119.37
432.03	4.68
432.22	28.09
432.41	21.06
432.60	42.13
432.79	18.72
432.97	39.79
433.16	0.00
433.35	32.77
433.54	0.00
433.72	0.00
433.91	32.77
434.10	30.43
434.28	18.72
434.47	35.11
434.66	124.05
434.85	0.00
435.03	0.00
435.22	0.00
435.41	21.06
435.59	0.00
435.78	63.19
435.97	86.60
436.16	0.00
436.34	0.00
436.53	0.00
436.72	70.22
436.90	74.90
437.09	2.34
437.28	16.38
437.46	0.00
437.65	0.00
437.84	63.19
438.02	28.09
438.21	79.58
438.40	0.00
438.58	0.00
438.77	14.04
438.96	95.96
439.14	117.03
439.33	140.43
439.52	46.81
439.70	0.00
439.89	63.19
440.08	28.09
440.26	44.47
440.45	0.00
440.63	81.92
440.82	16.38
441.01	44.47
441.19	7.02
441.38	49.15
441.57	44.47
441.75	9.36
441.94	9.36
442.12	105.32
442.31	93.62
442.50	79.58
442.68	21.06
442.87	60.85
443.05	51.49
443.24	46.81
443.43	21.06
443.61	74.90
443.80	39.79
443.98	53.83
444.17	131.07
444.35	0.00
444.54	0.00
444.73	58.51
444.91	39.79
445.10	0.00
445.28	28.09
445.47	25.75
445.65	77.24
445.84	18.72
446.02	0.00
446.21	72.56
446.39	37.45
446.58	72.56
446.77	77.24
446.95	84.26
447.14	44.47
447.32	16.38
447.51	9.36
447.69	72.56
447.88	4.68
448.06	18.72
448.25	0.00
448.43	0.00
448.62	44.47
448.80	53.83
448.99	0.00
449.17	7.02
449.36	65.54
449.54	72.56
449.73	49.15
449.91	32.77
450.10	105.32
450.28	74.90
450.46	126.39
450.65	0.00
450.83	14.04
451.02	39.79
451.20	110.01
451.39	21.06
451.57	81.92
451.76	0.00
451.94	37.45
452.13	0.00
452.31	25.75
452.49	39.79
452.68	4.68
452.86	0.00
453.05	30.43
453.23	2.34
453.42	35.11
453.60	58.51
453.78	88.94
453.97	58.51
454.15	32.77
454.34	14.04
454.52	11.70
454.70	0.00
454.89	42.13
455.07	9.36
455.26	63.19
455.44	114.69
455.62	14.04
455.81	58.51
455.99	14.04
456.17	0.00
456.36	0.00
456.54	0.00
456.73	49.15
456.91	25.75
457.09	70.22
457.28	0.00
457.46	25.75
457.64	28.09
457.83	0.00
458.01	0.00
458.19	35.11
458.38	11.70
458.56	7.02
458.74	0.00
458.93	9.36
459.11	79.58
459.29	25.75
459.48	0.00
459.66	25.75
459.84	79.58
460.03	65.54
460.21	74.90
460.39	56.17
460.57	0.00
460.76	67.88
460.94	18.72
461.12	0.00
461.31	21.06
461.49	93.62
461.67	35.11
461.85	39.79
462.04	11.70
462.22	74.90
462.40	14.04
462.59	95.96
462.77	42.13
462.95	39.79
463.13	23.41
463.32	11.70
463.50	65.54
463.68	18.72
463.86	49.15
464.05	39.79
464.23	0.00
464.41	0.00
464.59	0.00
464.78	0.00
464.96	7.02
465.14	39.79
465.32	23.41
465.50	14.04
465.69	0.00
465.87	0.00
466.05	44.47
466.23	42.13
466.41	32.77
466.60	35.11
466.78	53.83
466.96	21.06
467.14	25.75
467.32	7.02
467.51	79.58
467.69	30.43
467.87	0.00
468.05	70.22
468.23	30.43
468.41	35.11
468.60	49.15
468.78	65.54
468.96	42.13
469.14	74.90
469.32	18.72
469.50	9.36
469.69	44.47
469.87	35.11
470.05	0.00
470.23	9.36
470.41	98.30
470.59	21.06
470.77	88.94
470.95	93.62
471.14	58.51
471.32	16.38
471.50	9.36
471.68	0.00
471.86	58.51
472.04	0.00
472.22	67.88
472.40	35.11
472.58	28.09
472.77	21.06
472.95	30.43
473.13	2.34
473.31	0.00
473.49	0.00
473.67	49.15
473.85	18.72
474.03	21.06
474.21	0.00
474.39	23.41
474.57	44.47
474.75	114.69
474.93	28.09
475.12	102.98
475.30	0.00
475.48	0.00
475.66	4.68
475.84	44.47
476.02	72.56
476.20	39.79
476.38	0.00
476.56	25.75
476.74	2.34
476.92	58.51
477.10	2.34
477.28	56.17
477.46	0.00
477.64	37.45
477.82	0.00
478.00	77.24
478.18	72.56
478.36	16.38
478.54	49.15
478.72	0.00
478.90	14.04
479.08	0.00
479.26	60.85
479.44	7.02
479.62	14.04
479.80	35.11
479.98	4.68
480.16	42.13
480.34	100.64
480.52	100.64
480.70	16.38
480.88	42.13
481.06	21.06
481.24	14.04
481.41	7.02
481.59	131.07
481.77	98.30
481.95	28.09
482.13	117.03
482.31	42.13
482.49	2.34
482.67	74.90
482.85	32.77
483.03	30.43
483.21	63.19
483.39	4.68
483.57	0.00
483.74	11.70
483.92	0.00
484.10	88.94
484.28	70.22
484.46	39.79
484.64	70.22
484.82	39.79
485.00	0.00
485.18	42.13
485.35	0.00
485.53	56.17
485.71	37.45
485.89	102.98
486.07	56.17
486.25	91.28
486.43	60.85
486.61	42.13
486.78	2.34
486.96	35.11
487.14	117.03
487.32	35.11
487.50	4.68
487.68	46.81
487.85	14.04
488.03	23.41
488.21	14.04
488.39	21.06
488.57	35.11
488.75	16.38
488.92	46.81
489.10	14.04
489.28	11.70
489.46	28.09
489.64	56.17
489.81	39.79
489.99	81.92
490.17	30.43
490.35	9.36
490.53	56.17
490.70	7.02
490.88	105.32
491.06	16.38
491.24	100.64
491.41	70.22
491.59	4.68
491.77	16.38
491.95	84.26
492.13	25.75
492.30	28.09
492.48	32.77
492.66	44.47
492.84	0.00
493.01	91.28
493.19	74.90
493.37	37.45
493.54	67.88
493.72	37.45
493.90	88.94
494.08	49.15
494.25	56.17
494.43	37.45
494.61	0.00
494.79	9.36
494.96	98.30
495.14	21.06
495.32	93.62
495.49	0.00
495.67	16.38
495.85	0.00
496.02	93.62
496.20	49.15
496.38	56.17
496.55	51.49
496.73	112.35
496.91	46.81
497.09	11.70
497.26	16.38
497.44	58.51
497.62	23.41
497.79	0.00
497.97	72.56
498.14	32.77
498.32	32.77
498.50	77.24
498.67	35.11
498.85	44.47
499.03	39.79
499.20	16.38
499.38	16.38
499.56	63.19
499.73	0.00
499.91	81.92
500.08	4.68
500.26	114.69
500.44	21.06
500.61	0.00
500.79	37.45
500.97	18.72
501.14	56.17
501.32	88.94
501.49	0.00
501.67	42.13
501.84	32.77
502.02	30.43
502.20	93.62
502.37	39.79
502.55	53.83
502.72	0.00
502.90	7.02
503.07	14.04
503.25	44.47
503.43	58.51
503.60	30.43
503.78	86.60
503.95	46.81
504.13	0.00
504.30	46.81
504.48	102.98
504.65	35.11
504.83	0.00
505.01	0.00
505.18	4.68
505.36	0.00
505.53	74.90
505.71	28.09
505.88	0.00
506.06	28.09
506.23	7.02
506.41	18.72
506.58	37.45
506.76	42.13
506.93	21.06
507.11	49.15
507.28	0.00
507.46	0.00
507.63	44.47
507.81	0.00
507.98	23.41
508.16	23.41
508.33	49.15
508.50	44.47
508.68	0.00
508.85	0.00
509.03	14.04
509.20	30.43
509.38	0.00
509.55	58.51
509.73	28.09
509.90	56.17
510.08	60.85
510.25	79.58
510.42	72.56
510.60	81.92
510.77	98.30
510.95	23.41
511.12	63.19
511.30	72.56
511.47	0.00
511.64	14.04
511.82	32.77
511.99	14.04
512.17	53.83
512.34	0.00
512.51	53.83
512.69	51.49
512.86	16.38
513.04	81.92
513.21	88.94
513.38	51.49
513.56	56.17
513.73	28.09
513.90	88.94
514.08	30.43
514.25	44.47
514.43	16.38
514.60	28.09
514.77	53.83
514.95	91.28
515.12	84.26
515.29	37.45
515.47	0.00
515.64	56.17
515.81	32.77
515.99	60.85
516.16	25.75
516.33	35.11
516.51	14.04
516.68	44.47
516.85	11.70
517.03	74.90
517.20	42.13
517.37	30.43
517.54	70.22
517.72	0.00
517.89	32.77
518.06	107.66
518.24	58.51
518.41	46.81
518.58	53.83
518.75	72.56
518.93	25.75
519.10	65.54
519.27	74.90
519.45	124.05
519.62	16.38
519.79	11.70
519.96	0.00
520.14	42.13
520.31	51.49
520.48	0.00
520.65	81.92
520.83	2.34
521.00	9.36
521.17	16.38
521.34	11.70
521.52	74.90
521.69	112.35
521.86	42.13
522.03	86.60
522.20	79.58
522.38	0.00
522.55	102.98
522.72	25.75
522.89	4.68
523.07	7.02
523.24	21.06
523.41	49.15
523.58	145.11
523.75	74.90
523.92	65.54
524.10	58.51
524.27	44.47
524.44	72.56
524.61	35.11
524.78	21.06
524.96	46.81
525.13	44.47
525.30	60.85
525.47	70.22
525.64	53.83
525.81	128.73
525.98	35.11
526.16	21.06
526.33	7.02
526.50	30.43
526.67	110.01
526.84	2.34
527.01	100.64
527.18	49.15
527.36	44.47
527.53	72.56
527.70	0.00
527.87	70.22
528.04	65.54
528.21	44.47
528.38	0.00
528.55	44.47
528.72	0.00
528.89	107.66
529.07	86.60
529.24	21.06
529.41	14.04
529.58	9.36
529.75	0.00
529.92	74.90
530.09	25.75
530.26	70.22
530.43	44.47
530.60	88.94
530.77	79.58
530.94	74.90
531.11	37.45
531.28	77.24
531.46	14.04
531.63	7.02
531.80	46.81
531.97	39.79
532.14	105.32
532.31	21.06
532.48	51.49
532.65	79.58
532.82	91.28
532.99	23.41
533.16	95.96
533.33	30.43
533.50	60.85
533.67	30.43
533.84	112.35
534.01	110.01
534.18	70.22
534.35	56.17
534.52	53.83
534.69	67.88
534.86	46.81
535.03	32.77
535.20	0.00
535.37	74.90
535.54	49.15
535.71	7.02
535.88	21.06
536.05	0.00
536.22	35.11
536.38	65.54
536.55	0.00
536.72	14.04
536.89	0.00
537.06	25.75
537.23	21.06
537.40	86.60
537.57	74.90
537.74	32.77
537.91	88.94
538.08	63.19
538.25	0.00
538.42	25.75
538.59	86.60
538.75	35.11
538.92	100.64
539.09	51.49
539.26	16.38
539.43	53.83
539.60	0.00
539.77	51.49
539.94	72.56
540.11	105.32
540.28	14.04
540.44	81.92
540.61	7.02
540.78	98.30
540.95	4.68
541.12	2.34
541.29	53.83
541.46	0.00
541.62	53.83
541.79	65.54
541.96	95.96
542.13	42.13
542.30	0.00
542.47	56.17
542.63	72.56
542.80	81.92
542.97	84.26
543.14	42.13
543.31	35.11
543.48	39.79
543.64	84.26
543.81	51.49
543.98	30.43
544.15	0.00
544.32	44.47
544.48	79.58
544.65	102.98
544.82	9.36
544.99	77.24
545.16	0.00
545.32	37.45
545.49	58.51
545.66	37.45
545.83	95.96
546.00	23.41
546.16	0.00
546.33	102.98
546.50	65.54
546.67	18.72
546.83	79.58
547.00	30.43
547.17	21.06
547.34	107.66
547.50	44.47
547.67	37.45
547.84	51.49
548.00	70.22
548.17	44.47
548.34	16.38
548.51	37.45
548.67	0.00
548.84	35.11
549.01	28.09
549.18	46.81
549.34	42.13
549.51	7.02
549.68	65.54
549.84	42.13
550.01	84.26
550.18	49.15
550.34	63.19
550.51	70.22
550.68	7.02
550.84	0.00
551.01	21.06
551.18	14.04
551.34	11.70
551.51	0.00
551.68	95.96
551.84	21.06
552.01	0.00
552.18	23.41
552.34	44.47
552.51	0.00
552.68	16.38
552.84	51.49
553.01	28.09
553.18	30.43
553.34	0.00
553.51	49.15
553.67	0.00
553.84	44.47
554.01	0.00
554.17	77.24
554.34	37.45
554.51	0.00
554.67	60.85
554.84	0.00
555.00	88.94
555.17	0.00
555.33	39.79
555.50	53.83
555.67	102.98
555.83	70.22
556.00	35.11
556.16	100.64
556.33	65.54
556.50	0.00
556.66	72.56
556.83	0.00
556.99	16.38
557.16	79.58
557.32	81.92
557.49	7.02
557.65	21.06
557.82	42.13
557.98	14.04
558.15	79.58
558.32	56.17
558.48	11.70
558.65	60.85
558.81	30.43
558.98	0.00
559.14	23.41
559.31	25.75
559.47	25.75
559.64	91.28
559.80	58.51
559.97	88.94
560.13	81.92
560.30	39.79
560.46	9.36
560.63	84.26
560.79	56.17
560.96	37.45
561.12	77.24
561.29	107.66
561.45	30.43
561.61	79.58
561.78	4.68
561.94	23.41
562.11	0.00
562.27	11.70
562.44	60.85
562.60	23.41
562.77	0.00
562.93	60.85
563.10	53.83
563.26	32.77
563.42	21.06
563.59	112.35
563.75	0.00
563.92	53.83
564.08	18.72
564.24	0.00
564.41	35.11
564.57	53.83
564.74	0.00
564.90	11.70
565.07	65.54
565.23	23.41
565.39	74.90
565.56	46.81
565.72	152.13
565.88	49.15
566.05	65.54
566.21	14.04
566.38	88.94
566.54	95.96
566.70	2.34
566.87	0.00
567.03	32.77
567.19	42.13
567.36	37.45
567.52	58.51
567.68	74.90
567.85	49.15
568.01	0.00
568.17	88.94
568.34	37.45
568.50	72.56
568.66	70.22
568.83	0.00
568.99	100.64
569.15	67.88
569.32	21.06
569.48	60.85
569.64	133.41
569.81	0.00
569.97	14.04
570.13	39.79
570.30	9.36
570.46	42.13
570.62	14.04
570.78	77.24
570.95	25.75
571.11	14.04
571.27	0.00
571.43	21.06
571.60	49.15
571.76	102.98
571.92	0.00
572.09	42.13
572.25	0.00
572.41	79.58
572.57	9.36
572.74	0.00
572.90	63.19
573.06	117.03
573.22	2.34
573.38	91.28
573.55	0.00
573.71	32.77
573.87	46.81
574.03	0.00
574.20	28.09
574.36	65.54
574.52	51.49
574.68	39.79
574.84	81.92
575.01	30.43
575.17	35.11
575.33	30.43
575.49	147.45
575.65	51.49
575.82	0.00
575.98	77.24
576.14	56.17
576.30	0.00
576.46	51.49
576.62	16.38
576.79	11.70
576.95	44.47
577.11	46.81
577.27	0.00
577.43	39.79
577.59	37.45
577.75	23.41
577.92	74.90
578.08	49.15
578.24	23.41
578.40	23.41
578.56	0.00
578.72	60.85
578.88	0.00
579.04	37.45
579.21	100.64
579.37	79.58
579.53	35.11
579.69	32.77
579.85	65.54
580.01	60.85
580.17	2.34
580.33	74.90
580.49	0.00
580.65	0.00
580.82	107.66
580.98	56.17
581.14	25.75
581.30	0.00
581.46	131.07
581.62	0.00
581.78	56.17
581.94	49.15
582.10	28.09
582.26	14.04
582.42	58.51
582.58	28.09
582.74	91.28
582.90	14.04
583.06	56.17
583.22	16.38
583.38	124.05
583.54	0.00
583.70	72.56
583.86	124.05
584.02	58.51
584.18	44.47
584.34	65.54
584.50	133.41
584.66	629.60
584.82	1460.49
584.98	1856.04
585.14	1521.35
585.30	978.34
585.46	629.60
585.62	428.32
585.78	262.14
585.94	107.66
586.10	70.22
586.26	65.54
586.42	53.83
586.58	93.62
586.74	25.75
586.90	119.37
587.06	53.83
587.22	35.11
587.38	58.51
587.54	58.51
587.70	138.09
587.86	184.90
588.02	222.35
588.18	166.18
588.34	86.60
588.49	84.26
588.65	65.54
588.81	53.83
588.97	0.00
589.13	18.72
589.29	91.28
589.45	21.06
589.61	39.79
589.77	39.79
589.93	2.34
590.08	53.83
590.24	72.56
590.40	0.00
590.56	30.43
590.72	74.90
590.88	39.79
591.04	51.49
591.20	18.72
591.35	91.28
591.51	32.77
591.67	35.11
591.83	0.00
591.99	49.15
592.15	58.51
592.31	49.15
592.46	0.00
592.62	4.68
592.78	9.36
592.94	105.32
593.10	18.72
593.26	86.60
593.41	95.96
593.57	39.79
593.73	51.49
593.89	196.60
594.05	184.90
594.20	262.14
594.36	224.69
594.52	166.18
594.68	220.01
594.84	86.60
594.99	65.54
595.15	25.75
595.31	74.90
595.47	81.92
595.62	25.75
595.78	16.38
595.94	39.79
596.10	28.09
596.25	105.32
596.41	42.13
596.57	30.43
596.73	9.36
596.88	2.34
597.04	32.77
597.20	133.41
597.36	102.98
597.51	93.62
597.67	98.30
597.83	72.56
597.99	46.81
598.14	95.96
598.30	2.34
598.46	0.00
598.61	105.32
598.77	44.47
598.93	135.75
599.09	21.06
599.24	30.43
599.40	30.43
599.56	7.02
599.71	7.02
599.87	42.13
600.03	14.04
600.18	63.19
600.34	86.60
600.50	18.72
600.65	0.00
600.81	65.54
600.97	63.19
601.12	58.51
601.28	9.36
601.44	79.58
601.59	53.83
601.75	39.79
601.91	63.19
602.06	65.54
602.22	74.90
602.37	39.79
602.53	51.49
602.69	95.96
602.84	107.66
603.00	95.96
603.16	67.88
603.31	79.58
603.47	0.00
603.62	95.96
603.78	23.41
603.94	46.81
604.09	9.36
604.25	32.77
604.40	65.54
604.56	60.85
604.71	21.06
604.87	18.72
605.03	0.00
605.18	46.81
605.34	42.13
605.49	28.09
605.65	14.04
605.80	16.38
605.96	28.09
606.12	32.77
606.27	0.00
606.43	23.41
606.58	56.17
606.74	102.98
606.89	140.43
607.05	215.33
607.20	245.76
607.36	248.10
607.51	114.69
607.67	112.35
607.82	117.03
607.98	49.15
608.13	21.06
608.29	70.22
608.44	2.34
608.60	14.04
608.75	30.43
608.91	86.60
609.06	145.11
609.22	322.99
609.37	304.27
609.53	322.99
609.68	271.50
609.84	105.32
609.99	184.90
610.15	145.11
610.30	39.79
610.46	0.00
610.61	86.60
610.76	16.38
610.92	0.00
611.07	7.02
611.23	0.00
611.38	46.81
611.54	65.54
611.69	0.00
611.84	81.92
612.00	60.85
612.15	0.00
612.31	16.38
612.46	46.81
612.62	56.17
612.77	0.00
612.92	32.77
613.08	58.51
613.23	112.35
613.39	65.54
613.54	0.00
613.69	191.92
613.85	383.85
614.00	617.90
614.15	589.82
614.31	418.96
614.46	299.59
614.62	194.26
614.77	126.39
614.92	105.32
615.08	18.72
615.23	32.77
615.38	39.79
615.54	21.06
615.69	60.85
615.84	133.41
616.00	147.45
616.15	112.35
616.30	163.84
616.46	107.66
616.61	117.03
616.76	112.35
616.92	72.56
617.07	39.79
617.22	86.60
617.37	63.19
617.53	16.38
617.68	60.85
617.83	4.68
617.99	72.56
618.14	46.81
618.29	67.88
618.45	44.47
618.60	53.83
618.75	0.00
618.90	18.72
619.06	4.68
619.21	23.41
619.36	23.41
619.51	0.00
619.67	30.43
619.82	16.38
619.97	49.15
620.12	14.04
620.28	44.47
620.43	4.68
620.58	0.00
620.73	60.85
620.89	28.09
621.04	95.96
621.19	70.22
621.34	184.90
621.49	77.24
621.65	168.52
621.80	11.70
621.95	58.51
622.10	0.00
622.25	32.77
622.41	32.77
622.56	0.00
622.71	86.60
622.86	21.06
623.01	81.92
623.16	77.24
623.32	63.19
623.47	11.70
623.62	88.94
623.77	81.92
623.92	7.02
624.07	39.79
624.23	14.04
624.38	23.41
624.53	2.34
624.68	0.00
624.83	0.00
624.98	0.00
625.13	79.58
625.29	49.15
625.44	35.11
625.59	35.11
625.74	18.72
625.89	16.38
626.04	121.71
626.19	191.92
626.34	259.80
626.49	332.36
626.65	241.08
626.80	175.54
626.95	84.26
627.10	28.09
627.25	32.77
627.40	77.24
627.55	77.24
627.70	117.03
627.85	0.00
628.00	84.26
628.15	0.00
628.30	81.92
628.45	81.92
628.60	67.88
628.76	49.15
628.91	0.00
629.06	77.24
629.21	72.56
629.36	0.00
629.51	7.02
629.66	49.15
629.81	86.60
629.96	93.62
630.11	67.88
630.26	105.32
630.41	58.51
630.56	42.13
630.71	56.17
630.86	124.05
631.01	112.35
631.16	51.49
631.31	42.13
631.46	74.90
631.61	51.49
631.76	128.73
631.91	23.41
632.06	25.75
632.21	32.77
632.36	23.41
632.51	119.37
632.66	0.00
632.81	49.15
632.96	91.28
633.10	212.99
633.25	229.37
633.40	154.48
633.55	163.84
633.70	131.07
633.85	100.64
634.00	117.03
634.15	67.88
634.30	0.00
634.45	46.81
634.60	70.22
634.75	23.41
634.90	39.79
635.05	35.11
635.19	105.32
635.34	11.70
635.49	23.41
635.64	42.13
635.79	0.00
635.94	11.70
636.09	65.54
636.24	25.75
636.39	0.00
636.53	9.36
636.68	39.79
636.83	28.09
636.98	0.00
637.13	53.83
637.28	53.83
637.43	23.41
637.57	93.62
637.72	124.05
637.87	212.99
638.02	411.93
638.17	341.72
638.32	318.31
638.46	245.76
638.61	110.01
638.76	114.69
638.91	16.38
639.06	93.62
639.20	7.02
639.35	51.49
639.50	32.77
639.65	184.90
639.80	423.64
639.94	517.26
640.09	578.11
640.24	442.36
640.39	278.52
640.54	159.16
640.68	147.45
640.83	88.94
640.98	49.15
641.13	42.13
641.27	2.34
641.42	0.00
641.57	21.06
641.72	16.38
641.86	25.75
642.01	0.00
642.16	0.00
642.31	56.17
642.45	0.00
642.60	60.85
642.75	79.58
642.90	14.04
643.04	25.75
643.19	42.13
643.34	86.60
643.48	30.43
643.63	58.51
643.78	65.54
643.93	37.45
644.07	74.90
644.22	44.47
644.37	46.81
644.51	9.36
644.66	77.24
644.81	9.36
644.95	74.90
645.10	32.77
645.25	0.00
645.39	0.00
645.54	86.60
645.69	7.02
645.83	65.54
645.98	86.60
646.13	21.06
646.27	46.81
646.42	16.38
646.57	0.00
646.71	51.49
646.86	35.11
647.00	58.51
647.15	58.51
647.30	11.70
647.44	58.51
647.59	2.34
647.74	0.00
647.88	32.77
648.03	23.41
648.17	2.34
648.32	86.60
648.47	53.83
648.61	11.70
648.76	2.34
648.90	114.69
649.05	42.13
649.20	60.85
649.34	2.34
649.49	88.94
649.63	0.00
649.78	18.72
649.92	105.32
650.07	23.41
650.21	159.16
650.36	266.82
650.51	311.29
650.65	252.78
650.80	100.64
650.94	110.01
651.09	110.01
651.23	60.85
651.38	28.09
651.52	0.00
651.67	18.72
651.81	7.02
651.96	58.51
652.10	30.43
652.25	30.43
652.39	42.13
652.54	79.58
652.68	4.68
652.83	46.81
652.97	65.54
653.12	194.26
653.26	56.17
653.41	100.64
653.55	32.77
653.70	105.32
653.84	79.58
653.99	14.04
654.13	0.00
654.27	14.04
654.42	46.81
654.56	25.75
654.71	14.04
654.85	9.36
655.00	91.28
655.14	0.00
655.29	46.81
655.43	0.00
655.57	37.45
655.72	49.15
655.86	9.36
656.01	44.47
656.15	53.83
656.30	28.09
656.44	0.00
656.58	51.49
656.73	77.24
656.87	2.34
657.01	88.94
657.16	77.24
657.30	70.22
657.45	0.00
657.59	0.00
657.73	11.70
657.88	16.38
658.02	53.83
658.16	0.00
658.31	18.72
658.45	0.00
658.60	51.49
658.74	23.41
658.88	32.77
659.03	88.94
659.17	74.90
659.31	72.56
659.46	147.45
659.60	112.35
659.74	220.01
659.89	156.82
660.03	105.32
660.17	100.64
660.32	14.04
660.46	37.45
660.60	49.15
660.74	0.00
660.89	0.00
661.03	49.15
661.17	9.36
661.32	32.77
661.46	30.43
661.60	0.00
661.74	44.47
661.89	23.41
662.03	0.00
662.17	0.00
662.31	0.00
662.46	25.75
662.60	30.43
662.74	65.54
662.88	88.94
663.03	0.00
663.17	56.17
663.31	42.13
663.45	58.51
663.60	84.26
663.74	53.83
663.88	35.11
664.02	30.43
664.17	32.77
664.31	0.00
664.45	39.79
664.59	23.41
664.73	84.26
664.88	0.00
665.02	39.79
665.16	4.68
665.30	7.02
665.44	77.24
665.59	42.13
665.73	44.47
665.87	65.54
666.01	25.75
666.15	0.00
666.29	0.00
666.44	51.49
666.58	117.03
666.72	35.11
666.86	32.77
667.00	39.79
667.14	0.00
667.28	121.71
667.43	217.67
667.57	227.03
667.71	320.65
667.85	198.95
667.99	222.35
668.13	98.30
668.27	16.38
668.41	21.06
668.56	84.26
668.70	0.00
668.84	63.19
668.98	7.02
669.12	14.04
669.26	105.32
669.40	81.92
669.54	58.51
669.68	77.24
669.82	56.17
669.96	67.88
670.10	77.24
670.25	107.66
670.39	4.68
670.53	49.15
670.67	18.72
670.81	44.47
670.95	49.15
671.09	63.19
671.23	95.96
671.37	194.26
671.51	112.35
671.65	210.65
671.79	110.01
671.93	100.64
672.07	74.90
672.21	63.19
672.35	49.15
672.49	2.34
672.63	77.24
672.77	4.68
672.91	70.22
673.05	107.66
673.19	35.11
673.33	4.68
673.47	79.58
673.61	44.47
673.75	11.70
673.89	49.15
674.03	56.17
674.17	0.00
674.31	18.72
674.45	35.11
674.59	32.77
674.73	0.00
674.87	0.00
675.01	51.49
675.15	21.06
675.29	0.00
675.43	32.77
675.56	42.13
675.70	16.38
675.84	53.83
675.98	9.36
676.12	46.81
676.26	18.72
676.40	67.88
676.54	98.30
676.68	35.11
676.82	4.68
676.96	7.02
677.10	16.38
677.23	63.19
677.37	0.00
677.51	28.09
677.65	79.58
677.79	0.00
677.93	84.26
678.07	42.13
678.21	42.13
678.34	23.41
678.48	74.90
678.62	77.24
678.76	53.83
678.90	91.28
679.04	11.70
679.18	0.00
679.31	0.00
679.45	30.43
679.59	23.41
679.73	37.45
679.87	58.51
680.00	46.81
680.14	84.26
680.28	100.64
680.42	42.13
680.56	67.88
680.70	63.19
680.83	63.19
680.97	102.98
681.11	0.00
681.25	77.24
681.39	51.49
681.52	11.70
681.66	23.41
681.80	18.72
681.94	0.00
682.07	35.11
682.21	84.26
682.35	7.02
682.49	0.00
682.62	65.54
682.76	46.81
682.90	60.85
683.04	39.79
683.17	32.77
683.31	86.60
683.45	28.09
683.59	46.81
683.72	51.49
683.86	63.19
684.00	58.51
684.13	46.81
684.27	25.75
684.41	37.45
684.55	102.98
684.68	51.49
684.82	42.13
684.96	30.43
685.09	32.77
685.23	56.17
685.37	4.68
685.50	11.70
685.64	37.45
685.78	49.15
685.91	63.19
686.05	0.00
686.19	0.00
686.32	84.26
686.46	21.06
686.60	51.49
686.73	9.36
686.87	35.11
687.01	0.00
687.14	0.00
687.28	4.68
687.42	30.43
687.55	37.45
687.69	77.24
687.82	42.13
687.96	7.02
688.10	2.34
688.23	42.13
688.37	58.51
688.50	77.24
688.64	0.00
688.78	74.90
688.91	35.11
689.05	72.56
689.18	0.00
689.32	46.81
689.46	14.04
689.59	0.00
689.73	46.81
689.86	28.09
690.00	51.49
690.13	35.11
690.27	51.49
690.41	0.00
690.54	102.98
690.68	37.45
690.81	37.45
690.95	28.09
691.08	30.43
691.22	100.64
691.35	39.79
691.49	51.49
691.62	0.00
691.76	16.38
691.89	18.72
692.03	30.43
692.16	0.00
692.30	46.81
692.43	100.64
692.57	142.77
692.70	88.94
692.84	133.41
692.97	145.11
693.11	51.49
693.24	60.85
693.38	86.60
693.51	0.00
693.65	42.13
693.78	58.51
693.92	105.32
694.05	18.72
694.19	49.15
694.32	72.56
694.45	0.00
694.59	49.15
694.72	51.49
694.86	0.00
694.99	46.81
695.13	56.17
695.26	21.06
695.39	0.00
695.53	93.62
695.66	0.00
695.80	46.81
695.93	0.00
696.07	0.00
696.20	35.11
696.33	58.51
696.47	14.04
696.60	0.00
696.73	67.88
696.87	0.00
697.00	102.98
697.14	72.56
697.27	30.43
697.40	44.47
697.54	0.00
697.67	4.68
697.80	9.36
697.94	21.06
698.07	0.00
698.21	84.26
698.34	9.36
698.47	35.11
698.61	39.79
698.74	21.06
698.87	107.66
699.01	79.58
699.14	98.30
699.27	32.77
699.40	42.13
699.54	32.77
699.67	7.02
699.80	0.00
699.94	0.00
700.07	114.69
700.20	21.06
700.34	72.56
700.47	0.00
700.60	0.00
700.73	0.00
700.87	88.94
701.00	0.00
701.13	51.49
701.26	21.06
701.40	39.79
701.53	23.41
701.66	18.72
701.79	0.00
701.93	51.49
702.06	28.09
702.19	11.70
702.32	32.77
702.46	9.36
702.59	21.06
702.72	0.00
702.85	98.30
702.99	264.48
703.12	145.11
703.25	276.18
703.38	203.63
703.51	140.43
703.65	152.13
703.78	65.54
703.91	42.13
704.04	105.32
704.17	88.94
704.31	0.00
704.44	23.41
704.57	51.49
704.70	0.00
704.83	0.00
704.96	0.00
705.10	0.00
705.23	72.56
>>>>>End Processed Spectral Data<<<<<
