SpectraSuite Data File
++++++++++++++++++++++++++++++++++++
Date: Fri Oct 04 12:13:42 GMT-05:00 2013
User: price-jones
Dark Spectrum Present: No
Reference Spectrum Present: No
Number of Sampled Component Spectra: 1
Spectrometers: USB2+H05261
Integration Time (usec): 10000 (USB2+H05261)
Spectra Averaged: 1 (USB2+H05261)
Boxcar Smoothing: 0 (USB2+H05261)
Correct for Electrical Dark: No (USB2+H05261)
Strobe/Lamp Enabled: No (USB2+H05261)
Correct for Detector Non-linearity: No (USB2+H05261)
Correct for Stray Light: No (USB2+H05261)
Number of Pixels in Processed Spectrum: 2048
>>>>>Begin Processed Spectral Data<<<<<
365.73	49.15
365.92	49.15
366.12	49.15
366.32	0.00
366.52	0.00
366.72	0.00
366.91	0.00
367.11	0.00
367.31	0.00
367.51	0.00
367.70	0.00
367.90	0.00
368.10	0.00
368.30	0.00
368.49	0.00
368.69	0.00
368.89	0.00
369.09	0.00
369.28	0.00
369.48	0.00
369.68	0.00
369.87	0.00
370.07	0.00
370.27	0.00
370.47	0.00
370.66	0.00
370.86	0.00
371.06	0.00
371.25	9.36
371.45	21.06
371.65	0.00
371.84	0.00
372.04	46.81
372.24	0.00
372.44	0.00
372.63	35.11
372.83	7.02
373.03	11.70
373.22	7.02
373.42	0.00
373.62	39.79
373.81	2.34
374.01	37.45
374.21	0.00
374.40	0.00
374.60	0.00
374.79	28.09
374.99	7.02
375.19	37.45
375.38	0.00
375.58	25.75
375.78	74.90
375.97	37.45
376.17	67.88
376.37	74.90
376.56	0.00
376.76	30.43
376.95	0.00
377.15	74.90
377.35	0.00
377.54	0.00
377.74	42.13
377.93	0.00
378.13	0.00
378.33	49.15
378.52	0.00
378.72	0.00
378.91	0.00
379.11	4.68
379.31	0.00
379.50	42.13
379.70	30.43
379.89	4.68
380.09	23.41
380.28	14.04
380.48	67.88
380.68	0.00
380.87	0.00
381.07	67.88
381.26	2.34
381.46	16.38
381.65	0.00
381.85	25.75
382.04	14.04
382.24	51.49
382.43	0.00
382.63	0.00
382.83	25.75
383.02	7.02
383.22	23.41
383.41	0.00
383.61	32.77
383.80	18.72
384.00	70.22
384.19	0.00
384.39	0.00
384.58	16.38
384.78	0.00
384.97	46.81
385.17	42.13
385.36	11.70
385.56	0.00
385.75	53.83
385.95	67.88
386.14	16.38
386.34	35.11
386.53	0.00
386.72	0.00
386.92	0.00
387.11	28.09
387.31	32.77
387.50	37.45
387.70	28.09
387.89	70.22
388.09	84.26
388.28	0.00
388.48	9.36
388.67	18.72
388.86	9.36
389.06	35.11
389.25	42.13
389.45	14.04
389.64	0.00
389.84	42.13
390.03	39.79
390.22	25.75
390.42	16.38
390.61	4.68
390.81	0.00
391.00	4.68
391.19	16.38
391.39	0.00
391.58	114.69
391.78	23.41
391.97	0.00
392.16	37.45
392.36	28.09
392.55	70.22
392.75	0.00
392.94	0.00
393.13	30.43
393.33	65.54
393.52	0.00
393.71	9.36
393.91	0.00
394.10	16.38
394.29	51.49
394.49	0.00
394.68	35.11
394.88	18.72
395.07	0.00
395.26	79.58
395.46	74.90
395.65	67.88
395.84	74.90
396.04	16.38
396.23	32.77
396.42	0.00
396.62	42.13
396.81	65.54
397.00	9.36
397.19	60.85
397.39	23.41
397.58	0.00
397.77	0.00
397.97	28.09
398.16	11.70
398.35	28.09
398.55	9.36
398.74	0.00
398.93	110.01
399.12	23.41
399.32	114.69
399.51	0.00
399.70	65.54
399.90	53.83
400.09	39.79
400.28	49.15
400.47	53.83
400.67	32.77
400.86	53.83
401.05	21.06
401.24	53.83
401.44	0.00
401.63	7.02
401.82	114.69
402.01	0.00
402.21	79.58
402.40	23.41
402.59	2.34
402.78	70.22
402.97	0.00
403.17	30.43
403.36	63.19
403.55	7.02
403.74	9.36
403.93	60.85
404.13	30.43
404.32	30.43
404.51	25.75
404.70	7.02
404.89	0.00
405.09	28.09
405.28	63.19
405.47	35.11
405.66	0.00
405.85	7.02
406.05	46.81
406.24	35.11
406.43	21.06
406.62	32.77
406.81	91.28
407.00	63.19
407.20	84.26
407.39	112.35
407.58	18.72
407.77	7.02
407.96	110.01
408.15	0.00
408.34	0.00
408.54	0.00
408.73	9.36
408.92	81.92
409.11	42.13
409.30	4.68
409.49	51.49
409.68	25.75
409.87	65.54
410.07	51.49
410.26	63.19
410.45	39.79
410.64	84.26
410.83	0.00
411.02	9.36
411.21	51.49
411.40	0.00
411.59	16.38
411.78	49.15
411.98	39.79
412.17	21.06
412.36	72.56
412.55	0.00
412.74	7.02
412.93	23.41
413.12	51.49
413.31	60.85
413.50	11.70
413.69	0.00
413.88	39.79
414.07	51.49
414.26	21.06
414.45	81.92
414.64	93.62
414.83	4.68
415.02	0.00
415.22	30.43
415.41	42.13
415.60	0.00
415.79	28.09
415.98	0.00
416.17	110.01
416.36	49.15
416.55	84.26
416.74	0.00
416.93	44.47
417.12	28.09
417.31	9.36
417.50	53.83
417.69	37.45
417.88	0.00
418.07	0.00
418.26	11.70
418.45	53.83
418.64	107.66
418.83	4.68
419.02	58.51
419.21	72.56
419.39	53.83
419.58	95.96
419.77	91.28
419.96	4.68
420.15	58.51
420.34	35.11
420.53	86.60
420.72	74.90
420.91	79.58
421.10	30.43
421.29	2.34
421.48	60.85
421.67	0.00
421.86	58.51
422.05	30.43
422.24	53.83
422.43	21.06
422.61	0.00
422.80	58.51
422.99	112.35
423.18	28.09
423.37	49.15
423.56	102.98
423.75	49.15
423.94	112.35
424.13	39.79
424.32	2.34
424.50	77.24
424.69	79.58
424.88	60.85
425.07	56.17
425.26	21.06
425.45	60.85
425.64	4.68
425.83	133.41
426.01	35.11
426.20	42.13
426.39	72.56
426.58	9.36
426.77	119.37
426.96	100.64
427.15	65.54
427.33	74.90
427.52	44.47
427.71	0.00
427.90	35.11
428.09	32.77
428.28	63.19
428.46	16.38
428.65	84.26
428.84	56.17
429.03	37.45
429.22	98.30
429.40	65.54
429.59	21.06
429.78	42.13
429.97	0.00
430.16	37.45
430.34	0.00
430.53	9.36
430.72	35.11
430.91	42.13
431.10	58.51
431.28	72.56
431.47	0.00
431.66	124.05
431.85	21.06
432.03	0.00
432.22	32.77
432.41	51.49
432.60	74.90
432.79	74.90
432.97	0.00
433.16	46.81
433.35	35.11
433.54	0.00
433.72	74.90
433.91	37.45
434.10	30.43
434.28	37.45
434.47	44.47
434.66	86.60
434.85	67.88
435.03	84.26
435.22	95.96
435.41	65.54
435.59	44.47
435.78	77.24
435.97	84.26
436.16	42.13
436.34	0.00
436.53	79.58
436.72	9.36
436.90	72.56
437.09	65.54
437.28	0.00
437.46	58.51
437.65	0.00
437.84	4.68
438.02	37.45
438.21	63.19
438.40	39.79
438.58	0.00
438.77	28.09
438.96	46.81
439.14	0.00
439.33	63.19
439.52	67.88
439.70	65.54
439.89	53.83
440.08	18.72
440.26	51.49
440.45	32.77
440.63	79.58
440.82	46.81
441.01	25.75
441.19	37.45
441.38	49.15
441.57	44.47
441.75	65.54
441.94	86.60
442.12	93.62
442.31	91.28
442.50	18.72
442.68	0.00
442.87	23.41
443.05	91.28
443.24	79.58
443.43	30.43
443.61	18.72
443.80	37.45
443.98	42.13
444.17	70.22
444.35	0.00
444.54	102.98
444.73	49.15
444.91	0.00
445.10	79.58
445.28	0.00
445.47	25.75
445.65	70.22
445.84	86.60
446.02	16.38
446.21	0.00
446.39	63.19
446.58	100.64
446.77	39.79
446.95	63.19
447.14	91.28
447.32	56.17
447.51	56.17
447.69	46.81
447.88	39.79
448.06	11.70
448.25	56.17
448.43	0.00
448.62	42.13
448.80	67.88
448.99	7.02
449.17	32.77
449.36	42.13
449.54	53.83
449.73	93.62
449.91	51.49
450.10	32.77
450.28	2.34
450.46	72.56
450.65	42.13
450.83	14.04
451.02	16.38
451.20	86.60
451.39	35.11
451.57	0.00
451.76	140.43
451.94	42.13
452.13	140.43
452.31	65.54
452.49	28.09
452.68	81.92
452.86	58.51
453.05	30.43
453.23	42.13
453.42	49.15
453.60	0.00
453.78	7.02
453.97	56.17
454.15	23.41
454.34	95.96
454.52	18.72
454.70	105.32
454.89	56.17
455.07	35.11
455.26	81.92
455.44	74.90
455.62	81.92
455.81	4.68
455.99	74.90
456.17	44.47
456.36	21.06
456.54	39.79
456.73	117.03
456.91	93.62
457.09	70.22
457.28	44.47
457.46	49.15
457.64	0.00
457.83	51.49
458.01	74.90
458.19	72.56
458.38	72.56
458.56	11.70
458.74	88.94
458.93	70.22
459.11	46.81
459.29	7.02
459.48	53.83
459.66	98.30
459.84	56.17
460.03	95.96
460.21	42.13
460.39	95.96
460.57	39.79
460.76	105.32
460.94	23.41
461.12	11.70
461.31	63.19
461.49	51.49
461.67	39.79
461.85	131.07
462.04	51.49
462.22	105.32
462.40	70.22
462.59	56.17
462.77	131.07
462.95	84.26
463.13	56.17
463.32	58.51
463.50	18.72
463.68	9.36
463.86	133.41
464.05	114.69
464.23	86.60
464.41	72.56
464.59	119.37
464.78	28.09
464.96	28.09
465.14	46.81
465.32	0.00
465.50	112.35
465.69	84.26
465.87	37.45
466.05	70.22
466.23	79.58
466.41	51.49
466.60	79.58
466.78	49.15
466.96	126.39
467.14	105.32
467.32	126.39
467.51	0.00
467.69	9.36
467.87	39.79
468.05	0.00
468.23	98.30
468.41	30.43
468.60	72.56
468.78	72.56
468.96	119.37
469.14	51.49
469.32	51.49
469.50	0.00
469.69	0.00
469.87	102.98
470.05	49.15
470.23	74.90
470.41	25.75
470.59	14.04
470.77	56.17
470.95	21.06
471.14	11.70
471.32	84.26
471.50	95.96
471.68	44.47
471.86	63.19
472.04	11.70
472.22	72.56
472.40	21.06
472.58	49.15
472.77	67.88
472.95	67.88
473.13	35.11
473.31	0.00
473.49	37.45
473.67	21.06
473.85	98.30
474.03	49.15
474.21	98.30
474.39	105.32
474.57	49.15
474.75	46.81
474.93	107.66
475.12	88.94
475.30	35.11
475.48	14.04
475.66	152.13
475.84	0.00
476.02	117.03
476.20	88.94
476.38	93.62
476.56	60.85
476.74	63.19
476.92	77.24
477.10	100.64
477.28	105.32
477.46	51.49
477.64	110.01
477.82	53.83
478.00	46.81
478.18	51.49
478.36	0.00
478.54	46.81
478.72	37.45
478.90	0.00
479.08	56.17
479.26	44.47
479.44	49.15
479.62	14.04
479.80	79.58
479.98	77.24
480.16	100.64
480.34	84.26
480.52	42.13
480.70	91.28
480.88	14.04
481.06	65.54
481.24	74.90
481.41	42.13
481.59	72.56
481.77	126.39
481.95	56.17
482.13	98.30
482.31	168.52
482.49	67.88
482.67	65.54
482.85	39.79
483.03	25.75
483.21	77.24
483.39	124.05
483.57	98.30
483.74	102.98
483.92	100.64
484.10	74.90
484.28	42.13
484.46	53.83
484.64	32.77
484.82	112.35
485.00	72.56
485.18	60.85
485.35	46.81
485.53	102.98
485.71	30.43
485.89	42.13
486.07	0.00
486.25	51.49
486.43	79.58
486.61	46.81
486.78	100.64
486.96	32.77
487.14	46.81
487.32	51.49
487.50	0.00
487.68	7.02
487.85	154.48
488.03	44.47
488.21	53.83
488.39	107.66
488.57	63.19
488.75	149.79
488.92	51.49
489.10	114.69
489.28	86.60
489.46	44.47
489.64	74.90
489.81	67.88
489.99	93.62
490.17	18.72
490.35	0.00
490.53	77.24
490.70	91.28
490.88	70.22
491.06	77.24
491.24	67.88
491.41	86.60
491.59	140.43
491.77	51.49
491.95	28.09
492.13	39.79
492.30	117.03
492.48	74.90
492.66	70.22
492.84	60.85
493.01	84.26
493.19	58.51
493.37	105.32
493.54	74.90
493.72	2.34
493.90	46.81
494.08	81.92
494.25	67.88
494.43	58.51
494.61	16.38
494.79	65.54
494.96	4.68
495.14	51.49
495.32	131.07
495.49	35.11
495.67	72.56
495.85	84.26
496.02	70.22
496.20	65.54
496.38	77.24
496.55	42.13
496.73	126.39
496.91	65.54
497.09	91.28
497.26	65.54
497.44	0.00
497.62	53.83
497.79	44.47
497.97	0.00
498.14	91.28
498.32	95.96
498.50	131.07
498.67	102.98
498.85	39.79
499.03	9.36
499.20	70.22
499.38	67.88
499.56	56.17
499.73	102.98
499.91	65.54
500.08	93.62
500.26	135.75
500.44	0.00
500.61	0.00
500.79	21.06
500.97	65.54
501.14	128.73
501.32	65.54
501.49	105.32
501.67	95.96
501.84	63.19
502.02	0.00
502.20	124.05
502.37	51.49
502.55	44.47
502.72	53.83
502.90	91.28
503.07	37.45
503.25	121.71
503.43	117.03
503.60	79.58
503.78	49.15
503.95	23.41
504.13	98.30
504.30	32.77
504.48	60.85
504.65	63.19
504.83	98.30
505.01	79.58
505.18	56.17
505.36	70.22
505.53	135.75
505.71	60.85
505.88	72.56
506.06	72.56
506.23	91.28
506.41	88.94
506.58	86.60
506.76	100.64
506.93	44.47
507.11	46.81
507.28	110.01
507.46	16.38
507.63	32.77
507.81	44.47
507.98	86.60
508.16	35.11
508.33	72.56
508.50	70.22
508.68	79.58
508.85	105.32
509.03	145.11
509.20	121.71
509.38	95.96
509.55	156.82
509.73	105.32
509.90	28.09
510.08	65.54
510.25	121.71
510.42	114.69
510.60	98.30
510.77	51.49
510.95	128.73
511.12	18.72
511.30	107.66
511.47	93.62
511.64	74.90
511.82	58.51
511.99	187.24
512.17	91.28
512.34	72.56
512.51	16.38
512.69	42.13
512.86	32.77
513.04	77.24
513.21	72.56
513.38	117.03
513.56	23.41
513.73	35.11
513.90	67.88
514.08	67.88
514.25	49.15
514.43	105.32
514.60	154.48
514.77	98.30
514.95	35.11
515.12	95.96
515.29	112.35
515.47	124.05
515.64	32.77
515.81	84.26
515.99	98.30
516.16	128.73
516.33	119.37
516.51	23.41
516.68	86.60
516.85	81.92
517.03	86.60
517.20	21.06
517.37	65.54
517.54	131.07
517.72	67.88
517.89	102.98
518.06	46.81
518.24	84.26
518.41	0.00
518.58	30.43
518.75	117.03
518.93	88.94
519.10	23.41
519.27	95.96
519.45	142.77
519.62	49.15
519.79	86.60
519.96	79.58
520.14	119.37
520.31	14.04
520.48	91.28
520.65	114.69
520.83	21.06
521.00	95.96
521.17	114.69
521.34	105.32
521.52	88.94
521.69	58.51
521.86	131.07
522.03	91.28
522.20	84.26
522.38	84.26
522.55	147.45
522.72	93.62
522.89	44.47
523.07	49.15
523.24	72.56
523.41	117.03
523.58	93.62
523.75	145.11
523.92	37.45
524.10	98.30
524.27	84.26
524.44	105.32
524.61	81.92
524.78	114.69
524.96	46.81
525.13	114.69
525.30	112.35
525.47	107.66
525.64	11.70
525.81	95.96
525.98	95.96
526.16	79.58
526.33	131.07
526.50	9.36
526.67	67.88
526.84	166.18
527.01	107.66
527.18	110.01
527.36	93.62
527.53	42.13
527.70	32.77
527.87	112.35
528.04	0.00
528.21	112.35
528.38	35.11
528.55	110.01
528.72	175.54
528.89	63.19
529.07	2.34
529.24	138.09
529.41	91.28
529.58	121.71
529.75	51.49
529.92	93.62
530.09	35.11
530.26	77.24
530.43	51.49
530.60	74.90
530.77	81.92
530.94	77.24
531.11	138.09
531.28	0.00
531.46	112.35
531.63	25.75
531.80	107.66
531.97	44.47
532.14	67.88
532.31	138.09
532.48	135.75
532.65	131.07
532.82	46.81
532.99	128.73
533.16	81.92
533.33	77.24
533.50	124.05
533.67	35.11
533.84	70.22
534.01	51.49
534.18	119.37
534.35	105.32
534.52	126.39
534.69	79.58
534.86	84.26
535.03	63.19
535.20	126.39
535.37	60.85
535.54	81.92
535.71	88.94
535.88	124.05
536.05	60.85
536.22	88.94
536.38	51.49
536.55	79.58
536.72	107.66
536.89	98.30
537.06	91.28
537.23	49.15
537.40	72.56
537.57	65.54
537.74	112.35
537.91	135.75
538.08	154.48
538.25	72.56
538.42	117.03
538.59	53.83
538.75	119.37
538.92	126.39
539.09	58.51
539.26	67.88
539.43	67.88
539.60	79.58
539.77	42.13
539.94	98.30
540.11	72.56
540.28	88.94
540.44	58.51
540.61	70.22
540.78	128.73
540.95	156.82
541.12	110.01
541.29	56.17
541.46	105.32
541.62	105.32
541.79	112.35
541.96	84.26
542.13	42.13
542.30	65.54
542.47	138.09
542.63	63.19
542.80	46.81
542.97	93.62
543.14	63.19
543.31	18.72
543.48	93.62
543.64	81.92
543.81	100.64
543.98	53.83
544.15	91.28
544.32	49.15
544.48	154.48
544.65	86.60
544.82	46.81
544.99	86.60
545.16	95.96
545.32	93.62
545.49	121.71
545.66	152.13
545.83	140.43
546.00	37.45
546.16	42.13
546.33	77.24
546.50	30.43
546.67	117.03
546.83	84.26
547.00	105.32
547.17	63.19
547.34	152.13
547.50	102.98
547.67	105.32
547.84	67.88
548.00	170.86
548.17	88.94
548.34	0.00
548.51	84.26
548.67	117.03
548.84	112.35
549.01	110.01
549.18	79.58
549.34	95.96
549.51	30.43
549.68	63.19
549.84	105.32
550.01	84.26
550.18	117.03
550.34	149.79
550.51	63.19
550.68	70.22
550.84	72.56
551.01	86.60
551.18	170.86
551.34	51.49
551.51	88.94
551.68	51.49
551.84	182.56
552.01	74.90
552.18	131.07
552.34	81.92
552.51	51.49
552.68	77.24
552.84	93.62
553.01	39.79
553.18	102.98
553.34	56.17
553.51	95.96
553.67	84.26
553.84	135.75
554.01	72.56
554.17	112.35
554.34	60.85
554.51	35.11
554.67	124.05
554.84	63.19
555.00	16.38
555.17	44.47
555.33	65.54
555.50	79.58
555.67	126.39
555.83	74.90
556.00	58.51
556.16	102.98
556.33	105.32
556.50	63.19
556.66	138.09
556.83	180.22
556.99	105.32
557.16	32.77
557.32	42.13
557.49	72.56
557.65	77.24
557.82	44.47
557.98	102.98
558.15	58.51
558.32	88.94
558.48	84.26
558.65	32.77
558.81	35.11
558.98	67.88
559.14	126.39
559.31	42.13
559.47	9.36
559.64	30.43
559.80	110.01
559.97	112.35
560.13	159.16
560.30	51.49
560.46	11.70
560.63	67.88
560.79	56.17
560.96	98.30
561.12	72.56
561.29	91.28
561.45	138.09
561.61	39.79
561.78	128.73
561.94	119.37
562.11	81.92
562.27	67.88
562.44	117.03
562.60	58.51
562.77	67.88
562.93	95.96
563.10	126.39
563.26	152.13
563.42	124.05
563.59	77.24
563.75	107.66
563.92	98.30
564.08	79.58
564.24	114.69
564.41	166.18
564.57	81.92
564.74	119.37
564.90	152.13
565.07	102.98
565.23	42.13
565.39	67.88
565.56	79.58
565.72	0.00
565.88	119.37
566.05	100.64
566.21	105.32
566.38	77.24
566.54	142.77
566.70	4.68
566.87	72.56
567.03	72.56
567.19	107.66
567.36	72.56
567.52	53.83
567.68	25.75
567.85	60.85
568.01	67.88
568.17	72.56
568.34	25.75
568.50	72.56
568.66	16.38
568.83	70.22
568.99	110.01
569.15	98.30
569.32	72.56
569.48	100.64
569.64	100.64
569.81	42.13
569.97	79.58
570.13	21.06
570.30	166.18
570.46	84.26
570.62	16.38
570.78	58.51
570.95	46.81
571.11	60.85
571.27	100.64
571.43	77.24
571.60	79.58
571.76	72.56
571.92	84.26
572.09	79.58
572.25	56.17
572.41	4.68
572.57	32.77
572.74	131.07
572.90	53.83
573.06	67.88
573.22	63.19
573.38	152.13
573.55	74.90
573.71	70.22
573.87	88.94
574.03	28.09
574.20	21.06
574.36	77.24
574.52	114.69
574.68	18.72
574.84	65.54
575.01	105.32
575.17	100.64
575.33	93.62
575.49	124.05
575.65	117.03
575.82	86.60
575.98	14.04
576.14	49.15
576.30	117.03
576.46	74.90
576.62	18.72
576.79	86.60
576.95	70.22
577.11	86.60
577.27	88.94
577.43	46.81
577.59	49.15
577.75	35.11
577.92	60.85
578.08	32.77
578.24	77.24
578.40	81.92
578.56	44.47
578.72	191.92
578.88	91.28
579.04	100.64
579.21	79.58
579.37	77.24
579.53	74.90
579.69	56.17
579.85	67.88
580.01	88.94
580.17	77.24
580.33	51.49
580.49	100.64
580.65	156.82
580.82	100.64
580.98	53.83
581.14	7.02
581.30	88.94
581.46	58.51
581.62	107.66
581.78	110.01
581.94	88.94
582.10	49.15
582.26	117.03
582.42	98.30
582.58	117.03
582.74	58.51
582.90	81.92
583.06	81.92
583.22	91.28
583.38	100.64
583.54	119.37
583.70	114.69
583.86	23.41
584.02	110.01
584.18	65.54
584.34	86.60
584.50	105.32
584.66	72.56
584.82	53.83
584.98	91.28
585.14	58.51
585.30	51.49
585.46	81.92
585.62	119.37
585.78	110.01
585.94	65.54
586.10	105.32
586.26	114.69
586.42	121.71
586.58	91.28
586.74	25.75
586.90	0.00
587.06	46.81
587.22	72.56
587.38	124.05
587.54	74.90
587.70	49.15
587.86	39.79
588.02	65.54
588.18	14.04
588.34	86.60
588.49	0.00
588.65	79.58
588.81	72.56
588.97	4.68
589.13	77.24
589.29	70.22
589.45	138.09
589.61	65.54
589.77	51.49
589.93	86.60
590.08	74.90
590.24	70.22
590.40	110.01
590.56	35.11
590.72	156.82
590.88	63.19
591.04	77.24
591.20	44.47
591.35	110.01
591.51	102.98
591.67	84.26
591.83	72.56
591.99	58.51
592.15	81.92
592.31	149.79
592.46	86.60
592.62	79.58
592.78	58.51
592.94	4.68
593.10	0.00
593.26	72.56
593.41	42.13
593.57	65.54
593.73	37.45
593.89	16.38
594.05	18.72
594.20	65.54
594.36	70.22
594.52	56.17
594.68	74.90
594.84	156.82
594.99	65.54
595.15	121.71
595.31	105.32
595.47	107.66
595.62	51.49
595.78	88.94
595.94	98.30
596.10	58.51
596.25	37.45
596.41	95.96
596.57	72.56
596.73	35.11
596.88	72.56
597.04	30.43
597.20	51.49
597.36	79.58
597.51	86.60
597.67	56.17
597.83	84.26
597.99	140.43
598.14	112.35
598.30	114.69
598.46	70.22
598.61	0.00
598.77	112.35
598.93	79.58
599.09	86.60
599.24	63.19
599.40	135.75
599.56	46.81
599.71	84.26
599.87	84.26
600.03	44.47
600.18	60.85
600.34	107.66
600.50	72.56
600.65	79.58
600.81	28.09
600.97	60.85
601.12	100.64
601.28	51.49
601.44	128.73
601.59	56.17
601.75	135.75
601.91	114.69
602.06	74.90
602.22	72.56
602.37	133.41
602.53	11.70
602.69	44.47
602.84	84.26
603.00	84.26
603.16	114.69
603.31	124.05
603.47	95.96
603.62	16.38
603.78	84.26
603.94	102.98
604.09	81.92
604.25	81.92
604.40	86.60
604.56	51.49
604.71	77.24
604.87	147.45
605.03	35.11
605.18	23.41
605.34	121.71
605.49	128.73
605.65	119.37
605.80	67.88
605.96	53.83
606.12	44.47
606.27	74.90
606.43	37.45
606.58	81.92
606.74	114.69
606.89	84.26
607.05	21.06
607.20	91.28
607.36	117.03
607.51	74.90
607.67	51.49
607.82	72.56
607.98	86.60
608.13	133.41
608.29	0.00
608.44	102.98
608.60	60.85
608.75	49.15
608.91	77.24
609.06	100.64
609.22	30.43
609.37	81.92
609.53	91.28
609.68	81.92
609.84	58.51
609.99	28.09
610.15	98.30
610.30	114.69
610.46	37.45
610.61	60.85
610.76	72.56
610.92	77.24
611.07	58.51
611.23	107.66
611.38	79.58
611.54	107.66
611.69	60.85
611.84	74.90
612.00	124.05
612.15	46.81
612.31	91.28
612.46	16.38
612.62	37.45
612.77	32.77
612.92	28.09
613.08	81.92
613.23	0.00
613.39	42.13
613.54	88.94
613.69	0.00
613.85	56.17
614.00	110.01
614.15	121.71
614.31	0.00
614.46	81.92
614.62	37.45
614.77	84.26
614.92	51.49
615.08	72.56
615.23	42.13
615.38	72.56
615.54	63.19
615.69	44.47
615.84	86.60
616.00	16.38
616.15	37.45
616.30	67.88
616.46	70.22
616.61	37.45
616.76	124.05
616.92	133.41
617.07	58.51
617.22	88.94
617.37	11.70
617.53	63.19
617.68	0.00
617.83	79.58
617.99	112.35
618.14	63.19
618.29	4.68
618.45	23.41
618.60	93.62
618.75	128.73
618.90	77.24
619.06	72.56
619.21	93.62
619.36	86.60
619.51	86.60
619.67	88.94
619.82	79.58
619.97	86.60
620.12	21.06
620.28	77.24
620.43	77.24
620.58	23.41
620.73	28.09
620.89	100.64
621.04	39.79
621.19	35.11
621.34	95.96
621.49	37.45
621.65	51.49
621.80	60.85
621.95	58.51
622.10	28.09
622.25	91.28
622.41	84.26
622.56	0.00
622.71	35.11
622.86	95.96
623.01	79.58
623.16	11.70
623.32	56.17
623.47	77.24
623.62	63.19
623.77	2.34
623.92	16.38
624.07	37.45
624.23	131.07
624.38	51.49
624.53	56.17
624.68	112.35
624.83	121.71
624.98	65.54
625.13	128.73
625.29	65.54
625.44	2.34
625.59	60.85
625.74	25.75
625.89	44.47
626.04	91.28
626.19	18.72
626.34	84.26
626.49	81.92
626.65	39.79
626.80	0.00
626.95	16.38
627.10	0.00
627.25	0.00
627.40	58.51
627.55	88.94
627.70	11.70
627.85	112.35
628.00	46.81
628.15	49.15
628.30	72.56
628.45	98.30
628.60	70.22
628.76	114.69
628.91	100.64
629.06	131.07
629.21	95.96
629.36	67.88
629.51	46.81
629.66	81.92
629.81	107.66
629.96	49.15
630.11	32.77
630.26	100.64
630.41	81.92
630.56	35.11
630.71	42.13
630.86	0.00
631.01	56.17
631.16	95.96
631.31	95.96
631.46	91.28
631.61	79.58
631.76	18.72
631.91	11.70
632.06	60.85
632.21	65.54
632.36	23.41
632.51	60.85
632.66	98.30
632.81	98.30
632.96	11.70
633.10	65.54
633.25	53.83
633.40	39.79
633.55	124.05
633.70	70.22
633.85	102.98
634.00	65.54
634.15	0.00
634.30	77.24
634.45	49.15
634.60	138.09
634.75	93.62
634.90	79.58
635.05	56.17
635.19	102.98
635.34	63.19
635.49	49.15
635.64	154.48
635.79	63.19
635.94	86.60
636.09	72.56
636.24	58.51
636.39	65.54
636.53	93.62
636.68	53.83
636.83	100.64
636.98	32.77
637.13	4.68
637.28	128.73
637.43	53.83
637.57	58.51
637.72	102.98
637.87	100.64
638.02	74.90
638.17	11.70
638.32	98.30
638.46	30.43
638.61	74.90
638.76	25.75
638.91	21.06
639.06	44.47
639.20	51.49
639.35	63.19
639.50	35.11
639.65	107.66
639.80	86.60
639.94	91.28
640.09	39.79
640.24	37.45
640.39	30.43
640.54	30.43
640.68	21.06
640.83	70.22
640.98	60.85
641.13	65.54
641.27	28.09
641.42	46.81
641.57	25.75
641.72	53.83
641.86	63.19
642.01	32.77
642.16	65.54
642.31	79.58
642.45	46.81
642.60	44.47
642.75	70.22
642.90	79.58
643.04	51.49
643.19	0.00
643.34	23.41
643.48	74.90
643.63	58.51
643.78	25.75
643.93	16.38
644.07	14.04
644.22	28.09
644.37	102.98
644.51	30.43
644.66	67.88
644.81	37.45
644.95	79.58
645.10	67.88
645.25	11.70
645.39	42.13
645.54	37.45
645.69	93.62
645.83	35.11
645.98	28.09
646.13	74.90
646.27	124.05
646.42	63.19
646.57	18.72
646.71	84.26
646.86	0.00
647.00	70.22
647.15	110.01
647.30	63.19
647.44	23.41
647.59	81.92
647.74	49.15
647.88	25.75
648.03	0.00
648.17	18.72
648.32	0.00
648.47	77.24
648.61	56.17
648.76	63.19
648.90	74.90
649.05	112.35
649.20	102.98
649.34	39.79
649.49	65.54
649.63	49.15
649.78	63.19
649.92	74.90
650.07	0.00
650.21	98.30
650.36	39.79
650.51	60.85
650.65	67.88
650.80	53.83
650.94	0.00
651.09	72.56
651.23	16.38
651.38	0.00
651.52	35.11
651.67	23.41
651.81	65.54
651.96	114.69
652.10	11.70
652.25	86.60
652.39	0.00
652.54	30.43
652.68	110.01
652.83	42.13
652.97	56.17
653.12	88.94
653.26	30.43
653.41	32.77
653.55	72.56
653.70	126.39
653.84	42.13
653.99	81.92
654.13	30.43
654.27	65.54
654.42	74.90
654.56	51.49
654.71	114.69
654.85	70.22
655.00	86.60
655.14	0.00
655.29	28.09
655.43	60.85
655.57	79.58
655.72	53.83
655.86	91.28
656.01	21.06
656.15	16.38
656.30	0.00
656.44	95.96
656.58	25.75
656.73	42.13
656.87	81.92
657.01	21.06
657.16	16.38
657.30	0.00
657.45	21.06
657.59	86.60
657.73	88.94
657.88	0.00
658.02	79.58
658.16	84.26
658.31	42.13
658.45	72.56
658.60	86.60
658.74	49.15
658.88	77.24
659.03	84.26
659.17	74.90
659.31	72.56
659.46	91.28
659.60	56.17
659.74	11.70
659.89	16.38
660.03	70.22
660.17	86.60
660.32	14.04
660.46	0.00
660.60	105.32
660.74	74.90
660.89	98.30
661.03	65.54
661.17	35.11
661.32	25.75
661.46	65.54
661.60	0.00
661.74	65.54
661.89	9.36
662.03	56.17
662.17	114.69
662.31	102.98
662.46	42.13
662.60	91.28
662.74	9.36
662.88	138.09
663.03	58.51
663.17	114.69
663.31	67.88
663.45	56.17
663.60	74.90
663.74	42.13
663.88	70.22
664.02	42.13
664.17	58.51
664.31	93.62
664.45	0.00
664.59	42.13
664.73	91.28
664.88	23.41
665.02	18.72
665.16	28.09
665.30	35.11
665.44	37.45
665.59	102.98
665.73	35.11
665.87	25.75
666.01	147.45
666.15	53.83
666.29	93.62
666.44	51.49
666.58	39.79
666.72	72.56
666.86	42.13
667.00	0.00
667.14	11.70
667.28	72.56
667.43	91.28
667.57	46.81
667.71	67.88
667.85	9.36
667.99	11.70
668.13	140.43
668.27	84.26
668.41	51.49
668.56	72.56
668.70	70.22
668.84	32.77
668.98	35.11
669.12	49.15
669.26	37.45
669.40	0.00
669.54	65.54
669.68	79.58
669.82	91.28
669.96	58.51
670.10	95.96
670.25	102.98
670.39	60.85
670.53	16.38
670.67	32.77
670.81	23.41
670.95	67.88
671.09	18.72
671.23	32.77
671.37	84.26
671.51	102.98
671.65	0.00
671.79	37.45
671.93	81.92
672.07	32.77
672.21	88.94
672.35	30.43
672.49	65.54
672.63	46.81
672.77	42.13
672.91	0.00
673.05	35.11
673.19	84.26
673.33	0.00
673.47	56.17
673.61	21.06
673.75	91.28
673.89	0.00
674.03	102.98
674.17	18.72
674.31	84.26
674.45	56.17
674.59	105.32
674.73	114.69
674.87	11.70
675.01	0.00
675.15	42.13
675.29	86.60
675.43	51.49
675.56	0.00
675.70	56.17
675.84	77.24
675.98	39.79
676.12	51.49
676.26	70.22
676.40	159.16
676.54	105.32
676.68	107.66
676.82	4.68
676.96	7.02
677.10	72.56
677.23	25.75
677.37	56.17
677.51	0.00
677.65	53.83
677.79	30.43
677.93	51.49
678.07	65.54
678.21	86.60
678.34	70.22
678.48	49.15
678.62	56.17
678.76	77.24
678.90	81.92
679.04	93.62
679.18	21.06
679.31	0.00
679.45	100.64
679.59	58.51
679.73	30.43
679.87	65.54
680.00	0.00
680.14	56.17
680.28	114.69
680.42	18.72
680.56	46.81
680.70	79.58
680.83	67.88
680.97	56.17
681.11	2.34
681.25	42.13
681.39	58.51
681.52	119.37
681.66	91.28
681.80	60.85
681.94	105.32
682.07	11.70
682.21	44.47
682.35	100.64
682.49	0.00
682.62	74.90
682.76	74.90
682.90	25.75
683.04	65.54
683.17	126.39
683.31	91.28
683.45	16.38
683.59	58.51
683.72	81.92
683.86	32.77
684.00	51.49
684.13	0.00
684.27	46.81
684.41	67.88
684.55	49.15
684.68	70.22
684.82	0.00
684.96	60.85
685.09	11.70
685.23	98.30
685.37	72.56
685.50	51.49
685.64	117.03
685.78	46.81
685.91	42.13
686.05	0.00
686.19	119.37
686.32	16.38
686.46	70.22
686.60	100.64
686.73	0.00
686.87	63.19
687.01	23.41
687.14	53.83
687.28	28.09
687.42	0.00
687.55	0.00
687.69	51.49
687.82	0.00
687.96	16.38
688.10	23.41
688.23	119.37
688.37	79.58
688.50	4.68
688.64	2.34
688.78	65.54
688.91	42.13
689.05	21.06
689.18	63.19
689.32	131.07
689.46	37.45
689.59	0.00
689.73	74.90
689.86	0.00
690.00	16.38
690.13	74.90
690.27	46.81
690.41	0.00
690.54	79.58
690.68	37.45
690.81	32.77
690.95	21.06
691.08	37.45
691.22	4.68
691.35	25.75
691.49	67.88
691.62	58.51
691.76	98.30
691.89	16.38
692.03	98.30
692.16	0.00
692.30	86.60
692.43	100.64
692.57	39.79
692.70	0.00
692.84	42.13
692.97	0.00
693.11	0.00
693.24	131.07
693.38	46.81
693.51	30.43
693.65	30.43
693.78	39.79
693.92	49.15
694.05	110.01
694.19	35.11
694.32	114.69
694.45	28.09
694.59	93.62
694.72	0.00
694.86	100.64
694.99	7.02
695.13	21.06
695.26	25.75
695.39	42.13
695.53	138.09
695.66	0.00
695.80	18.72
695.93	37.45
696.07	37.45
696.20	121.71
696.33	49.15
696.47	4.68
696.60	23.41
696.73	77.24
696.87	84.26
697.00	46.81
697.14	16.38
697.27	0.00
697.40	49.15
697.54	32.77
697.67	0.00
697.80	112.35
697.94	0.00
698.07	35.11
698.21	107.66
698.34	11.70
698.47	58.51
698.61	49.15
698.74	14.04
698.87	11.70
699.01	23.41
699.14	72.56
699.27	0.00
699.40	21.06
699.54	77.24
699.67	37.45
699.80	9.36
699.94	46.81
700.07	23.41
700.20	28.09
700.34	65.54
700.47	86.60
700.60	58.51
700.73	81.92
700.87	30.43
701.00	0.00
701.13	35.11
701.26	63.19
701.40	44.47
701.53	67.88
701.66	65.54
701.79	60.85
701.93	0.00
702.06	18.72
702.19	60.85
702.32	131.07
702.46	0.00
702.59	16.38
702.72	39.79
702.85	58.51
702.99	0.00
703.12	98.30
703.25	56.17
703.38	56.17
703.51	28.09
703.65	35.11
703.78	100.64
703.91	37.45
704.04	79.58
704.17	23.41
704.31	28.09
704.44	60.85
704.57	0.00
704.70	42.13
704.83	0.00
704.96	0.00
705.10	77.24
705.23	21.06
>>>>>End Processed Spectral Data<<<<<
