SpectraSuite Data File
++++++++++++++++++++++++++++++++++++
Date: Fri Oct 04 12:13:40 GMT-05:00 2013
User: price-jones
Dark Spectrum Present: No
Reference Spectrum Present: No
Number of Sampled Component Spectra: 1
Spectrometers: USB2+H05261
Integration Time (usec): 10000 (USB2+H05261)
Spectra Averaged: 1 (USB2+H05261)
Boxcar Smoothing: 0 (USB2+H05261)
Correct for Electrical Dark: No (USB2+H05261)
Strobe/Lamp Enabled: No (USB2+H05261)
Correct for Detector Non-linearity: No (USB2+H05261)
Correct for Stray Light: No (USB2+H05261)
Number of Pixels in Processed Spectrum: 2048
>>>>>Begin Processed Spectral Data<<<<<
365.73	0.00
365.92	0.00
366.12	0.00
366.32	0.00
366.52	0.00
366.72	0.00
366.91	0.00
367.11	0.00
367.31	0.00
367.51	0.00
367.70	0.00
367.90	0.00
368.10	0.00
368.30	0.00
368.49	0.00
368.69	0.00
368.89	0.00
369.09	0.00
369.28	0.00
369.48	0.00
369.68	0.00
369.87	0.00
370.07	0.00
370.27	0.00
370.47	0.00
370.66	0.00
370.86	0.00
371.06	0.00
371.25	0.00
371.45	46.81
371.65	0.00
371.84	0.00
372.04	0.00
372.24	0.00
372.44	0.00
372.63	35.11
372.83	0.00
373.03	37.45
373.22	0.00
373.42	53.83
373.62	35.11
373.81	16.38
374.01	16.38
374.21	42.13
374.40	2.34
374.60	72.56
374.79	28.09
374.99	46.81
375.19	32.77
375.38	0.00
375.58	49.15
375.78	86.60
375.97	53.83
376.17	67.88
376.37	9.36
376.56	9.36
376.76	0.00
376.95	35.11
377.15	84.26
377.35	58.51
377.54	67.88
377.74	110.01
377.93	0.00
378.13	0.00
378.33	0.00
378.52	25.75
378.72	0.00
378.91	4.68
379.11	9.36
379.31	7.02
379.50	18.72
379.70	42.13
379.89	0.00
380.09	32.77
380.28	0.00
380.48	0.00
380.68	39.79
380.87	72.56
381.07	39.79
381.26	44.47
381.46	25.75
381.65	46.81
381.85	46.81
382.04	7.02
382.24	72.56
382.43	51.49
382.63	21.06
382.83	16.38
383.02	11.70
383.22	49.15
383.41	0.00
383.61	51.49
383.80	0.00
384.00	0.00
384.19	46.81
384.39	0.00
384.58	37.45
384.78	23.41
384.97	30.43
385.17	77.24
385.36	46.81
385.56	0.00
385.75	23.41
385.95	0.00
386.14	28.09
386.34	63.19
386.53	46.81
386.72	0.00
386.92	79.58
387.11	67.88
387.31	14.04
387.50	0.00
387.70	0.00
387.89	37.45
388.09	2.34
388.28	56.17
388.48	0.00
388.67	0.00
388.86	14.04
389.06	11.70
389.25	14.04
389.45	9.36
389.64	58.51
389.84	0.00
390.03	0.00
390.22	28.09
390.42	0.00
390.61	28.09
390.81	16.38
391.00	46.81
391.19	42.13
391.39	14.04
391.58	7.02
391.78	0.00
391.97	51.49
392.16	0.00
392.36	110.01
392.55	0.00
392.75	25.75
392.94	0.00
393.13	37.45
393.33	72.56
393.52	14.04
393.71	0.00
393.91	46.81
394.10	105.32
394.29	0.00
394.49	0.00
394.68	102.98
394.88	42.13
395.07	95.96
395.26	16.38
395.46	16.38
395.65	30.43
395.84	0.00
396.04	11.70
396.23	53.83
396.42	0.00
396.62	0.00
396.81	32.77
397.00	0.00
397.19	0.00
397.39	14.04
397.58	0.00
397.77	0.00
397.97	9.36
398.16	0.00
398.35	0.00
398.55	4.68
398.74	35.11
398.93	18.72
399.12	0.00
399.32	93.62
399.51	0.00
399.70	0.00
399.90	0.00
400.09	16.38
400.28	0.00
400.47	21.06
400.67	0.00
400.86	77.24
401.05	21.06
401.24	70.22
401.44	16.38
401.63	37.45
401.82	0.00
402.01	32.77
402.21	30.43
402.40	114.69
402.59	16.38
402.78	63.19
402.97	0.00
403.17	46.81
403.36	0.00
403.55	0.00
403.74	18.72
403.93	11.70
404.13	0.00
404.32	53.83
404.51	28.09
404.70	49.15
404.89	21.06
405.09	14.04
405.28	2.34
405.47	102.98
405.66	21.06
405.85	42.13
406.05	0.00
406.24	23.41
406.43	14.04
406.62	42.13
406.81	42.13
407.00	86.60
407.20	32.77
407.39	14.04
407.58	0.00
407.77	0.00
407.96	30.43
408.15	0.00
408.34	28.09
408.54	30.43
408.73	56.17
408.92	100.64
409.11	49.15
409.30	37.45
409.49	0.00
409.68	70.22
409.87	9.36
410.07	0.00
410.26	65.54
410.45	0.00
410.64	49.15
410.83	0.00
411.02	63.19
411.21	72.56
411.40	0.00
411.59	0.00
411.78	14.04
411.98	14.04
412.17	7.02
412.36	0.00
412.55	25.75
412.74	74.90
412.93	4.68
413.12	74.90
413.31	77.24
413.50	51.49
413.69	67.88
413.88	25.75
414.07	49.15
414.26	46.81
414.45	0.00
414.64	37.45
414.83	74.90
415.02	37.45
415.22	21.06
415.41	49.15
415.60	25.75
415.79	93.62
415.98	58.51
416.17	49.15
416.36	18.72
416.55	35.11
416.74	0.00
416.93	37.45
417.12	88.94
417.31	25.75
417.50	49.15
417.69	88.94
417.88	98.30
418.07	0.00
418.26	14.04
418.45	81.92
418.64	42.13
418.83	74.90
419.02	72.56
419.21	30.43
419.39	98.30
419.58	2.34
419.77	7.02
419.96	18.72
420.15	16.38
420.34	51.49
420.53	0.00
420.72	0.00
420.91	86.60
421.10	53.83
421.29	98.30
421.48	4.68
421.67	70.22
421.86	28.09
422.05	0.00
422.24	79.58
422.43	42.13
422.61	18.72
422.80	102.98
422.99	25.75
423.18	0.00
423.37	67.88
423.56	0.00
423.75	16.38
423.94	23.41
424.13	14.04
424.32	0.00
424.50	42.13
424.69	9.36
424.88	32.77
425.07	51.49
425.26	37.45
425.45	72.56
425.64	0.00
425.83	18.72
426.01	65.54
426.20	67.88
426.39	70.22
426.58	16.38
426.77	51.49
426.96	30.43
427.15	53.83
427.33	102.98
427.52	25.75
427.71	60.85
427.90	98.30
428.09	102.98
428.28	37.45
428.46	49.15
428.65	23.41
428.84	53.83
429.03	65.54
429.22	16.38
429.40	42.13
429.59	0.00
429.78	42.13
429.97	32.77
430.16	0.00
430.34	0.00
430.53	0.00
430.72	49.15
430.91	112.35
431.10	72.56
431.28	30.43
431.47	88.94
431.66	56.17
431.85	65.54
432.03	58.51
432.22	91.28
432.41	81.92
432.60	42.13
432.79	21.06
432.97	0.00
433.16	117.03
433.35	23.41
433.54	0.00
433.72	67.88
433.91	44.47
434.10	53.83
434.28	0.00
434.47	0.00
434.66	42.13
434.85	77.24
435.03	63.19
435.22	65.54
435.41	86.60
435.59	79.58
435.78	58.51
435.97	49.15
436.16	70.22
436.34	21.06
436.53	49.15
436.72	79.58
436.90	77.24
437.09	105.32
437.28	0.00
437.46	81.92
437.65	18.72
437.84	16.38
438.02	63.19
438.21	77.24
438.40	39.79
438.58	98.30
438.77	9.36
438.96	107.66
439.14	16.38
439.33	0.00
439.52	65.54
439.70	88.94
439.89	23.41
440.08	46.81
440.26	65.54
440.45	37.45
440.63	107.66
440.82	105.32
441.01	42.13
441.19	88.94
441.38	72.56
441.57	16.38
441.75	119.37
441.94	46.81
442.12	0.00
442.31	74.90
442.50	95.96
442.68	23.41
442.87	0.00
443.05	35.11
443.24	18.72
443.43	46.81
443.61	32.77
443.80	46.81
443.98	121.71
444.17	86.60
444.35	30.43
444.54	2.34
444.73	102.98
444.91	67.88
445.10	42.13
445.28	60.85
445.47	67.88
445.65	0.00
445.84	30.43
446.02	0.00
446.21	58.51
446.39	53.83
446.58	105.32
446.77	23.41
446.95	9.36
447.14	88.94
447.32	0.00
447.51	112.35
447.69	44.47
447.88	0.00
448.06	39.79
448.25	0.00
448.43	124.05
448.62	7.02
448.80	56.17
448.99	21.06
449.17	0.00
449.36	44.47
449.54	110.01
449.73	88.94
449.91	93.62
450.10	79.58
450.28	124.05
450.46	102.98
450.65	25.75
450.83	56.17
451.02	84.26
451.20	53.83
451.39	14.04
451.57	67.88
451.76	30.43
451.94	32.77
452.13	135.75
452.31	0.00
452.49	14.04
452.68	25.75
452.86	30.43
453.05	30.43
453.23	72.56
453.42	53.83
453.60	56.17
453.78	23.41
453.97	63.19
454.15	28.09
454.34	58.51
454.52	63.19
454.70	86.60
454.89	42.13
455.07	88.94
455.26	100.64
455.44	46.81
455.62	35.11
455.81	81.92
455.99	16.38
456.17	95.96
456.36	4.68
456.54	126.39
456.73	30.43
456.91	88.94
457.09	72.56
457.28	74.90
457.46	30.43
457.64	42.13
457.83	60.85
458.01	121.71
458.19	9.36
458.38	14.04
458.56	49.15
458.74	112.35
458.93	0.00
459.11	14.04
459.29	102.98
459.48	44.47
459.66	72.56
459.84	100.64
460.03	63.19
460.21	74.90
460.39	95.96
460.57	131.07
460.76	60.85
460.94	98.30
461.12	100.64
461.31	140.43
461.49	60.85
461.67	25.75
461.85	86.60
462.04	67.88
462.22	81.92
462.40	4.68
462.59	86.60
462.77	56.17
462.95	14.04
463.13	77.24
463.32	81.92
463.50	44.47
463.68	117.03
463.86	0.00
464.05	32.77
464.23	0.00
464.41	65.54
464.59	4.68
464.78	14.04
464.96	25.75
465.14	86.60
465.32	72.56
465.50	0.00
465.69	37.45
465.87	91.28
466.05	0.00
466.23	119.37
466.41	44.47
466.60	16.38
466.78	84.26
466.96	70.22
467.14	135.75
467.32	86.60
467.51	53.83
467.69	91.28
467.87	65.54
468.05	35.11
468.23	4.68
468.41	0.00
468.60	0.00
468.78	23.41
468.96	67.88
469.14	46.81
469.32	124.05
469.50	72.56
469.69	0.00
469.87	42.13
470.05	81.92
470.23	79.58
470.41	49.15
470.59	77.24
470.77	37.45
470.95	84.26
471.14	63.19
471.32	14.04
471.50	44.47
471.68	79.58
471.86	58.51
472.04	44.47
472.22	28.09
472.40	53.83
472.58	18.72
472.77	49.15
472.95	63.19
473.13	93.62
473.31	21.06
473.49	65.54
473.67	60.85
473.85	23.41
474.03	42.13
474.21	35.11
474.39	53.83
474.57	11.70
474.75	0.00
474.93	18.72
475.12	35.11
475.30	67.88
475.48	0.00
475.66	49.15
475.84	70.22
476.02	70.22
476.20	102.98
476.38	100.64
476.56	28.09
476.74	70.22
476.92	95.96
477.10	81.92
477.28	95.96
477.46	0.00
477.64	98.30
477.82	39.79
478.00	23.41
478.18	86.60
478.36	98.30
478.54	74.90
478.72	84.26
478.90	121.71
479.08	126.39
479.26	121.71
479.44	49.15
479.62	67.88
479.80	67.88
479.98	0.00
480.16	23.41
480.34	114.69
480.52	67.88
480.70	91.28
480.88	98.30
481.06	98.30
481.24	110.01
481.41	77.24
481.59	46.81
481.77	112.35
481.95	86.60
482.13	42.13
482.31	2.34
482.49	42.13
482.67	42.13
482.85	16.38
483.03	56.17
483.21	39.79
483.39	49.15
483.57	35.11
483.74	44.47
483.92	51.49
484.10	100.64
484.28	56.17
484.46	79.58
484.64	93.62
484.82	35.11
485.00	81.92
485.18	51.49
485.35	128.73
485.53	56.17
485.71	70.22
485.89	11.70
486.07	121.71
486.25	16.38
486.43	88.94
486.61	58.51
486.78	140.43
486.96	53.83
487.14	70.22
487.32	131.07
487.50	91.28
487.68	88.94
487.85	102.98
488.03	42.13
488.21	58.51
488.39	58.51
488.57	63.19
488.75	72.56
488.92	100.64
489.10	46.81
489.28	84.26
489.46	72.56
489.64	16.38
489.81	105.32
489.99	65.54
490.17	182.56
490.35	107.66
490.53	128.73
490.70	98.30
490.88	65.54
491.06	51.49
491.24	117.03
491.41	124.05
491.59	107.66
491.77	39.79
491.95	0.00
492.13	105.32
492.30	70.22
492.48	44.47
492.66	37.45
492.84	107.66
493.01	91.28
493.19	9.36
493.37	18.72
493.54	51.49
493.72	74.90
493.90	23.41
494.08	65.54
494.25	58.51
494.43	117.03
494.61	77.24
494.79	46.81
494.96	14.04
495.14	9.36
495.32	74.90
495.49	60.85
495.67	102.98
495.85	77.24
496.02	102.98
496.20	74.90
496.38	58.51
496.55	84.26
496.73	142.77
496.91	102.98
497.09	58.51
497.26	102.98
497.44	124.05
497.62	95.96
497.79	32.77
497.97	49.15
498.14	117.03
498.32	4.68
498.50	142.77
498.67	49.15
498.85	46.81
499.03	11.70
499.20	63.19
499.38	98.30
499.56	74.90
499.73	88.94
499.91	138.09
500.08	133.41
500.26	152.13
500.44	93.62
500.61	100.64
500.79	79.58
500.97	25.75
501.14	77.24
501.32	114.69
501.49	18.72
501.67	60.85
501.84	121.71
502.02	107.66
502.20	58.51
502.37	70.22
502.55	74.90
502.72	105.32
502.90	110.01
503.07	16.38
503.25	4.68
503.43	9.36
503.60	81.92
503.78	70.22
503.95	105.32
504.13	100.64
504.30	107.66
504.48	18.72
504.65	60.85
504.83	114.69
505.01	72.56
505.18	107.66
505.36	42.13
505.53	102.98
505.71	65.54
505.88	91.28
506.06	81.92
506.23	56.17
506.41	4.68
506.58	131.07
506.76	72.56
506.93	65.54
507.11	124.05
507.28	51.49
507.46	100.64
507.63	51.49
507.81	133.41
507.98	67.88
508.16	128.73
508.33	131.07
508.50	70.22
508.68	46.81
508.85	67.88
509.03	46.81
509.20	121.71
509.38	110.01
509.55	81.92
509.73	86.60
509.90	72.56
510.08	58.51
510.25	110.01
510.42	147.45
510.60	100.64
510.77	63.19
510.95	110.01
511.12	133.41
511.30	84.26
511.47	42.13
511.64	42.13
511.82	67.88
511.99	81.92
512.17	95.96
512.34	121.71
512.51	95.96
512.69	49.15
512.86	88.94
513.04	112.35
513.21	79.58
513.38	60.85
513.56	35.11
513.73	65.54
513.90	84.26
514.08	102.98
514.25	105.32
514.43	135.75
514.60	180.22
514.77	124.05
514.95	65.54
515.12	51.49
515.29	102.98
515.47	60.85
515.64	159.16
515.81	135.75
515.99	91.28
516.16	88.94
516.33	140.43
516.51	56.17
516.68	58.51
516.85	11.70
517.03	74.90
517.20	100.64
517.37	93.62
517.54	114.69
517.72	112.35
517.89	56.17
518.06	63.19
518.24	168.52
518.41	0.00
518.58	107.66
518.75	124.05
518.93	102.98
519.10	124.05
519.27	105.32
519.45	86.60
519.62	72.56
519.79	25.75
519.96	49.15
520.14	67.88
520.31	84.26
520.48	117.03
520.65	79.58
520.83	0.00
521.00	74.90
521.17	81.92
521.34	72.56
521.52	44.47
521.69	133.41
521.86	91.28
522.03	37.45
522.20	72.56
522.38	114.69
522.55	133.41
522.72	107.66
522.89	107.66
523.07	60.85
523.24	117.03
523.41	25.75
523.58	100.64
523.75	49.15
523.92	145.11
524.10	124.05
524.27	65.54
524.44	156.82
524.61	49.15
524.78	135.75
524.96	72.56
525.13	30.43
525.30	65.54
525.47	58.51
525.64	145.11
525.81	140.43
525.98	124.05
526.16	156.82
526.33	46.81
526.50	60.85
526.67	86.60
526.84	81.92
527.01	88.94
527.18	84.26
527.36	42.13
527.53	70.22
527.70	93.62
527.87	110.01
528.04	138.09
528.21	112.35
528.38	88.94
528.55	121.71
528.72	51.49
528.89	30.43
529.07	114.69
529.24	81.92
529.41	30.43
529.58	67.88
529.75	77.24
529.92	79.58
530.09	121.71
530.26	63.19
530.43	117.03
530.60	105.32
530.77	51.49
530.94	147.45
531.11	56.17
531.28	79.58
531.46	53.83
531.63	35.11
531.80	60.85
531.97	86.60
532.14	49.15
532.31	84.26
532.48	107.66
532.65	121.71
532.82	46.81
532.99	53.83
533.16	46.81
533.33	32.77
533.50	37.45
533.67	112.35
533.84	74.90
534.01	95.96
534.18	133.41
534.35	56.17
534.52	124.05
534.69	88.94
534.86	177.88
535.03	95.96
535.20	42.13
535.37	67.88
535.54	58.51
535.71	60.85
535.88	60.85
536.05	93.62
536.22	63.19
536.38	58.51
536.55	102.98
536.72	0.00
536.89	84.26
537.06	81.92
537.23	77.24
537.40	53.83
537.57	86.60
537.74	9.36
537.91	84.26
538.08	98.30
538.25	91.28
538.42	117.03
538.59	56.17
538.75	70.22
538.92	70.22
539.09	105.32
539.26	35.11
539.43	65.54
539.60	77.24
539.77	51.49
539.94	95.96
540.11	74.90
540.28	81.92
540.44	77.24
540.61	53.83
540.78	79.58
540.95	119.37
541.12	128.73
541.29	70.22
541.46	95.96
541.62	46.81
541.79	79.58
541.96	86.60
542.13	58.51
542.30	93.62
542.47	166.18
542.63	88.94
542.80	131.07
542.97	126.39
543.14	114.69
543.31	67.88
543.48	166.18
543.64	88.94
543.81	93.62
543.98	74.90
544.15	53.83
544.32	110.01
544.48	184.90
544.65	117.03
544.82	70.22
544.99	65.54
545.16	74.90
545.32	72.56
545.49	60.85
545.66	142.77
545.83	79.58
546.00	42.13
546.16	70.22
546.33	32.77
546.50	91.28
546.67	105.32
546.83	67.88
547.00	70.22
547.17	44.47
547.34	102.98
547.50	154.48
547.67	128.73
547.84	39.79
548.00	100.64
548.17	86.60
548.34	84.26
548.51	14.04
548.67	77.24
548.84	32.77
549.01	53.83
549.18	114.69
549.34	88.94
549.51	117.03
549.68	63.19
549.84	191.92
550.01	88.94
550.18	100.64
550.34	60.85
550.51	93.62
550.68	63.19
550.84	131.07
551.01	77.24
551.18	117.03
551.34	152.13
551.51	102.98
551.68	42.13
551.84	32.77
552.01	77.24
552.18	112.35
552.34	67.88
552.51	84.26
552.68	28.09
552.84	74.90
553.01	98.30
553.18	93.62
553.34	84.26
553.51	9.36
553.67	74.90
553.84	46.81
554.01	91.28
554.17	119.37
554.34	79.58
554.51	161.50
554.67	51.49
554.84	86.60
555.00	25.75
555.17	58.51
555.33	93.62
555.50	147.45
555.67	135.75
555.83	30.43
556.00	88.94
556.16	88.94
556.33	86.60
556.50	100.64
556.66	51.49
556.83	37.45
556.99	86.60
557.16	117.03
557.32	81.92
557.49	46.81
557.65	114.69
557.82	95.96
557.98	51.49
558.15	37.45
558.32	49.15
558.48	98.30
558.65	156.82
558.81	84.26
558.98	25.75
559.14	149.79
559.31	149.79
559.47	77.24
559.64	51.49
559.80	95.96
559.97	114.69
560.13	0.00
560.30	149.79
560.46	86.60
560.63	121.71
560.79	79.58
560.96	65.54
561.12	107.66
561.29	102.98
561.45	145.11
561.61	110.01
561.78	56.17
561.94	100.64
562.11	98.30
562.27	128.73
562.44	100.64
562.60	98.30
562.77	35.11
562.93	102.98
563.10	98.30
563.26	60.85
563.42	86.60
563.59	138.09
563.75	65.54
563.92	84.26
564.08	112.35
564.24	58.51
564.41	100.64
564.57	18.72
564.74	74.90
564.90	23.41
565.07	107.66
565.23	67.88
565.39	161.50
565.56	67.88
565.72	163.84
565.88	67.88
566.05	25.75
566.21	53.83
566.38	42.13
566.54	60.85
566.70	112.35
566.87	187.24
567.03	105.32
567.19	117.03
567.36	138.09
567.52	60.85
567.68	105.32
567.85	18.72
568.01	128.73
568.17	189.58
568.34	35.11
568.50	110.01
568.66	44.47
568.83	51.49
568.99	91.28
569.15	79.58
569.32	117.03
569.48	72.56
569.64	131.07
569.81	91.28
569.97	81.92
570.13	49.15
570.30	56.17
570.46	2.34
570.62	95.96
570.78	138.09
570.95	110.01
571.11	95.96
571.27	102.98
571.43	35.11
571.60	60.85
571.76	51.49
571.92	147.45
572.09	86.60
572.25	74.90
572.41	51.49
572.57	128.73
572.74	100.64
572.90	60.85
573.06	42.13
573.22	42.13
573.38	159.16
573.55	133.41
573.71	81.92
573.87	128.73
574.03	72.56
574.20	102.98
574.36	79.58
574.52	58.51
574.68	49.15
574.84	72.56
575.01	65.54
575.17	70.22
575.33	67.88
575.49	67.88
575.65	53.83
575.82	16.38
575.98	93.62
576.14	112.35
576.30	168.52
576.46	25.75
576.62	63.19
576.79	32.77
576.95	0.00
577.11	102.98
577.27	173.20
577.43	44.47
577.59	70.22
577.75	53.83
577.92	70.22
578.08	88.94
578.24	32.77
578.40	37.45
578.56	16.38
578.72	53.83
578.88	95.96
579.04	107.66
579.21	42.13
579.37	63.19
579.53	126.39
579.69	81.92
579.85	98.30
580.01	114.69
580.17	145.11
580.33	79.58
580.49	49.15
580.65	131.07
580.82	98.30
580.98	74.90
581.14	88.94
581.30	93.62
581.46	58.51
581.62	44.47
581.78	142.77
581.94	95.96
582.10	95.96
582.26	107.66
582.42	74.90
582.58	67.88
582.74	72.56
582.90	91.28
583.06	67.88
583.22	91.28
583.38	81.92
583.54	46.81
583.70	39.79
583.86	72.56
584.02	39.79
584.18	124.05
584.34	98.30
584.50	39.79
584.66	102.98
584.82	88.94
584.98	86.60
585.14	124.05
585.30	67.88
585.46	105.32
585.62	58.51
585.78	23.41
585.94	60.85
586.10	126.39
586.26	37.45
586.42	138.09
586.58	102.98
586.74	79.58
586.90	63.19
587.06	53.83
587.22	53.83
587.38	23.41
587.54	56.17
587.70	95.96
587.86	72.56
588.02	30.43
588.18	77.24
588.34	107.66
588.49	46.81
588.65	44.47
588.81	39.79
588.97	42.13
589.13	28.09
589.29	37.45
589.45	28.09
589.61	16.38
589.77	91.28
589.93	37.45
590.08	70.22
590.24	9.36
590.40	42.13
590.56	58.51
590.72	63.19
590.88	65.54
591.04	70.22
591.20	28.09
591.35	0.00
591.51	63.19
591.67	110.01
591.83	100.64
591.99	11.70
592.15	42.13
592.31	77.24
592.46	49.15
592.62	121.71
592.78	42.13
592.94	77.24
593.10	65.54
593.26	79.58
593.41	105.32
593.57	91.28
593.73	77.24
593.89	77.24
594.05	77.24
594.20	42.13
594.36	93.62
594.52	0.00
594.68	58.51
594.84	152.13
594.99	30.43
595.15	49.15
595.31	32.77
595.47	39.79
595.62	133.41
595.78	65.54
595.94	51.49
596.10	44.47
596.25	77.24
596.41	53.83
596.57	0.00
596.73	112.35
596.88	4.68
597.04	135.75
597.20	46.81
597.36	11.70
597.51	37.45
597.67	110.01
597.83	49.15
597.99	67.88
598.14	112.35
598.30	133.41
598.46	95.96
598.61	88.94
598.77	102.98
598.93	39.79
599.09	0.00
599.24	79.58
599.40	74.90
599.56	84.26
599.71	0.00
599.87	67.88
600.03	63.19
600.18	124.05
600.34	74.90
600.50	28.09
600.65	51.49
600.81	84.26
600.97	81.92
601.12	70.22
601.28	100.64
601.44	91.28
601.59	2.34
601.75	105.32
601.91	91.28
602.06	72.56
602.22	79.58
602.37	77.24
602.53	81.92
602.69	128.73
602.84	110.01
603.00	35.11
603.16	84.26
603.31	2.34
603.47	124.05
603.62	49.15
603.78	46.81
603.94	67.88
604.09	49.15
604.25	91.28
604.40	152.13
604.56	25.75
604.71	42.13
604.87	117.03
605.03	39.79
605.18	81.92
605.34	72.56
605.49	102.98
605.65	46.81
605.80	72.56
605.96	28.09
606.12	93.62
606.27	93.62
606.43	91.28
606.58	32.77
606.74	95.96
606.89	133.41
607.05	67.88
607.20	149.79
607.36	79.58
607.51	42.13
607.67	32.77
607.82	67.88
607.98	81.92
608.13	131.07
608.29	105.32
608.44	91.28
608.60	117.03
608.75	67.88
608.91	72.56
609.06	105.32
609.22	30.43
609.37	21.06
609.53	121.71
609.68	65.54
609.84	51.49
609.99	100.64
610.15	21.06
610.30	110.01
610.46	100.64
610.61	14.04
610.76	0.00
610.92	60.85
611.07	49.15
611.23	126.39
611.38	72.56
611.54	67.88
611.69	18.72
611.84	91.28
612.00	170.86
612.15	84.26
612.31	30.43
612.46	60.85
612.62	63.19
612.77	98.30
612.92	81.92
613.08	0.00
613.23	133.41
613.39	65.54
613.54	77.24
613.69	102.98
613.85	114.69
614.00	65.54
614.15	37.45
614.31	72.56
614.46	67.88
614.62	98.30
614.77	74.90
614.92	100.64
615.08	91.28
615.23	140.43
615.38	49.15
615.54	65.54
615.69	93.62
615.84	128.73
616.00	42.13
616.15	72.56
616.30	98.30
616.46	107.66
616.61	23.41
616.76	0.00
616.92	79.58
617.07	77.24
617.22	88.94
617.37	77.24
617.53	140.43
617.68	56.17
617.83	53.83
617.99	56.17
618.14	102.98
618.29	0.00
618.45	53.83
618.60	74.90
618.75	74.90
618.90	131.07
619.06	14.04
619.21	65.54
619.36	84.26
619.51	84.26
619.67	7.02
619.82	77.24
619.97	30.43
620.12	102.98
620.28	49.15
620.43	128.73
620.58	51.49
620.73	77.24
620.89	84.26
621.04	0.00
621.19	0.00
621.34	63.19
621.49	49.15
621.65	30.43
621.80	131.07
621.95	81.92
622.10	74.90
622.25	93.62
622.41	117.03
622.56	21.06
622.71	81.92
622.86	25.75
623.01	79.58
623.16	117.03
623.32	51.49
623.47	72.56
623.62	44.47
623.77	79.58
623.92	98.30
624.07	74.90
624.23	119.37
624.38	72.56
624.53	18.72
624.68	46.81
624.83	53.83
624.98	72.56
625.13	65.54
625.29	98.30
625.44	107.66
625.59	58.51
625.74	98.30
625.89	98.30
626.04	28.09
626.19	149.79
626.34	102.98
626.49	126.39
626.65	53.83
626.80	58.51
626.95	81.92
627.10	67.88
627.25	60.85
627.40	42.13
627.55	18.72
627.70	72.56
627.85	51.49
628.00	28.09
628.15	70.22
628.30	67.88
628.45	0.00
628.60	121.71
628.76	0.00
628.91	91.28
629.06	42.13
629.21	98.30
629.36	0.00
629.51	72.56
629.66	21.06
629.81	37.45
629.96	0.00
630.11	42.13
630.26	86.60
630.41	21.06
630.56	7.02
630.71	95.96
630.86	7.02
631.01	51.49
631.16	77.24
631.31	107.66
631.46	86.60
631.61	39.79
631.76	95.96
631.91	77.24
632.06	72.56
632.21	84.26
632.36	65.54
632.51	88.94
632.66	46.81
632.81	88.94
632.96	0.00
633.10	74.90
633.25	56.17
633.40	91.28
633.55	63.19
633.70	84.26
633.85	32.77
634.00	79.58
634.15	18.72
634.30	49.15
634.45	84.26
634.60	25.75
634.75	2.34
634.90	91.28
635.05	79.58
635.19	70.22
635.34	156.82
635.49	53.83
635.64	67.88
635.79	51.49
635.94	60.85
636.09	4.68
636.24	0.00
636.39	11.70
636.53	74.90
636.68	114.69
636.83	25.75
636.98	23.41
637.13	91.28
637.28	79.58
637.43	95.96
637.57	42.13
637.72	91.28
637.87	65.54
638.02	28.09
638.17	67.88
638.32	91.28
638.46	79.58
638.61	39.79
638.76	79.58
638.91	84.26
639.06	93.62
639.20	119.37
639.35	32.77
639.50	35.11
639.65	93.62
639.80	32.77
639.94	32.77
640.09	110.01
640.24	126.39
640.39	0.00
640.54	67.88
640.68	39.79
640.83	107.66
640.98	77.24
641.13	98.30
641.27	53.83
641.42	79.58
641.57	81.92
641.72	56.17
641.86	72.56
642.01	142.77
642.16	63.19
642.31	0.00
642.45	100.64
642.60	79.58
642.75	51.49
642.90	63.19
643.04	35.11
643.19	102.98
643.34	65.54
643.48	100.64
643.63	65.54
643.78	56.17
643.93	86.60
644.07	18.72
644.22	16.38
644.37	0.00
644.51	70.22
644.66	2.34
644.81	0.00
644.95	28.09
645.10	18.72
645.25	42.13
645.39	84.26
645.54	35.11
645.69	63.19
645.83	32.77
645.98	16.38
646.13	42.13
646.27	98.30
646.42	37.45
646.57	88.94
646.71	11.70
646.86	91.28
647.00	102.98
647.15	56.17
647.30	46.81
647.44	84.26
647.59	77.24
647.74	65.54
647.88	93.62
648.03	84.26
648.17	72.56
648.32	16.38
648.47	86.60
648.61	51.49
648.76	39.79
648.90	79.58
649.05	91.28
649.20	37.45
649.34	79.58
649.49	14.04
649.63	0.00
649.78	4.68
649.92	51.49
650.07	86.60
650.21	88.94
650.36	49.15
650.51	0.00
650.65	44.47
650.80	81.92
650.94	63.19
651.09	30.43
651.23	0.00
651.38	74.90
651.52	21.06
651.67	25.75
651.81	77.24
651.96	49.15
652.10	0.00
652.25	16.38
652.39	42.13
652.54	18.72
652.68	77.24
652.83	56.17
652.97	51.49
653.12	0.00
653.26	35.11
653.41	105.32
653.55	39.79
653.70	72.56
653.84	7.02
653.99	51.49
654.13	77.24
654.27	63.19
654.42	16.38
654.56	44.47
654.71	121.71
654.85	7.02
655.00	42.13
655.14	65.54
655.29	65.54
655.43	60.85
655.57	72.56
655.72	65.54
655.86	56.17
656.01	11.70
656.15	7.02
656.30	44.47
656.44	30.43
656.58	53.83
656.73	0.00
656.87	65.54
657.01	4.68
657.16	93.62
657.30	53.83
657.45	98.30
657.59	138.09
657.73	30.43
657.88	72.56
658.02	56.17
658.16	70.22
658.31	84.26
658.45	28.09
658.60	60.85
658.74	0.00
658.88	21.06
659.03	35.11
659.17	56.17
659.31	91.28
659.46	9.36
659.60	0.00
659.74	86.60
659.89	32.77
660.03	65.54
660.17	74.90
660.32	51.49
660.46	91.28
660.60	0.00
660.74	44.47
660.89	30.43
661.03	14.04
661.17	74.90
661.32	88.94
661.46	81.92
661.60	44.47
661.74	0.00
661.89	0.00
662.03	81.92
662.17	0.00
662.31	56.17
662.46	21.06
662.60	56.17
662.74	37.45
662.88	21.06
663.03	32.77
663.17	60.85
663.31	42.13
663.45	28.09
663.60	23.41
663.74	84.26
663.88	35.11
664.02	107.66
664.17	79.58
664.31	102.98
664.45	72.56
664.59	70.22
664.73	63.19
664.88	56.17
665.02	79.58
665.16	79.58
665.30	21.06
665.44	14.04
665.59	67.88
665.73	44.47
665.87	105.32
666.01	74.90
666.15	81.92
666.29	30.43
666.44	86.60
666.58	42.13
666.72	117.03
666.86	51.49
667.00	67.88
667.14	70.22
667.28	60.85
667.43	32.77
667.57	37.45
667.71	14.04
667.85	105.32
667.99	14.04
668.13	100.64
668.27	84.26
668.41	53.83
668.56	56.17
668.70	79.58
668.84	53.83
668.98	30.43
669.12	32.77
669.26	46.81
669.40	16.38
669.54	51.49
669.68	0.00
669.82	28.09
669.96	2.34
670.10	28.09
670.25	9.36
670.39	65.54
670.53	105.32
670.67	0.00
670.81	0.00
670.95	0.00
671.09	37.45
671.23	37.45
671.37	16.38
671.51	77.24
671.65	114.69
671.79	14.04
671.93	91.28
672.07	100.64
672.21	18.72
672.35	18.72
672.49	2.34
672.63	37.45
672.77	0.00
672.91	4.68
673.05	105.32
673.19	39.79
673.33	46.81
673.47	0.00
673.61	37.45
673.75	28.09
673.89	23.41
674.03	46.81
674.17	11.70
674.31	56.17
674.45	23.41
674.59	18.72
674.73	81.92
674.87	65.54
675.01	0.00
675.15	65.54
675.29	2.34
675.43	35.11
675.56	56.17
675.70	110.01
675.84	0.00
675.98	14.04
676.12	21.06
676.26	0.00
676.40	25.75
676.54	16.38
676.68	14.04
676.82	23.41
676.96	44.47
677.10	18.72
677.23	67.88
677.37	46.81
677.51	72.56
677.65	88.94
677.79	67.88
677.93	14.04
678.07	21.06
678.21	42.13
678.34	0.00
678.48	81.92
678.62	42.13
678.76	74.90
678.90	93.62
679.04	77.24
679.18	0.00
679.31	42.13
679.45	4.68
679.59	63.19
679.73	46.81
679.87	16.38
680.00	9.36
680.14	67.88
680.28	11.70
680.42	56.17
680.56	30.43
680.70	114.69
680.83	44.47
680.97	16.38
681.11	67.88
681.25	49.15
681.39	37.45
681.52	65.54
681.66	88.94
681.80	65.54
681.94	0.00
682.07	72.56
682.21	67.88
682.35	65.54
682.49	60.85
682.62	46.81
682.76	11.70
682.90	21.06
683.04	79.58
683.17	4.68
683.31	63.19
683.45	79.58
683.59	70.22
683.72	100.64
683.86	37.45
684.00	51.49
684.13	49.15
684.27	49.15
684.41	35.11
684.55	42.13
684.68	56.17
684.82	37.45
684.96	23.41
685.09	100.64
685.23	16.38
685.37	49.15
685.50	93.62
685.64	63.19
685.78	81.92
685.91	14.04
686.05	79.58
686.19	0.00
686.32	4.68
686.46	70.22
686.60	0.00
686.73	70.22
686.87	28.09
687.01	0.00
687.14	0.00
687.28	0.00
687.42	0.00
687.55	63.19
687.69	81.92
687.82	63.19
687.96	65.54
688.10	0.00
688.23	11.70
688.37	42.13
688.50	121.71
688.64	49.15
688.78	37.45
688.91	74.90
689.05	23.41
689.18	79.58
689.32	4.68
689.46	18.72
689.59	18.72
689.73	77.24
689.86	95.96
690.00	79.58
690.13	28.09
690.27	23.41
690.41	21.06
690.54	98.30
690.68	0.00
690.81	16.38
690.95	0.00
691.08	37.45
691.22	53.83
691.35	7.02
691.49	42.13
691.62	9.36
691.76	46.81
691.89	91.28
692.03	25.75
692.16	46.81
692.30	18.72
692.43	60.85
692.57	72.56
692.70	105.32
692.84	37.45
692.97	0.00
693.11	39.79
693.24	0.00
693.38	51.49
693.51	0.00
693.65	74.90
693.78	88.94
693.92	37.45
694.05	0.00
694.19	25.75
694.32	30.43
694.45	77.24
694.59	32.77
694.72	16.38
694.86	7.02
694.99	0.00
695.13	30.43
695.26	53.83
695.39	42.13
695.53	0.00
695.66	74.90
695.80	86.60
695.93	32.77
696.07	49.15
696.20	72.56
696.33	21.06
696.47	28.09
696.60	18.72
696.73	35.11
696.87	28.09
697.00	72.56
697.14	16.38
697.27	51.49
697.40	63.19
697.54	110.01
697.67	46.81
697.80	42.13
697.94	81.92
698.07	0.00
698.21	0.00
698.34	7.02
698.47	112.35
698.61	42.13
698.74	58.51
698.87	67.88
699.01	72.56
699.14	49.15
699.27	30.43
699.40	79.58
699.54	74.90
699.67	72.56
699.80	16.38
699.94	81.92
700.07	44.47
700.20	86.60
700.34	58.51
700.47	25.75
700.60	100.64
700.73	44.47
700.87	107.66
701.00	18.72
701.13	2.34
701.26	14.04
701.40	4.68
701.53	37.45
701.66	23.41
701.79	77.24
701.93	49.15
702.06	9.36
702.19	88.94
702.32	32.77
702.46	119.37
702.59	28.09
702.72	28.09
702.85	0.00
702.99	0.00
703.12	65.54
703.25	0.00
703.38	0.00
703.51	4.68
703.65	37.45
703.78	11.70
703.91	77.24
704.04	11.70
704.17	2.34
704.31	0.00
704.44	63.19
704.57	53.83
704.70	53.83
704.83	0.00
704.96	53.83
705.10	32.77
705.23	60.85
>>>>>End Processed Spectral Data<<<<<
