SpectraSuite Data File
++++++++++++++++++++++++++++++++++++
Date: Fri Oct 04 12:13:39 GMT-05:00 2013
User: price-jones
Dark Spectrum Present: No
Reference Spectrum Present: No
Number of Sampled Component Spectra: 1
Spectrometers: USB2+H05261
Integration Time (usec): 10000 (USB2+H05261)
Spectra Averaged: 1 (USB2+H05261)
Boxcar Smoothing: 0 (USB2+H05261)
Correct for Electrical Dark: No (USB2+H05261)
Strobe/Lamp Enabled: No (USB2+H05261)
Correct for Detector Non-linearity: No (USB2+H05261)
Correct for Stray Light: No (USB2+H05261)
Number of Pixels in Processed Spectrum: 2048
>>>>>Begin Processed Spectral Data<<<<<
365.73	0.00
365.92	0.00
366.12	0.00
366.32	0.00
366.52	0.00
366.72	0.00
366.91	0.00
367.11	0.00
367.31	0.00
367.51	0.00
367.70	0.00
367.90	0.00
368.10	0.00
368.30	0.00
368.49	0.00
368.69	0.00
368.89	0.00
369.09	0.00
369.28	0.00
369.48	0.00
369.68	0.00
369.87	0.00
370.07	0.00
370.27	0.00
370.47	0.00
370.66	0.00
370.86	0.00
371.06	18.72
371.25	0.00
371.45	0.00
371.65	0.00
371.84	11.70
372.04	0.00
372.24	32.77
372.44	4.68
372.63	0.00
372.83	4.68
373.03	0.00
373.22	2.34
373.42	51.49
373.62	0.00
373.81	28.09
374.01	0.00
374.21	0.00
374.40	2.34
374.60	2.34
374.79	23.41
374.99	18.72
375.19	0.00
375.38	42.13
375.58	128.73
375.78	4.68
375.97	46.81
376.17	0.00
376.37	9.36
376.56	117.03
376.76	0.00
376.95	32.77
377.15	46.81
377.35	14.04
377.54	21.06
377.74	11.70
377.93	35.11
378.13	100.64
378.33	16.38
378.52	0.00
378.72	65.54
378.91	0.00
379.11	0.00
379.31	28.09
379.50	9.36
379.70	30.43
379.89	28.09
380.09	53.83
380.28	67.88
380.48	0.00
380.68	44.47
380.87	11.70
381.07	0.00
381.26	0.00
381.46	51.49
381.65	63.19
381.85	11.70
382.04	56.17
382.24	60.85
382.43	7.02
382.63	0.00
382.83	0.00
383.02	30.43
383.22	0.00
383.41	114.69
383.61	32.77
383.80	9.36
384.00	0.00
384.19	67.88
384.39	63.19
384.58	0.00
384.78	32.77
384.97	30.43
385.17	0.00
385.36	28.09
385.56	14.04
385.75	0.00
385.95	0.00
386.14	77.24
386.34	0.00
386.53	32.77
386.72	28.09
386.92	44.47
387.11	4.68
387.31	0.00
387.50	42.13
387.70	0.00
387.89	23.41
388.09	0.00
388.28	9.36
388.48	0.00
388.67	84.26
388.86	18.72
389.06	28.09
389.25	14.04
389.45	0.00
389.64	0.00
389.84	81.92
390.03	35.11
390.22	51.49
390.42	0.00
390.61	21.06
390.81	79.58
391.00	0.00
391.19	0.00
391.39	107.66
391.58	72.56
391.78	9.36
391.97	35.11
392.16	37.45
392.36	35.11
392.55	25.75
392.75	21.06
392.94	14.04
393.13	0.00
393.33	51.49
393.52	0.00
393.71	39.79
393.91	56.17
394.10	0.00
394.29	0.00
394.49	0.00
394.68	35.11
394.88	28.09
395.07	72.56
395.26	7.02
395.46	4.68
395.65	14.04
395.84	65.54
396.04	18.72
396.23	4.68
396.42	28.09
396.62	0.00
396.81	32.77
397.00	0.00
397.19	9.36
397.39	0.00
397.58	11.70
397.77	9.36
397.97	53.83
398.16	0.00
398.35	0.00
398.55	0.00
398.74	0.00
398.93	114.69
399.12	100.64
399.32	65.54
399.51	0.00
399.70	37.45
399.90	39.79
400.09	28.09
400.28	44.47
400.47	88.94
400.67	102.98
400.86	30.43
401.05	65.54
401.24	23.41
401.44	16.38
401.63	0.00
401.82	0.00
402.01	16.38
402.21	0.00
402.40	56.17
402.59	0.00
402.78	30.43
402.97	11.70
403.17	44.47
403.36	60.85
403.55	81.92
403.74	37.45
403.93	51.49
404.13	39.79
404.32	2.34
404.51	21.06
404.70	25.75
404.89	0.00
405.09	42.13
405.28	79.58
405.47	0.00
405.66	25.75
405.85	117.03
406.05	25.75
406.24	44.47
406.43	42.13
406.62	23.41
406.81	51.49
407.00	60.85
407.20	0.00
407.39	7.02
407.58	110.01
407.77	0.00
407.96	74.90
408.15	23.41
408.34	9.36
408.54	21.06
408.73	14.04
408.92	100.64
409.11	46.81
409.30	0.00
409.49	49.15
409.68	95.96
409.87	0.00
410.07	25.75
410.26	35.11
410.45	7.02
410.64	23.41
410.83	35.11
411.02	25.75
411.21	46.81
411.40	0.00
411.59	65.54
411.78	32.77
411.98	0.00
412.17	77.24
412.36	70.22
412.55	63.19
412.74	0.00
412.93	2.34
413.12	63.19
413.31	0.00
413.50	18.72
413.69	58.51
413.88	51.49
414.07	0.00
414.26	16.38
414.45	0.00
414.64	56.17
414.83	16.38
415.02	2.34
415.22	44.47
415.41	28.09
415.60	9.36
415.79	0.00
415.98	39.79
416.17	0.00
416.36	14.04
416.55	81.92
416.74	86.60
416.93	53.83
417.12	35.11
417.31	37.45
417.50	32.77
417.69	23.41
417.88	23.41
418.07	0.00
418.26	0.00
418.45	0.00
418.64	56.17
418.83	112.35
419.02	42.13
419.21	37.45
419.39	11.70
419.58	0.00
419.77	44.47
419.96	0.00
420.15	88.94
420.34	42.13
420.53	30.43
420.72	42.13
420.91	39.79
421.10	46.81
421.29	114.69
421.48	28.09
421.67	23.41
421.86	25.75
422.05	0.00
422.24	23.41
422.43	51.49
422.61	32.77
422.80	60.85
422.99	49.15
423.18	0.00
423.37	86.60
423.56	0.00
423.75	39.79
423.94	79.58
424.13	23.41
424.32	42.13
424.50	0.00
424.69	60.85
424.88	37.45
425.07	81.92
425.26	25.75
425.45	0.00
425.64	14.04
425.83	14.04
426.01	107.66
426.20	84.26
426.39	42.13
426.58	74.90
426.77	77.24
426.96	65.54
427.15	46.81
427.33	46.81
427.52	51.49
427.71	44.47
427.90	60.85
428.09	65.54
428.28	46.81
428.46	56.17
428.65	84.26
428.84	28.09
429.03	65.54
429.22	11.70
429.40	117.03
429.59	42.13
429.78	21.06
429.97	0.00
430.16	60.85
430.34	93.62
430.53	0.00
430.72	16.38
430.91	16.38
431.10	93.62
431.28	86.60
431.47	58.51
431.66	14.04
431.85	0.00
432.03	70.22
432.22	86.60
432.41	100.64
432.60	44.47
432.79	72.56
432.97	23.41
433.16	114.69
433.35	39.79
433.54	11.70
433.72	0.00
433.91	14.04
434.10	4.68
434.28	49.15
434.47	63.19
434.66	11.70
434.85	39.79
435.03	84.26
435.22	98.30
435.41	67.88
435.59	23.41
435.78	110.01
435.97	0.00
436.16	74.90
436.34	98.30
436.53	46.81
436.72	46.81
436.90	49.15
437.09	79.58
437.28	14.04
437.46	0.00
437.65	60.85
437.84	30.43
438.02	91.28
438.21	86.60
438.40	35.11
438.58	98.30
438.77	35.11
438.96	9.36
439.14	42.13
439.33	37.45
439.52	58.51
439.70	156.82
439.89	44.47
440.08	98.30
440.26	88.94
440.45	42.13
440.63	84.26
440.82	11.70
441.01	23.41
441.19	58.51
441.38	0.00
441.57	91.28
441.75	35.11
441.94	11.70
442.12	51.49
442.31	95.96
442.50	30.43
442.68	49.15
442.87	0.00
443.05	56.17
443.24	42.13
443.43	0.00
443.61	95.96
443.80	74.90
443.98	32.77
444.17	114.69
444.35	16.38
444.54	60.85
444.73	28.09
444.91	32.77
445.10	93.62
445.28	77.24
445.47	0.00
445.65	86.60
445.84	23.41
446.02	21.06
446.21	112.35
446.39	25.75
446.58	79.58
446.77	107.66
446.95	58.51
447.14	25.75
447.32	119.37
447.51	95.96
447.69	86.60
447.88	16.38
448.06	28.09
448.25	72.56
448.43	56.17
448.62	110.01
448.80	0.00
448.99	42.13
449.17	46.81
449.36	21.06
449.54	35.11
449.73	70.22
449.91	56.17
450.10	77.24
450.28	4.68
450.46	70.22
450.65	74.90
450.83	81.92
451.02	0.00
451.20	95.96
451.39	63.19
451.57	70.22
451.76	11.70
451.94	58.51
452.13	32.77
452.31	18.72
452.49	91.28
452.68	58.51
452.86	81.92
453.05	100.64
453.23	86.60
453.42	2.34
453.60	51.49
453.78	91.28
453.97	18.72
454.15	93.62
454.34	58.51
454.52	88.94
454.70	98.30
454.89	35.11
455.07	44.47
455.26	98.30
455.44	77.24
455.62	53.83
455.81	107.66
455.99	0.00
456.17	86.60
456.36	65.54
456.54	58.51
456.73	23.41
456.91	23.41
457.09	88.94
457.28	86.60
457.46	67.88
457.64	53.83
457.83	21.06
458.01	91.28
458.19	23.41
458.38	14.04
458.56	60.85
458.74	56.17
458.93	23.41
459.11	107.66
459.29	37.45
459.48	53.83
459.66	53.83
459.84	91.28
460.03	110.01
460.21	131.07
460.39	84.26
460.57	58.51
460.76	14.04
460.94	112.35
461.12	86.60
461.31	98.30
461.49	35.11
461.67	95.96
461.85	18.72
462.04	56.17
462.22	126.39
462.40	110.01
462.59	74.90
462.77	77.24
462.95	18.72
463.13	65.54
463.32	42.13
463.50	79.58
463.68	0.00
463.86	86.60
464.05	77.24
464.23	81.92
464.41	98.30
464.59	70.22
464.78	58.51
464.96	21.06
465.14	93.62
465.32	88.94
465.50	56.17
465.69	84.26
465.87	0.00
466.05	37.45
466.23	60.85
466.41	70.22
466.60	53.83
466.78	72.56
466.96	86.60
467.14	49.15
467.32	30.43
467.51	39.79
467.69	0.00
467.87	95.96
468.05	93.62
468.23	46.81
468.41	0.00
468.60	18.72
468.78	0.00
468.96	32.77
469.14	88.94
469.32	37.45
469.50	28.09
469.69	42.13
469.87	91.28
470.05	79.58
470.23	7.02
470.41	53.83
470.59	100.64
470.77	11.70
470.95	60.85
471.14	67.88
471.32	70.22
471.50	58.51
471.68	72.56
471.86	93.62
472.04	23.41
472.22	7.02
472.40	44.47
472.58	23.41
472.77	81.92
472.95	140.43
473.13	60.85
473.31	25.75
473.49	11.70
473.67	65.54
473.85	9.36
474.03	0.00
474.21	53.83
474.39	112.35
474.57	51.49
474.75	7.02
474.93	63.19
475.12	56.17
475.30	77.24
475.48	65.54
475.66	49.15
475.84	42.13
476.02	93.62
476.20	53.83
476.38	98.30
476.56	121.71
476.74	30.43
476.92	28.09
477.10	84.26
477.28	110.01
477.46	88.94
477.64	11.70
477.82	53.83
478.00	88.94
478.18	79.58
478.36	112.35
478.54	72.56
478.72	35.11
478.90	107.66
479.08	49.15
479.26	98.30
479.44	79.58
479.62	119.37
479.80	72.56
479.98	79.58
480.16	114.69
480.34	4.68
480.52	0.00
480.70	23.41
480.88	51.49
481.06	37.45
481.24	93.62
481.41	93.62
481.59	86.60
481.77	21.06
481.95	91.28
482.13	2.34
482.31	23.41
482.49	93.62
482.67	35.11
482.85	65.54
483.03	53.83
483.21	51.49
483.39	60.85
483.57	30.43
483.74	63.19
483.92	98.30
484.10	30.43
484.28	0.00
484.46	102.98
484.64	67.88
484.82	42.13
485.00	58.51
485.18	91.28
485.35	0.00
485.53	39.79
485.71	126.39
485.89	4.68
486.07	60.85
486.25	100.64
486.43	81.92
486.61	16.38
486.78	74.90
486.96	63.19
487.14	79.58
487.32	51.49
487.50	79.58
487.68	117.03
487.85	112.35
488.03	86.60
488.21	126.39
488.39	0.00
488.57	30.43
488.75	100.64
488.92	88.94
489.10	30.43
489.28	18.72
489.46	119.37
489.64	128.73
489.81	105.32
489.99	23.41
490.17	135.75
490.35	86.60
490.53	14.04
490.70	86.60
490.88	72.56
491.06	58.51
491.24	88.94
491.41	46.81
491.59	30.43
491.77	56.17
491.95	67.88
492.13	32.77
492.30	39.79
492.48	28.09
492.66	91.28
492.84	107.66
493.01	79.58
493.19	58.51
493.37	142.77
493.54	112.35
493.72	84.26
493.90	84.26
494.08	140.43
494.25	42.13
494.43	100.64
494.61	65.54
494.79	49.15
494.96	63.19
495.14	53.83
495.32	156.82
495.49	98.30
495.67	98.30
495.85	44.47
496.02	84.26
496.20	131.07
496.38	110.01
496.55	74.90
496.73	105.32
496.91	98.30
497.09	88.94
497.26	0.00
497.44	74.90
497.62	77.24
497.79	2.34
497.97	49.15
498.14	117.03
498.32	63.19
498.50	60.85
498.67	121.71
498.85	86.60
499.03	51.49
499.20	77.24
499.38	110.01
499.56	72.56
499.73	79.58
499.91	72.56
500.08	56.17
500.26	102.98
500.44	39.79
500.61	16.38
500.79	91.28
500.97	72.56
501.14	100.64
501.32	0.00
501.49	67.88
501.67	102.98
501.84	65.54
502.02	51.49
502.20	184.90
502.37	65.54
502.55	88.94
502.72	35.11
502.90	79.58
503.07	49.15
503.25	114.69
503.43	46.81
503.60	126.39
503.78	105.32
503.95	21.06
504.13	124.05
504.30	44.47
504.48	39.79
504.65	60.85
504.83	93.62
505.01	100.64
505.18	72.56
505.36	51.49
505.53	65.54
505.71	49.15
505.88	0.00
506.06	95.96
506.23	114.69
506.41	30.43
506.58	28.09
506.76	9.36
506.93	110.01
507.11	114.69
507.28	42.13
507.46	70.22
507.63	100.64
507.81	112.35
507.98	63.19
508.16	51.49
508.33	77.24
508.50	16.38
508.68	107.66
508.85	70.22
509.03	84.26
509.20	84.26
509.38	107.66
509.55	2.34
509.73	170.86
509.90	67.88
510.08	91.28
510.25	56.17
510.42	128.73
510.60	60.85
510.77	98.30
510.95	56.17
511.12	70.22
511.30	67.88
511.47	77.24
511.64	42.13
511.82	100.64
511.99	53.83
512.17	105.32
512.34	84.26
512.51	42.13
512.69	100.64
512.86	135.75
513.04	128.73
513.21	102.98
513.38	0.00
513.56	39.79
513.73	56.17
513.90	28.09
514.08	0.00
514.25	84.26
514.43	77.24
514.60	51.49
514.77	25.75
514.95	86.60
515.12	70.22
515.29	32.77
515.47	60.85
515.64	86.60
515.81	81.92
515.99	98.30
516.16	126.39
516.33	74.90
516.51	121.71
516.68	70.22
516.85	133.41
517.03	105.32
517.20	91.28
517.37	32.77
517.54	63.19
517.72	65.54
517.89	93.62
518.06	42.13
518.24	67.88
518.41	117.03
518.58	72.56
518.75	67.88
518.93	133.41
519.10	11.70
519.27	63.19
519.45	124.05
519.62	128.73
519.79	74.90
519.96	9.36
520.14	39.79
520.31	88.94
520.48	28.09
520.65	84.26
520.83	39.79
521.00	60.85
521.17	65.54
521.34	18.72
521.52	114.69
521.69	77.24
521.86	110.01
522.03	100.64
522.20	79.58
522.38	30.43
522.55	58.51
522.72	72.56
522.89	70.22
523.07	105.32
523.24	44.47
523.41	60.85
523.58	112.35
523.75	53.83
523.92	77.24
524.10	95.96
524.27	128.73
524.44	46.81
524.61	81.92
524.78	67.88
524.96	95.96
525.13	42.13
525.30	65.54
525.47	110.01
525.64	117.03
525.81	95.96
525.98	53.83
526.16	37.45
526.33	100.64
526.50	95.96
526.67	117.03
526.84	112.35
527.01	56.17
527.18	67.88
527.36	51.49
527.53	58.51
527.70	60.85
527.87	72.56
528.04	93.62
528.21	112.35
528.38	35.11
528.55	56.17
528.72	114.69
528.89	126.39
529.07	63.19
529.24	25.75
529.41	105.32
529.58	7.02
529.75	11.70
529.92	84.26
530.09	42.13
530.26	98.30
530.43	156.82
530.60	79.58
530.77	107.66
530.94	112.35
531.11	30.43
531.28	46.81
531.46	28.09
531.63	140.43
531.80	60.85
531.97	84.26
532.14	95.96
532.31	105.32
532.48	58.51
532.65	56.17
532.82	86.60
532.99	98.30
533.16	124.05
533.33	88.94
533.50	72.56
533.67	145.11
533.84	88.94
534.01	53.83
534.18	133.41
534.35	74.90
534.52	107.66
534.69	142.77
534.86	98.30
535.03	42.13
535.20	44.47
535.37	56.17
535.54	86.60
535.71	51.49
535.88	112.35
536.05	140.43
536.22	147.45
536.38	159.16
536.55	112.35
536.72	112.35
536.89	102.98
537.06	119.37
537.23	84.26
537.40	39.79
537.57	21.06
537.74	119.37
537.91	156.82
538.08	100.64
538.25	95.96
538.42	138.09
538.59	168.52
538.75	117.03
538.92	74.90
539.09	44.47
539.26	44.47
539.43	81.92
539.60	91.28
539.77	112.35
539.94	154.48
540.11	105.32
540.28	93.62
540.44	81.92
540.61	63.19
540.78	107.66
540.95	58.51
541.12	163.84
541.29	142.77
541.46	119.37
541.62	70.22
541.79	100.64
541.96	65.54
542.13	86.60
542.30	84.26
542.47	142.77
542.63	53.83
542.80	14.04
542.97	51.49
543.14	91.28
543.31	128.73
543.48	98.30
543.64	95.96
543.81	95.96
543.98	114.69
544.15	102.98
544.32	51.49
544.48	0.00
544.65	105.32
544.82	145.11
544.99	67.88
545.16	65.54
545.32	53.83
545.49	35.11
545.66	25.75
545.83	86.60
546.00	49.15
546.16	72.56
546.33	112.35
546.50	53.83
546.67	86.60
546.83	30.43
547.00	128.73
547.17	88.94
547.34	35.11
547.50	51.49
547.67	126.39
547.84	86.60
548.00	39.79
548.17	35.11
548.34	35.11
548.51	70.22
548.67	30.43
548.84	51.49
549.01	121.71
549.18	105.32
549.34	74.90
549.51	133.41
549.68	117.03
549.84	93.62
550.01	84.26
550.18	88.94
550.34	117.03
550.51	88.94
550.68	16.38
550.84	65.54
551.01	35.11
551.18	93.62
551.34	81.92
551.51	102.98
551.68	14.04
551.84	105.32
552.01	95.96
552.18	63.19
552.34	35.11
552.51	142.77
552.68	81.92
552.84	102.98
553.01	70.22
553.18	51.49
553.34	77.24
553.51	65.54
553.67	51.49
553.84	133.41
554.01	44.47
554.17	72.56
554.34	93.62
554.51	163.84
554.67	79.58
554.84	175.54
555.00	84.26
555.17	140.43
555.33	81.92
555.50	88.94
555.67	74.90
555.83	53.83
556.00	79.58
556.16	58.51
556.33	81.92
556.50	42.13
556.66	72.56
556.83	77.24
556.99	88.94
557.16	105.32
557.32	156.82
557.49	67.88
557.65	28.09
557.82	98.30
557.98	72.56
558.15	79.58
558.32	107.66
558.48	14.04
558.65	81.92
558.81	67.88
558.98	70.22
559.14	60.85
559.31	93.62
559.47	49.15
559.64	60.85
559.80	84.26
559.97	74.90
560.13	138.09
560.30	95.96
560.46	7.02
560.63	37.45
560.79	86.60
560.96	70.22
561.12	56.17
561.29	67.88
561.45	0.00
561.61	105.32
561.78	114.69
561.94	126.39
562.11	121.71
562.27	102.98
562.44	159.16
562.60	84.26
562.77	98.30
562.93	117.03
563.10	70.22
563.26	91.28
563.42	23.41
563.59	100.64
563.75	60.85
563.92	77.24
564.08	156.82
564.24	81.92
564.41	107.66
564.57	117.03
564.74	63.19
564.90	126.39
565.07	51.49
565.23	49.15
565.39	168.52
565.56	72.56
565.72	86.60
565.88	98.30
566.05	60.85
566.21	37.45
566.38	21.06
566.54	105.32
566.70	56.17
566.87	70.22
567.03	112.35
567.19	67.88
567.36	81.92
567.52	58.51
567.68	63.19
567.85	84.26
568.01	107.66
568.17	37.45
568.34	60.85
568.50	81.92
568.66	21.06
568.83	133.41
568.99	88.94
569.15	63.19
569.32	23.41
569.48	51.49
569.64	81.92
569.81	49.15
569.97	60.85
570.13	114.69
570.30	98.30
570.46	100.64
570.62	65.54
570.78	72.56
570.95	67.88
571.11	72.56
571.27	46.81
571.43	110.01
571.60	53.83
571.76	72.56
571.92	86.60
572.09	131.07
572.25	21.06
572.41	112.35
572.57	102.98
572.74	79.58
572.90	72.56
573.06	126.39
573.22	35.11
573.38	152.13
573.55	86.60
573.71	0.00
573.87	35.11
574.03	51.49
574.20	128.73
574.36	93.62
574.52	95.96
574.68	63.19
574.84	35.11
575.01	119.37
575.17	56.17
575.33	35.11
575.49	60.85
575.65	91.28
575.82	67.88
575.98	107.66
576.14	51.49
576.30	105.32
576.46	93.62
576.62	44.47
576.79	93.62
576.95	105.32
577.11	84.26
577.27	112.35
577.43	98.30
577.59	138.09
577.75	70.22
577.92	53.83
578.08	16.38
578.24	93.62
578.40	131.07
578.56	77.24
578.72	46.81
578.88	91.28
579.04	110.01
579.21	14.04
579.37	56.17
579.53	128.73
579.69	63.19
579.85	49.15
580.01	138.09
580.17	51.49
580.33	51.49
580.49	88.94
580.65	67.88
580.82	91.28
580.98	84.26
581.14	39.79
581.30	18.72
581.46	63.19
581.62	138.09
581.78	121.71
581.94	23.41
582.10	63.19
582.26	102.98
582.42	74.90
582.58	49.15
582.74	56.17
582.90	4.68
583.06	93.62
583.22	35.11
583.38	9.36
583.54	84.26
583.70	117.03
583.86	74.90
584.02	0.00
584.18	98.30
584.34	98.30
584.50	60.85
584.66	86.60
584.82	117.03
584.98	65.54
585.14	84.26
585.30	95.96
585.46	105.32
585.62	70.22
585.78	81.92
585.94	72.56
586.10	23.41
586.26	81.92
586.42	95.96
586.58	63.19
586.74	98.30
586.90	112.35
587.06	63.19
587.22	77.24
587.38	53.83
587.54	51.49
587.70	117.03
587.86	25.75
588.02	126.39
588.18	95.96
588.34	70.22
588.49	0.00
588.65	135.75
588.81	67.88
588.97	138.09
589.13	0.00
589.29	44.47
589.45	16.38
589.61	102.98
589.77	25.75
589.93	23.41
590.08	60.85
590.24	42.13
590.40	9.36
590.56	77.24
590.72	98.30
590.88	16.38
591.04	121.71
591.20	84.26
591.35	65.54
591.51	49.15
591.67	86.60
591.83	74.90
591.99	25.75
592.15	9.36
592.31	86.60
592.46	37.45
592.62	49.15
592.78	37.45
592.94	110.01
593.10	60.85
593.26	91.28
593.41	9.36
593.57	32.77
593.73	74.90
593.89	131.07
594.05	0.00
594.20	67.88
594.36	107.66
594.52	84.26
594.68	93.62
594.84	74.90
594.99	72.56
595.15	51.49
595.31	46.81
595.47	149.79
595.62	46.81
595.78	98.30
595.94	51.49
596.10	88.94
596.25	140.43
596.41	84.26
596.57	79.58
596.73	117.03
596.88	81.92
597.04	14.04
597.20	110.01
597.36	93.62
597.51	53.83
597.67	81.92
597.83	70.22
597.99	100.64
598.14	49.15
598.30	117.03
598.46	112.35
598.61	95.96
598.77	112.35
598.93	74.90
599.09	37.45
599.24	91.28
599.40	53.83
599.56	37.45
599.71	81.92
599.87	18.72
600.03	51.49
600.18	72.56
600.34	88.94
600.50	74.90
600.65	65.54
600.81	107.66
600.97	121.71
601.12	23.41
601.28	72.56
601.44	65.54
601.59	95.96
601.75	70.22
601.91	81.92
602.06	88.94
602.22	88.94
602.37	93.62
602.53	7.02
602.69	32.77
602.84	84.26
603.00	119.37
603.16	46.81
603.31	74.90
603.47	65.54
603.62	58.51
603.78	16.38
603.94	159.16
604.09	23.41
604.25	70.22
604.40	112.35
604.56	79.58
604.71	81.92
604.87	91.28
605.03	65.54
605.18	98.30
605.34	84.26
605.49	95.96
605.65	74.90
605.80	51.49
605.96	51.49
606.12	84.26
606.27	98.30
606.43	72.56
606.58	79.58
606.74	112.35
606.89	44.47
607.05	63.19
607.20	128.73
607.36	35.11
607.51	100.64
607.67	60.85
607.82	77.24
607.98	93.62
608.13	35.11
608.29	53.83
608.44	107.66
608.60	70.22
608.75	98.30
608.91	124.05
609.06	77.24
609.22	100.64
609.37	93.62
609.53	117.03
609.68	79.58
609.84	28.09
609.99	93.62
610.15	44.47
610.30	147.45
610.46	95.96
610.61	98.30
610.76	18.72
610.92	23.41
611.07	88.94
611.23	147.45
611.38	102.98
611.54	77.24
611.69	74.90
611.84	4.68
612.00	56.17
612.15	84.26
612.31	91.28
612.46	86.60
612.62	32.77
612.77	16.38
612.92	84.26
613.08	30.43
613.23	44.47
613.39	51.49
613.54	0.00
613.69	102.98
613.85	91.28
614.00	23.41
614.15	23.41
614.31	28.09
614.46	67.88
614.62	56.17
614.77	145.11
614.92	81.92
615.08	63.19
615.23	152.13
615.38	79.58
615.54	60.85
615.69	49.15
615.84	72.56
616.00	0.00
616.15	35.11
616.30	72.56
616.46	149.79
616.61	60.85
616.76	93.62
616.92	88.94
617.07	53.83
617.22	16.38
617.37	32.77
617.53	105.32
617.68	18.72
617.83	79.58
617.99	74.90
618.14	70.22
618.29	70.22
618.45	70.22
618.60	72.56
618.75	60.85
618.90	58.51
619.06	58.51
619.21	102.98
619.36	44.47
619.51	23.41
619.67	67.88
619.82	44.47
619.97	23.41
620.12	53.83
620.28	95.96
620.43	0.00
620.58	117.03
620.73	56.17
620.89	105.32
621.04	112.35
621.19	98.30
621.34	126.39
621.49	117.03
621.65	46.81
621.80	51.49
621.95	44.47
622.10	102.98
622.25	77.24
622.41	51.49
622.56	32.77
622.71	133.41
622.86	53.83
623.01	28.09
623.16	100.64
623.32	65.54
623.47	107.66
623.62	46.81
623.77	0.00
623.92	53.83
624.07	95.96
624.23	74.90
624.38	23.41
624.53	107.66
624.68	74.90
624.83	49.15
624.98	81.92
625.13	49.15
625.29	88.94
625.44	23.41
625.59	37.45
625.74	39.79
625.89	121.71
626.04	128.73
626.19	93.62
626.34	131.07
626.49	23.41
626.65	63.19
626.80	9.36
626.95	7.02
627.10	35.11
627.25	58.51
627.40	79.58
627.55	60.85
627.70	0.00
627.85	81.92
628.00	128.73
628.15	84.26
628.30	30.43
628.45	77.24
628.60	56.17
628.76	77.24
628.91	37.45
629.06	81.92
629.21	63.19
629.36	0.00
629.51	56.17
629.66	21.06
629.81	91.28
629.96	56.17
630.11	107.66
630.26	49.15
630.41	65.54
630.56	0.00
630.71	28.09
630.86	49.15
631.01	53.83
631.16	44.47
631.31	117.03
631.46	79.58
631.61	126.39
631.76	60.85
631.91	46.81
632.06	56.17
632.21	35.11
632.36	9.36
632.51	70.22
632.66	79.58
632.81	60.85
632.96	44.47
633.10	9.36
633.25	74.90
633.40	56.17
633.55	39.79
633.70	60.85
633.85	58.51
634.00	0.00
634.15	124.05
634.30	60.85
634.45	77.24
634.60	81.92
634.75	46.81
634.90	32.77
635.05	56.17
635.19	110.01
635.34	74.90
635.49	11.70
635.64	63.19
635.79	56.17
635.94	112.35
636.09	131.07
636.24	56.17
636.39	0.00
636.53	124.05
636.68	60.85
636.83	77.24
636.98	42.13
637.13	53.83
637.28	105.32
637.43	53.83
637.57	77.24
637.72	102.98
637.87	39.79
638.02	81.92
638.17	14.04
638.32	93.62
638.46	79.58
638.61	67.88
638.76	37.45
638.91	58.51
639.06	49.15
639.20	65.54
639.35	126.39
639.50	117.03
639.65	0.00
639.80	70.22
639.94	105.32
640.09	56.17
640.24	35.11
640.39	86.60
640.54	56.17
640.68	79.58
640.83	79.58
640.98	0.00
641.13	98.30
641.27	77.24
641.42	88.94
641.57	74.90
641.72	7.02
641.86	58.51
642.01	67.88
642.16	0.00
642.31	49.15
642.45	100.64
642.60	105.32
642.75	0.00
642.90	95.96
643.04	133.41
643.19	51.49
643.34	60.85
643.48	4.68
643.63	60.85
643.78	30.43
643.93	58.51
644.07	42.13
644.22	23.41
644.37	11.70
644.51	25.75
644.66	18.72
644.81	39.79
644.95	0.00
645.10	30.43
645.25	58.51
645.39	112.35
645.54	23.41
645.69	44.47
645.83	63.19
645.98	16.38
646.13	98.30
646.27	58.51
646.42	84.26
646.57	102.98
646.71	65.54
646.86	77.24
647.00	84.26
647.15	77.24
647.30	9.36
647.44	39.79
647.59	105.32
647.74	67.88
647.88	65.54
648.03	88.94
648.17	70.22
648.32	37.45
648.47	0.00
648.61	23.41
648.76	0.00
648.90	9.36
649.05	46.81
649.20	14.04
649.34	28.09
649.49	37.45
649.63	0.00
649.78	114.69
649.92	84.26
650.07	39.79
650.21	51.49
650.36	67.88
650.51	105.32
650.65	88.94
650.80	51.49
650.94	77.24
651.09	49.15
651.23	28.09
651.38	42.13
651.52	46.81
651.67	56.17
651.81	72.56
651.96	145.11
652.10	35.11
652.25	23.41
652.39	16.38
652.54	149.79
652.68	30.43
652.83	81.92
652.97	77.24
653.12	0.00
653.26	39.79
653.41	67.88
653.55	91.28
653.70	37.45
653.84	63.19
653.99	95.96
654.13	14.04
654.27	70.22
654.42	102.98
654.56	46.81
654.71	81.92
654.85	0.00
655.00	42.13
655.14	25.75
655.29	0.00
655.43	30.43
655.57	98.30
655.72	14.04
655.86	86.60
656.01	49.15
656.15	0.00
656.30	0.00
656.44	28.09
656.58	46.81
656.73	60.85
656.87	49.15
657.01	53.83
657.16	46.81
657.30	65.54
657.45	46.81
657.59	79.58
657.73	74.90
657.88	16.38
658.02	21.06
658.16	56.17
658.31	112.35
658.45	49.15
658.60	77.24
658.74	44.47
658.88	42.13
659.03	25.75
659.17	32.77
659.31	56.17
659.46	49.15
659.60	11.70
659.74	7.02
659.89	18.72
660.03	53.83
660.17	49.15
660.32	25.75
660.46	119.37
660.60	88.94
660.74	98.30
660.89	95.96
661.03	126.39
661.17	91.28
661.32	0.00
661.46	23.41
661.60	131.07
661.74	65.54
661.89	0.00
662.03	105.32
662.17	39.79
662.31	81.92
662.46	0.00
662.60	39.79
662.74	79.58
662.88	4.68
663.03	44.47
663.17	88.94
663.31	44.47
663.45	37.45
663.60	88.94
663.74	14.04
663.88	102.98
664.02	39.79
664.17	107.66
664.31	65.54
664.45	53.83
664.59	0.00
664.73	37.45
664.88	58.51
665.02	32.77
665.16	63.19
665.30	60.85
665.44	42.13
665.59	28.09
665.73	0.00
665.87	4.68
666.01	30.43
666.15	0.00
666.29	0.00
666.44	110.01
666.58	110.01
666.72	95.96
666.86	46.81
667.00	74.90
667.14	95.96
667.28	110.01
667.43	9.36
667.57	0.00
667.71	67.88
667.85	30.43
667.99	84.26
668.13	25.75
668.27	39.79
668.41	77.24
668.56	53.83
668.70	107.66
668.84	60.85
668.98	23.41
669.12	70.22
669.26	21.06
669.40	112.35
669.54	37.45
669.68	25.75
669.82	39.79
669.96	88.94
670.10	135.75
670.25	46.81
670.39	0.00
670.53	42.13
670.67	21.06
670.81	107.66
670.95	0.00
671.09	39.79
671.23	0.00
671.37	49.15
671.51	0.00
671.65	23.41
671.79	28.09
671.93	72.56
672.07	79.58
672.21	28.09
672.35	28.09
672.49	65.54
672.63	11.70
672.77	32.77
672.91	9.36
673.05	2.34
673.19	42.13
673.33	58.51
673.47	112.35
673.61	63.19
673.75	14.04
673.89	39.79
674.03	58.51
674.17	86.60
674.31	117.03
674.45	74.90
674.59	30.43
674.73	0.00
674.87	11.70
675.01	74.90
675.15	63.19
675.29	70.22
675.43	0.00
675.56	84.26
675.70	79.58
675.84	0.00
675.98	84.26
676.12	25.75
676.26	42.13
676.40	74.90
676.54	51.49
676.68	67.88
676.82	51.49
676.96	4.68
677.10	114.69
677.23	42.13
677.37	84.26
677.51	0.00
677.65	9.36
677.79	35.11
677.93	58.51
678.07	98.30
678.21	4.68
678.34	46.81
678.48	46.81
678.62	9.36
678.76	145.11
678.90	16.38
679.04	23.41
679.18	11.70
679.31	23.41
679.45	84.26
679.59	74.90
679.73	121.71
679.87	70.22
680.00	51.49
680.14	53.83
680.28	30.43
680.42	30.43
680.56	67.88
680.70	86.60
680.83	28.09
680.97	11.70
681.11	25.75
681.25	0.00
681.39	56.17
681.52	91.28
681.66	46.81
681.80	32.77
681.94	35.11
682.07	72.56
682.21	53.83
682.35	86.60
682.49	51.49
682.62	11.70
682.76	77.24
682.90	110.01
683.04	0.00
683.17	119.37
683.31	44.47
683.45	0.00
683.59	32.77
683.72	4.68
683.86	46.81
684.00	84.26
684.13	39.79
684.27	56.17
684.41	44.47
684.55	21.06
684.68	32.77
684.82	49.15
684.96	4.68
685.09	0.00
685.23	23.41
685.37	7.02
685.50	58.51
685.64	74.90
685.78	23.41
685.91	0.00
686.05	11.70
686.19	37.45
686.32	37.45
686.46	63.19
686.60	53.83
686.73	28.09
686.87	77.24
687.01	32.77
687.14	110.01
687.28	23.41
687.42	0.00
687.55	28.09
687.69	44.47
687.82	63.19
687.96	60.85
688.10	42.13
688.23	18.72
688.37	49.15
688.50	67.88
688.64	95.96
688.78	0.00
688.91	9.36
689.05	60.85
689.18	18.72
689.32	44.47
689.46	0.00
689.59	0.00
689.73	0.00
689.86	0.00
690.00	28.09
690.13	63.19
690.27	32.77
690.41	32.77
690.54	53.83
690.68	95.96
690.81	0.00
690.95	70.22
691.08	56.17
691.22	93.62
691.35	44.47
691.49	0.00
691.62	42.13
691.76	7.02
691.89	39.79
692.03	42.13
692.16	2.34
692.30	32.77
692.43	11.70
692.57	0.00
692.70	107.66
692.84	42.13
692.97	21.06
693.11	65.54
693.24	0.00
693.38	25.75
693.51	49.15
693.65	39.79
693.78	67.88
693.92	74.90
694.05	56.17
694.19	60.85
694.32	44.47
694.45	2.34
694.59	53.83
694.72	91.28
694.86	93.62
694.99	100.64
695.13	65.54
695.26	0.00
695.39	42.13
695.53	51.49
695.66	58.51
695.80	14.04
695.93	42.13
696.07	0.00
696.20	107.66
696.33	42.13
696.47	46.81
696.60	0.00
696.73	25.75
696.87	79.58
697.00	25.75
697.14	35.11
697.27	32.77
697.40	30.43
697.54	30.43
697.67	4.68
697.80	30.43
697.94	25.75
698.07	51.49
698.21	11.70
698.34	2.34
698.47	60.85
698.61	102.98
698.74	7.02
698.87	81.92
699.01	23.41
699.14	49.15
699.27	91.28
699.40	35.11
699.54	60.85
699.67	16.38
699.80	23.41
699.94	0.00
700.07	72.56
700.20	56.17
700.34	0.00
700.47	70.22
700.60	35.11
700.73	58.51
700.87	51.49
701.00	49.15
701.13	18.72
701.26	0.00
701.40	25.75
701.53	39.79
701.66	72.56
701.79	42.13
701.93	42.13
702.06	37.45
702.19	25.75
702.32	16.38
702.46	63.19
702.59	42.13
702.72	21.06
702.85	81.92
702.99	0.00
703.12	91.28
703.25	7.02
703.38	35.11
703.51	25.75
703.65	88.94
703.78	21.06
703.91	7.02
704.04	72.56
704.17	18.72
704.31	0.00
704.44	119.37
704.57	98.30
704.70	35.11
704.83	39.79
704.96	51.49
705.10	42.13
705.23	25.75
>>>>>End Processed Spectral Data<<<<<
