SpectraSuite Data File
++++++++++++++++++++++++++++++++++++
Date: Fri Oct 04 12:13:25 GMT-05:00 2013
User: price-jones
Dark Spectrum Present: No
Reference Spectrum Present: No
Number of Sampled Component Spectra: 1
Spectrometers: USB2+H05261
Integration Time (usec): 10000 (USB2+H05261)
Spectra Averaged: 1 (USB2+H05261)
Boxcar Smoothing: 0 (USB2+H05261)
Correct for Electrical Dark: No (USB2+H05261)
Strobe/Lamp Enabled: No (USB2+H05261)
Correct for Detector Non-linearity: No (USB2+H05261)
Correct for Stray Light: No (USB2+H05261)
Number of Pixels in Processed Spectrum: 2048
>>>>>Begin Processed Spectral Data<<<<<
365.73	0.00
365.92	0.00
366.12	0.00
366.32	0.00
366.52	0.00
366.72	0.00
366.91	0.00
367.11	0.00
367.31	0.00
367.51	0.00
367.70	0.00
367.90	0.00
368.10	0.00
368.30	0.00
368.49	0.00
368.69	0.00
368.89	0.00
369.09	0.00
369.28	0.00
369.48	0.00
369.68	0.00
369.87	0.00
370.07	0.00
370.27	0.00
370.47	0.00
370.66	0.00
370.86	0.00
371.06	0.00
371.25	0.00
371.45	0.00
371.65	0.00
371.84	0.00
372.04	0.00
372.24	0.00
372.44	0.00
372.63	110.01
372.83	0.00
373.03	11.70
373.22	56.17
373.42	0.00
373.62	39.79
373.81	0.00
374.01	56.17
374.21	0.00
374.40	49.15
374.60	51.49
374.79	0.00
374.99	58.51
375.19	46.81
375.38	0.00
375.58	11.70
375.78	0.00
375.97	0.00
376.17	21.06
376.37	63.19
376.56	44.47
376.76	42.13
376.95	18.72
377.15	102.98
377.35	7.02
377.54	0.00
377.74	18.72
377.93	32.77
378.13	0.00
378.33	21.06
378.52	18.72
378.72	7.02
378.91	0.00
379.11	0.00
379.31	42.13
379.50	49.15
379.70	0.00
379.89	0.00
380.09	0.00
380.28	88.94
380.48	37.45
380.68	49.15
380.87	77.24
381.07	0.00
381.26	49.15
381.46	0.00
381.65	0.00
381.85	25.75
382.04	0.00
382.24	91.28
382.43	2.34
382.63	0.00
382.83	30.43
383.02	42.13
383.22	23.41
383.41	0.00
383.61	0.00
383.80	16.38
384.00	0.00
384.19	14.04
384.39	0.00
384.58	0.00
384.78	18.72
384.97	0.00
385.17	28.09
385.36	0.00
385.56	65.54
385.75	0.00
385.95	0.00
386.14	30.43
386.34	7.02
386.53	23.41
386.72	16.38
386.92	46.81
387.11	53.83
387.31	88.94
387.50	0.00
387.70	14.04
387.89	0.00
388.09	23.41
388.28	56.17
388.48	21.06
388.67	60.85
388.86	37.45
389.06	63.19
389.25	0.00
389.45	0.00
389.64	16.38
389.84	28.09
390.03	35.11
390.22	42.13
390.42	0.00
390.61	14.04
390.81	44.47
391.00	30.43
391.19	74.90
391.39	32.77
391.58	23.41
391.78	35.11
391.97	7.02
392.16	74.90
392.36	0.00
392.55	0.00
392.75	2.34
392.94	0.00
393.13	60.85
393.33	4.68
393.52	46.81
393.71	0.00
393.91	53.83
394.10	4.68
394.29	0.00
394.49	53.83
394.68	0.00
394.88	35.11
395.07	77.24
395.26	4.68
395.46	28.09
395.65	44.47
395.84	77.24
396.04	0.00
396.23	0.00
396.42	117.03
396.62	63.19
396.81	14.04
397.00	0.00
397.19	58.51
397.39	23.41
397.58	53.83
397.77	81.92
397.97	58.51
398.16	65.54
398.35	56.17
398.55	0.00
398.74	32.77
398.93	28.09
399.12	0.00
399.32	84.26
399.51	37.45
399.70	28.09
399.90	23.41
400.09	0.00
400.28	39.79
400.47	0.00
400.67	0.00
400.86	49.15
401.05	30.43
401.24	86.60
401.44	30.43
401.63	0.00
401.82	14.04
402.01	18.72
402.21	30.43
402.40	35.11
402.59	51.49
402.78	74.90
402.97	37.45
403.17	0.00
403.36	0.00
403.55	44.47
403.74	0.00
403.93	0.00
404.13	16.38
404.32	98.30
404.51	56.17
404.70	0.00
404.89	11.70
405.09	30.43
405.28	28.09
405.47	46.81
405.66	0.00
405.85	65.54
406.05	70.22
406.24	37.45
406.43	112.35
406.62	88.94
406.81	49.15
407.00	0.00
407.20	0.00
407.39	72.56
407.58	0.00
407.77	32.77
407.96	70.22
408.15	86.60
408.34	42.13
408.54	0.00
408.73	30.43
408.92	0.00
409.11	37.45
409.30	0.00
409.49	58.51
409.68	30.43
409.87	37.45
410.07	46.81
410.26	0.00
410.45	2.34
410.64	35.11
410.83	9.36
411.02	88.94
411.21	9.36
411.40	32.77
411.59	81.92
411.78	56.17
411.98	35.11
412.17	16.38
412.36	23.41
412.55	42.13
412.74	65.54
412.93	18.72
413.12	63.19
413.31	53.83
413.50	7.02
413.69	23.41
413.88	70.22
414.07	37.45
414.26	95.96
414.45	49.15
414.64	9.36
414.83	65.54
415.02	28.09
415.22	28.09
415.41	53.83
415.60	39.79
415.79	46.81
415.98	0.00
416.17	35.11
416.36	0.00
416.55	0.00
416.74	21.06
416.93	0.00
417.12	0.00
417.31	56.17
417.50	23.41
417.69	35.11
417.88	39.79
418.07	28.09
418.26	23.41
418.45	112.35
418.64	81.92
418.83	21.06
419.02	65.54
419.21	2.34
419.39	46.81
419.58	9.36
419.77	25.75
419.96	14.04
420.15	0.00
420.34	7.02
420.53	49.15
420.72	30.43
420.91	30.43
421.10	0.00
421.29	60.85
421.48	18.72
421.67	9.36
421.86	9.36
422.05	18.72
422.24	14.04
422.43	32.77
422.61	0.00
422.80	65.54
422.99	0.00
423.18	35.11
423.37	0.00
423.56	0.00
423.75	18.72
423.94	7.02
424.13	0.00
424.32	25.75
424.50	18.72
424.69	0.00
424.88	42.13
425.07	39.79
425.26	0.00
425.45	77.24
425.64	0.00
425.83	39.79
426.01	86.60
426.20	16.38
426.39	0.00
426.58	70.22
426.77	28.09
426.96	51.49
427.15	32.77
427.33	0.00
427.52	77.24
427.71	42.13
427.90	117.03
428.09	74.90
428.28	53.83
428.46	28.09
428.65	2.34
428.84	72.56
429.03	0.00
429.22	44.47
429.40	18.72
429.59	0.00
429.78	18.72
429.97	65.54
430.16	28.09
430.34	53.83
430.53	63.19
430.72	60.85
430.91	18.72
431.10	37.45
431.28	0.00
431.47	21.06
431.66	53.83
431.85	39.79
432.03	4.68
432.22	4.68
432.41	0.00
432.60	25.75
432.79	37.45
432.97	0.00
433.16	0.00
433.35	0.00
433.54	51.49
433.72	81.92
433.91	0.00
434.10	0.00
434.28	93.62
434.47	35.11
434.66	53.83
434.85	9.36
435.03	7.02
435.22	0.00
435.41	28.09
435.59	0.00
435.78	0.00
435.97	16.38
436.16	46.81
436.34	42.13
436.53	63.19
436.72	0.00
436.90	91.28
437.09	81.92
437.28	51.49
437.46	0.00
437.65	56.17
437.84	0.00
438.02	63.19
438.21	30.43
438.40	18.72
438.58	21.06
438.77	81.92
438.96	0.00
439.14	86.60
439.33	0.00
439.52	58.51
439.70	49.15
439.89	79.58
440.08	18.72
440.26	0.00
440.45	98.30
440.63	0.00
440.82	58.51
441.01	70.22
441.19	37.45
441.38	37.45
441.57	58.51
441.75	14.04
441.94	0.00
442.12	0.00
442.31	72.56
442.50	25.75
442.68	0.00
442.87	60.85
443.05	98.30
443.24	72.56
443.43	93.62
443.61	35.11
443.80	107.66
443.98	49.15
444.17	60.85
444.35	67.88
444.54	39.79
444.73	18.72
444.91	0.00
445.10	35.11
445.28	39.79
445.47	37.45
445.65	28.09
445.84	32.77
446.02	25.75
446.21	30.43
446.39	16.38
446.58	91.28
446.77	42.13
446.95	0.00
447.14	93.62
447.32	56.17
447.51	65.54
447.69	53.83
447.88	0.00
448.06	35.11
448.25	0.00
448.43	16.38
448.62	32.77
448.80	44.47
448.99	4.68
449.17	131.07
449.36	51.49
449.54	58.51
449.73	49.15
449.91	44.47
450.10	44.47
450.28	70.22
450.46	79.58
450.65	0.00
450.83	16.38
451.02	135.75
451.20	39.79
451.39	46.81
451.57	25.75
451.76	110.01
451.94	0.00
452.13	93.62
452.31	18.72
452.49	46.81
452.68	16.38
452.86	65.54
453.05	84.26
453.23	35.11
453.42	58.51
453.60	35.11
453.78	21.06
453.97	81.92
454.15	63.19
454.34	7.02
454.52	0.00
454.70	42.13
454.89	65.54
455.07	58.51
455.26	39.79
455.44	105.32
455.62	49.15
455.81	60.85
455.99	4.68
456.17	56.17
456.36	42.13
456.54	67.88
456.73	0.00
456.91	67.88
457.09	25.75
457.28	0.00
457.46	81.92
457.64	28.09
457.83	16.38
458.01	53.83
458.19	49.15
458.38	32.77
458.56	138.09
458.74	28.09
458.93	30.43
459.11	7.02
459.29	49.15
459.48	4.68
459.66	81.92
459.84	23.41
460.03	112.35
460.21	49.15
460.39	23.41
460.57	35.11
460.76	25.75
460.94	0.00
461.12	42.13
461.31	0.00
461.49	0.00
461.67	0.00
461.85	0.00
462.04	0.00
462.22	74.90
462.40	0.00
462.59	46.81
462.77	79.58
462.95	56.17
463.13	14.04
463.32	37.45
463.50	28.09
463.68	56.17
463.86	32.77
464.05	18.72
464.23	25.75
464.41	0.00
464.59	81.92
464.78	56.17
464.96	18.72
465.14	88.94
465.32	28.09
465.50	44.47
465.69	67.88
465.87	0.00
466.05	44.47
466.23	91.28
466.41	0.00
466.60	44.47
466.78	67.88
466.96	65.54
467.14	28.09
467.32	9.36
467.51	72.56
467.69	23.41
467.87	79.58
468.05	23.41
468.23	77.24
468.41	70.22
468.60	0.00
468.78	44.47
468.96	63.19
469.14	56.17
469.32	0.00
469.50	42.13
469.69	0.00
469.87	0.00
470.05	35.11
470.23	119.37
470.41	49.15
470.59	0.00
470.77	81.92
470.95	28.09
471.14	11.70
471.32	77.24
471.50	35.11
471.68	84.26
471.86	53.83
472.04	67.88
472.22	0.00
472.40	65.54
472.58	18.72
472.77	4.68
472.95	98.30
473.13	35.11
473.31	9.36
473.49	32.77
473.67	32.77
473.85	14.04
474.03	4.68
474.21	9.36
474.39	95.96
474.57	28.09
474.75	18.72
474.93	0.00
475.12	0.00
475.30	79.58
475.48	0.00
475.66	30.43
475.84	51.49
476.02	30.43
476.20	0.00
476.38	56.17
476.56	30.43
476.74	9.36
476.92	0.00
477.10	7.02
477.28	0.00
477.46	49.15
477.64	49.15
477.82	0.00
478.00	32.77
478.18	49.15
478.36	60.85
478.54	77.24
478.72	51.49
478.90	0.00
479.08	7.02
479.26	51.49
479.44	60.85
479.62	60.85
479.80	46.81
479.98	56.17
480.16	21.06
480.34	67.88
480.52	21.06
480.70	63.19
480.88	0.00
481.06	23.41
481.24	56.17
481.41	79.58
481.59	121.71
481.77	28.09
481.95	0.00
482.13	23.41
482.31	32.77
482.49	39.79
482.67	4.68
482.85	16.38
483.03	0.00
483.21	56.17
483.39	21.06
483.57	74.90
483.74	7.02
483.92	0.00
484.10	65.54
484.28	0.00
484.46	53.83
484.64	32.77
484.82	42.13
485.00	53.83
485.18	23.41
485.35	70.22
485.53	0.00
485.71	91.28
485.89	77.24
486.07	0.00
486.25	28.09
486.43	0.00
486.61	46.81
486.78	9.36
486.96	56.17
487.14	0.00
487.32	11.70
487.50	35.11
487.68	32.77
487.85	46.81
488.03	18.72
488.21	14.04
488.39	11.70
488.57	63.19
488.75	37.45
488.92	65.54
489.10	46.81
489.28	14.04
489.46	72.56
489.64	0.00
489.81	16.38
489.99	0.00
490.17	25.75
490.35	2.34
490.53	14.04
490.70	16.38
490.88	30.43
491.06	53.83
491.24	100.64
491.41	74.90
491.59	81.92
491.77	98.30
491.95	23.41
492.13	0.00
492.30	0.00
492.48	84.26
492.66	49.15
492.84	91.28
493.01	88.94
493.19	39.79
493.37	44.47
493.54	72.56
493.72	46.81
493.90	9.36
494.08	32.77
494.25	0.00
494.43	32.77
494.61	0.00
494.79	37.45
494.96	0.00
495.14	37.45
495.32	72.56
495.49	0.00
495.67	53.83
495.85	65.54
496.02	0.00
496.20	0.00
496.38	46.81
496.55	28.09
496.73	49.15
496.91	49.15
497.09	46.81
497.26	0.00
497.44	72.56
497.62	0.00
497.79	63.19
497.97	4.68
498.14	44.47
498.32	72.56
498.50	46.81
498.67	4.68
498.85	46.81
499.03	18.72
499.20	145.11
499.38	0.00
499.56	18.72
499.73	37.45
499.91	51.49
500.08	53.83
500.26	32.77
500.44	70.22
500.61	0.00
500.79	65.54
500.97	51.49
501.14	60.85
501.32	11.70
501.49	105.32
501.67	0.00
501.84	110.01
502.02	0.00
502.20	56.17
502.37	60.85
502.55	58.51
502.72	72.56
502.90	44.47
503.07	67.88
503.25	49.15
503.43	9.36
503.60	35.11
503.78	126.39
503.95	39.79
504.13	28.09
504.30	53.83
504.48	16.38
504.65	56.17
504.83	70.22
505.01	21.06
505.18	0.00
505.36	88.94
505.53	67.88
505.71	70.22
505.88	77.24
506.06	49.15
506.23	135.75
506.41	0.00
506.58	23.41
506.76	28.09
506.93	28.09
507.11	53.83
507.28	42.13
507.46	58.51
507.63	0.00
507.81	4.68
507.98	0.00
508.16	81.92
508.33	74.90
508.50	0.00
508.68	28.09
508.85	37.45
509.03	0.00
509.20	30.43
509.38	23.41
509.55	65.54
509.73	37.45
509.90	51.49
510.08	32.77
510.25	91.28
510.42	93.62
510.60	4.68
510.77	21.06
510.95	14.04
511.12	42.13
511.30	0.00
511.47	25.75
511.64	23.41
511.82	53.83
511.99	28.09
512.17	46.81
512.34	133.41
512.51	105.32
512.69	42.13
512.86	30.43
513.04	32.77
513.21	37.45
513.38	49.15
513.56	91.28
513.73	70.22
513.90	51.49
514.08	51.49
514.25	74.90
514.43	88.94
514.60	88.94
514.77	35.11
514.95	88.94
515.12	39.79
515.29	65.54
515.47	77.24
515.64	0.00
515.81	16.38
515.99	0.00
516.16	0.00
516.33	63.19
516.51	37.45
516.68	42.13
516.85	0.00
517.03	114.69
517.20	42.13
517.37	11.70
517.54	98.30
517.72	77.24
517.89	0.00
518.06	23.41
518.24	0.00
518.41	93.62
518.58	51.49
518.75	86.60
518.93	21.06
519.10	49.15
519.27	16.38
519.45	0.00
519.62	79.58
519.79	60.85
519.96	91.28
520.14	32.77
520.31	16.38
520.48	95.96
520.65	102.98
520.83	11.70
521.00	0.00
521.17	37.45
521.34	51.49
521.52	72.56
521.69	42.13
521.86	86.60
522.03	39.79
522.20	16.38
522.38	32.77
522.55	2.34
522.72	37.45
522.89	53.83
523.07	60.85
523.24	65.54
523.41	42.13
523.58	74.90
523.75	84.26
523.92	7.02
524.10	0.00
524.27	65.54
524.44	74.90
524.61	63.19
524.78	25.75
524.96	72.56
525.13	42.13
525.30	44.47
525.47	25.75
525.64	72.56
525.81	28.09
525.98	0.00
526.16	70.22
526.33	4.68
526.50	100.64
526.67	0.00
526.84	0.00
527.01	95.96
527.18	74.90
527.36	9.36
527.53	28.09
527.70	63.19
527.87	30.43
528.04	37.45
528.21	98.30
528.38	53.83
528.55	65.54
528.72	74.90
528.89	65.54
529.07	46.81
529.24	0.00
529.41	0.00
529.58	0.00
529.75	0.00
529.92	79.58
530.09	9.36
530.26	23.41
530.43	49.15
530.60	0.00
530.77	35.11
530.94	149.79
531.11	30.43
531.28	72.56
531.46	14.04
531.63	9.36
531.80	14.04
531.97	9.36
532.14	65.54
532.31	35.11
532.48	21.06
532.65	0.00
532.82	67.88
532.99	124.05
533.16	25.75
533.33	2.34
533.50	53.83
533.67	28.09
533.84	86.60
534.01	56.17
534.18	42.13
534.35	0.00
534.52	2.34
534.69	0.00
534.86	0.00
535.03	37.45
535.20	93.62
535.37	51.49
535.54	23.41
535.71	128.73
535.88	53.83
536.05	16.38
536.22	88.94
536.38	30.43
536.55	35.11
536.72	9.36
536.89	37.45
537.06	128.73
537.23	0.00
537.40	0.00
537.57	42.13
537.74	74.90
537.91	60.85
538.08	0.00
538.25	28.09
538.42	0.00
538.59	79.58
538.75	72.56
538.92	51.49
539.09	30.43
539.26	39.79
539.43	4.68
539.60	105.32
539.77	53.83
539.94	30.43
540.11	44.47
540.28	79.58
540.44	39.79
540.61	7.02
540.78	77.24
540.95	63.19
541.12	25.75
541.29	44.47
541.46	79.58
541.62	44.47
541.79	23.41
541.96	74.90
542.13	93.62
542.30	77.24
542.47	0.00
542.63	30.43
542.80	25.75
542.97	77.24
543.14	70.22
543.31	18.72
543.48	0.00
543.64	14.04
543.81	0.00
543.98	0.00
544.15	42.13
544.32	25.75
544.48	28.09
544.65	0.00
544.82	35.11
544.99	32.77
545.16	30.43
545.32	0.00
545.49	7.02
545.66	53.83
545.83	2.34
546.00	91.28
546.16	49.15
546.33	14.04
546.50	0.00
546.67	46.81
546.83	9.36
547.00	56.17
547.17	23.41
547.34	98.30
547.50	53.83
547.67	56.17
547.84	0.00
548.00	2.34
548.17	0.00
548.34	98.30
548.51	88.94
548.67	98.30
548.84	105.32
549.01	49.15
549.18	79.58
549.34	32.77
549.51	23.41
549.68	124.05
549.84	25.75
550.01	53.83
550.18	56.17
550.34	35.11
550.51	49.15
550.68	42.13
550.84	77.24
551.01	60.85
551.18	95.96
551.34	11.70
551.51	37.45
551.68	18.72
551.84	37.45
552.01	93.62
552.18	56.17
552.34	84.26
552.51	51.49
552.68	4.68
552.84	44.47
553.01	21.06
553.18	74.90
553.34	44.47
553.51	46.81
553.67	46.81
553.84	56.17
554.01	37.45
554.17	88.94
554.34	60.85
554.51	7.02
554.67	2.34
554.84	39.79
555.00	28.09
555.17	0.00
555.33	51.49
555.50	21.06
555.67	7.02
555.83	7.02
556.00	14.04
556.16	28.09
556.33	39.79
556.50	9.36
556.66	18.72
556.83	42.13
556.99	11.70
557.16	63.19
557.32	25.75
557.49	28.09
557.65	30.43
557.82	32.77
557.98	51.49
558.15	0.00
558.32	110.01
558.48	42.13
558.65	0.00
558.81	46.81
558.98	56.17
559.14	0.00
559.31	133.41
559.47	60.85
559.64	0.00
559.80	65.54
559.97	72.56
560.13	63.19
560.30	49.15
560.46	25.75
560.63	0.00
560.79	63.19
560.96	4.68
561.12	58.51
561.29	0.00
561.45	23.41
561.61	0.00
561.78	98.30
561.94	9.36
562.11	102.98
562.27	30.43
562.44	35.11
562.60	84.26
562.77	91.28
562.93	32.77
563.10	28.09
563.26	0.00
563.42	2.34
563.59	28.09
563.75	35.11
563.92	56.17
564.08	16.38
564.24	58.51
564.41	2.34
564.57	53.83
564.74	138.09
564.90	37.45
565.07	18.72
565.23	145.11
565.39	46.81
565.56	4.68
565.72	23.41
565.88	32.77
566.05	11.70
566.21	0.00
566.38	16.38
566.54	37.45
566.70	0.00
566.87	11.70
567.03	37.45
567.19	58.51
567.36	30.43
567.52	53.83
567.68	44.47
567.85	9.36
568.01	51.49
568.17	44.47
568.34	28.09
568.50	0.00
568.66	42.13
568.83	0.00
568.99	88.94
569.15	0.00
569.32	25.75
569.48	126.39
569.64	11.70
569.81	65.54
569.97	0.00
570.13	0.00
570.30	72.56
570.46	67.88
570.62	107.66
570.78	74.90
570.95	0.00
571.11	95.96
571.27	0.00
571.43	98.30
571.60	77.24
571.76	95.96
571.92	58.51
572.09	2.34
572.25	102.98
572.41	46.81
572.57	0.00
572.74	53.83
572.90	79.58
573.06	49.15
573.22	42.13
573.38	32.77
573.55	44.47
573.71	70.22
573.87	9.36
574.03	0.00
574.20	53.83
574.36	21.06
574.52	37.45
574.68	0.00
574.84	49.15
575.01	18.72
575.17	0.00
575.33	67.88
575.49	0.00
575.65	0.00
575.82	88.94
575.98	25.75
576.14	25.75
576.30	84.26
576.46	56.17
576.62	70.22
576.79	44.47
576.95	35.11
577.11	32.77
577.27	25.75
577.43	42.13
577.59	74.90
577.75	30.43
577.92	23.41
578.08	0.00
578.24	2.34
578.40	53.83
578.56	23.41
578.72	32.77
578.88	39.79
579.04	0.00
579.21	77.24
579.37	44.47
579.53	0.00
579.69	18.72
579.85	9.36
580.01	58.51
580.17	7.02
580.33	11.70
580.49	102.98
580.65	77.24
580.82	25.75
580.98	105.32
581.14	63.19
581.30	0.00
581.46	91.28
581.62	21.06
581.78	114.69
581.94	25.75
582.10	0.00
582.26	88.94
582.42	37.45
582.58	0.00
582.74	65.54
582.90	100.64
583.06	70.22
583.22	49.15
583.38	0.00
583.54	28.09
583.70	28.09
583.86	79.58
584.02	53.83
584.18	37.45
584.34	81.92
584.50	91.28
584.66	245.76
584.82	358.10
584.98	423.64
585.14	369.80
585.30	255.12
585.46	175.54
585.62	91.28
585.78	88.94
585.94	25.75
586.10	81.92
586.26	18.72
586.42	58.51
586.58	95.96
586.74	0.00
586.90	0.00
587.06	18.72
587.22	0.00
587.38	23.41
587.54	107.66
587.70	23.41
587.86	86.60
588.02	0.00
588.18	51.49
588.34	0.00
588.49	32.77
588.65	0.00
588.81	86.60
588.97	60.85
589.13	98.30
589.29	56.17
589.45	23.41
589.61	37.45
589.77	81.92
589.93	135.75
590.08	0.00
590.24	60.85
590.40	0.00
590.56	79.58
590.72	9.36
590.88	0.00
591.04	18.72
591.20	74.90
591.35	44.47
591.51	0.00
591.67	0.00
591.83	9.36
591.99	44.47
592.15	46.81
592.31	58.51
592.46	49.15
592.62	39.79
592.78	35.11
592.94	4.68
593.10	7.02
593.26	102.98
593.41	95.96
593.57	60.85
593.73	91.28
593.89	44.47
594.05	67.88
594.20	98.30
594.36	145.11
594.52	91.28
594.68	100.64
594.84	67.88
594.99	7.02
595.15	14.04
595.31	60.85
595.47	2.34
595.62	23.41
595.78	2.34
595.94	53.83
596.10	42.13
596.25	0.00
596.41	42.13
596.57	42.13
596.73	9.36
596.88	42.13
597.04	21.06
597.20	46.81
597.36	53.83
597.51	65.54
597.67	63.19
597.83	77.24
597.99	16.38
598.14	53.83
598.30	91.28
598.46	63.19
598.61	63.19
598.77	53.83
598.93	0.00
599.09	23.41
599.24	42.13
599.40	102.98
599.56	112.35
599.71	11.70
599.87	7.02
600.03	14.04
600.18	2.34
600.34	11.70
600.50	88.94
600.65	98.30
600.81	88.94
600.97	60.85
601.12	56.17
601.28	0.00
601.44	46.81
601.59	0.00
601.75	44.47
601.91	4.68
602.06	58.51
602.22	11.70
602.37	65.54
602.53	88.94
602.69	49.15
602.84	28.09
603.00	79.58
603.16	46.81
603.31	44.47
603.47	114.69
603.62	65.54
603.78	102.98
603.94	25.75
604.09	7.02
604.25	88.94
604.40	44.47
604.56	56.17
604.71	42.13
604.87	60.85
605.03	0.00
605.18	77.24
605.34	100.64
605.49	63.19
605.65	0.00
605.80	70.22
605.96	37.45
606.12	0.00
606.27	77.24
606.43	18.72
606.58	0.00
606.74	7.02
606.89	21.06
607.05	98.30
607.20	114.69
607.36	74.90
607.51	100.64
607.67	56.17
607.82	63.19
607.98	0.00
608.13	0.00
608.29	25.75
608.44	39.79
608.60	51.49
608.75	21.06
608.91	49.15
609.06	74.90
609.22	117.03
609.37	98.30
609.53	7.02
609.68	0.00
609.84	100.64
609.99	23.41
610.15	23.41
610.30	63.19
610.46	18.72
610.61	56.17
610.76	79.58
610.92	49.15
611.07	0.00
611.23	102.98
611.38	107.66
611.54	42.13
611.69	28.09
611.84	11.70
612.00	60.85
612.15	0.00
612.31	25.75
612.46	39.79
612.62	32.77
612.77	88.94
612.92	105.32
613.08	51.49
613.23	95.96
613.39	37.45
613.54	21.06
613.69	42.13
613.85	105.32
614.00	124.05
614.15	187.24
614.31	124.05
614.46	70.22
614.62	67.88
614.77	102.98
614.92	56.17
615.08	18.72
615.23	35.11
615.38	7.02
615.54	88.94
615.69	77.24
615.84	65.54
616.00	65.54
616.15	25.75
616.30	63.19
616.46	53.83
616.61	51.49
616.76	70.22
616.92	21.06
617.07	7.02
617.22	4.68
617.37	39.79
617.53	0.00
617.68	46.81
617.83	84.26
617.99	67.88
618.14	65.54
618.29	88.94
618.45	37.45
618.60	53.83
618.75	30.43
618.90	28.09
619.06	23.41
619.21	37.45
619.36	16.38
619.51	9.36
619.67	65.54
619.82	14.04
619.97	65.54
620.12	126.39
620.28	35.11
620.43	23.41
620.58	0.00
620.73	114.69
620.89	0.00
621.04	0.00
621.19	58.51
621.34	77.24
621.49	18.72
621.65	28.09
621.80	53.83
621.95	0.00
622.10	11.70
622.25	53.83
622.41	58.51
622.56	25.75
622.71	98.30
622.86	63.19
623.01	166.18
623.16	110.01
623.32	16.38
623.47	70.22
623.62	51.49
623.77	0.00
623.92	35.11
624.07	0.00
624.23	0.00
624.38	74.90
624.53	56.17
624.68	0.00
624.83	14.04
624.98	28.09
625.13	58.51
625.29	0.00
625.44	7.02
625.59	121.71
625.74	79.58
625.89	16.38
626.04	46.81
626.19	63.19
626.34	102.98
626.49	110.01
626.65	84.26
626.80	84.26
626.95	88.94
627.10	72.56
627.25	60.85
627.40	32.77
627.55	56.17
627.70	42.13
627.85	18.72
628.00	23.41
628.15	28.09
628.30	95.96
628.45	21.06
628.60	63.19
628.76	67.88
628.91	9.36
629.06	18.72
629.21	60.85
629.36	63.19
629.51	2.34
629.66	9.36
629.81	77.24
629.96	93.62
630.11	28.09
630.26	18.72
630.41	14.04
630.56	0.00
630.71	25.75
630.86	0.00
631.01	105.32
631.16	100.64
631.31	23.41
631.46	23.41
631.61	42.13
631.76	11.70
631.91	93.62
632.06	11.70
632.21	49.15
632.36	0.00
632.51	37.45
632.66	25.75
632.81	11.70
632.96	30.43
633.10	74.90
633.25	121.71
633.40	21.06
633.55	30.43
633.70	74.90
633.85	107.66
634.00	44.47
634.15	0.00
634.30	58.51
634.45	37.45
634.60	42.13
634.75	39.79
634.90	14.04
635.05	0.00
635.19	30.43
635.34	21.06
635.49	58.51
635.64	0.00
635.79	49.15
635.94	88.94
636.09	49.15
636.24	51.49
636.39	58.51
636.53	0.00
636.68	70.22
636.83	11.70
636.98	46.81
637.13	25.75
637.28	32.77
637.43	25.75
637.57	107.66
637.72	72.56
637.87	86.60
638.02	53.83
638.17	88.94
638.32	100.64
638.46	67.88
638.61	79.58
638.76	23.41
638.91	37.45
639.06	0.00
639.20	21.06
639.35	0.00
639.50	51.49
639.65	72.56
639.80	149.79
639.94	142.77
640.09	107.66
640.24	147.45
640.39	91.28
640.54	56.17
640.68	16.38
640.83	86.60
640.98	42.13
641.13	0.00
641.27	11.70
641.42	0.00
641.57	53.83
641.72	49.15
641.86	0.00
642.01	53.83
642.16	58.51
642.31	39.79
642.45	0.00
642.60	30.43
642.75	21.06
642.90	30.43
643.04	21.06
643.19	0.00
643.34	18.72
643.48	28.09
643.63	44.47
643.78	21.06
643.93	110.01
644.07	0.00
644.22	91.28
644.37	28.09
644.51	14.04
644.66	74.90
644.81	44.47
644.95	2.34
645.10	32.77
645.25	25.75
645.39	0.00
645.54	79.58
645.69	42.13
645.83	65.54
645.98	53.83
646.13	53.83
646.27	49.15
646.42	39.79
646.57	42.13
646.71	53.83
646.86	58.51
647.00	37.45
647.15	0.00
647.30	58.51
647.44	25.75
647.59	16.38
647.74	39.79
647.88	4.68
648.03	4.68
648.17	25.75
648.32	56.17
648.47	79.58
648.61	49.15
648.76	42.13
648.90	46.81
649.05	58.51
649.20	7.02
649.34	60.85
649.49	56.17
649.63	23.41
649.78	53.83
649.92	44.47
650.07	32.77
650.21	72.56
650.36	168.52
650.51	51.49
650.65	133.41
650.80	93.62
650.94	49.15
651.09	25.75
651.23	37.45
651.38	74.90
651.52	74.90
651.67	81.92
651.81	44.47
651.96	35.11
652.10	39.79
652.25	44.47
652.39	49.15
652.54	23.41
652.68	74.90
652.83	79.58
652.97	0.00
653.12	81.92
653.26	18.72
653.41	39.79
653.55	46.81
653.70	91.28
653.84	39.79
653.99	49.15
654.13	7.02
654.27	70.22
654.42	0.00
654.56	0.00
654.71	51.49
654.85	0.00
655.00	49.15
655.14	105.32
655.29	14.04
655.43	60.85
655.57	56.17
655.72	39.79
655.86	16.38
656.01	49.15
656.15	0.00
656.30	42.13
656.44	0.00
656.58	2.34
656.73	25.75
656.87	32.77
657.01	49.15
657.16	0.00
657.30	0.00
657.45	42.13
657.59	35.11
657.73	21.06
657.88	0.00
658.02	37.45
658.16	0.00
658.31	21.06
658.45	0.00
658.60	65.54
658.74	35.11
658.88	32.77
659.03	51.49
659.17	0.00
659.31	56.17
659.46	84.26
659.60	16.38
659.74	77.24
659.89	35.11
660.03	70.22
660.17	35.11
660.32	0.00
660.46	53.83
660.60	16.38
660.74	0.00
660.89	7.02
661.03	0.00
661.17	0.00
661.32	0.00
661.46	124.05
661.60	44.47
661.74	14.04
661.89	2.34
662.03	56.17
662.17	0.00
662.31	25.75
662.46	9.36
662.60	112.35
662.74	16.38
662.88	0.00
663.03	0.00
663.17	88.94
663.31	70.22
663.45	0.00
663.60	9.36
663.74	25.75
663.88	28.09
664.02	98.30
664.17	44.47
664.31	4.68
664.45	53.83
664.59	32.77
664.73	84.26
664.88	100.64
665.02	42.13
665.16	51.49
665.30	0.00
665.44	2.34
665.59	37.45
665.73	32.77
665.87	18.72
666.01	0.00
666.15	46.81
666.29	0.00
666.44	0.00
666.58	37.45
666.72	63.19
666.86	16.38
667.00	58.51
667.14	49.15
667.28	37.45
667.43	35.11
667.57	39.79
667.71	35.11
667.85	65.54
667.99	0.00
668.13	60.85
668.27	53.83
668.41	9.36
668.56	53.83
668.70	79.58
668.84	60.85
668.98	11.70
669.12	0.00
669.26	86.60
669.40	30.43
669.54	30.43
669.68	79.58
669.82	18.72
669.96	18.72
670.10	0.00
670.25	18.72
670.39	126.39
670.53	32.77
670.67	18.72
670.81	126.39
670.95	44.47
671.09	11.70
671.23	58.51
671.37	58.51
671.51	77.24
671.65	93.62
671.79	11.70
671.93	25.75
672.07	60.85
672.21	56.17
672.35	44.47
672.49	14.04
672.63	42.13
672.77	23.41
672.91	25.75
673.05	2.34
673.19	63.19
673.33	46.81
673.47	46.81
673.61	25.75
673.75	60.85
673.89	39.79
674.03	0.00
674.17	60.85
674.31	86.60
674.45	37.45
674.59	28.09
674.73	30.43
674.87	0.00
675.01	0.00
675.15	4.68
675.29	72.56
675.43	9.36
675.56	0.00
675.70	16.38
675.84	51.49
675.98	7.02
676.12	0.00
676.26	9.36
676.40	0.00
676.54	58.51
676.68	56.17
676.82	14.04
676.96	0.00
677.10	44.47
677.23	0.00
677.37	16.38
677.51	0.00
677.65	56.17
677.79	63.19
677.93	58.51
678.07	4.68
678.21	0.00
678.34	9.36
678.48	18.72
678.62	44.47
678.76	67.88
678.90	79.58
679.04	0.00
679.18	0.00
679.31	39.79
679.45	0.00
679.59	79.58
679.73	53.83
679.87	46.81
680.00	56.17
680.14	56.17
680.28	21.06
680.42	49.15
680.56	0.00
680.70	32.77
680.83	51.49
680.97	0.00
681.11	93.62
681.25	0.00
681.39	0.00
681.52	0.00
681.66	7.02
681.80	53.83
681.94	21.06
682.07	7.02
682.21	32.77
682.35	74.90
682.49	18.72
682.62	4.68
682.76	95.96
682.90	30.43
683.04	9.36
683.17	37.45
683.31	56.17
683.45	81.92
683.59	0.00
683.72	21.06
683.86	25.75
684.00	72.56
684.13	9.36
684.27	60.85
684.41	0.00
684.55	0.00
684.68	23.41
684.82	0.00
684.96	0.00
685.09	4.68
685.23	105.32
685.37	21.06
685.50	86.60
685.64	0.00
685.78	79.58
685.91	32.77
686.05	88.94
686.19	32.77
686.32	0.00
686.46	51.49
686.60	0.00
686.73	65.54
686.87	74.90
687.01	37.45
687.14	0.00
687.28	0.00
687.42	44.47
687.55	0.00
687.69	21.06
687.82	95.96
687.96	49.15
688.10	23.41
688.23	0.00
688.37	37.45
688.50	0.00
688.64	32.77
688.78	11.70
688.91	14.04
689.05	51.49
689.18	110.01
689.32	46.81
689.46	81.92
689.59	0.00
689.73	74.90
689.86	67.88
690.00	11.70
690.13	0.00
690.27	0.00
690.41	30.43
690.54	28.09
690.68	39.79
690.81	42.13
690.95	0.00
691.08	65.54
691.22	32.77
691.35	0.00
691.49	0.00
691.62	14.04
691.76	81.92
691.89	11.70
692.03	11.70
692.16	63.19
692.30	70.22
692.43	42.13
692.57	63.19
692.70	67.88
692.84	102.98
692.97	9.36
693.11	0.00
693.24	18.72
693.38	44.47
693.51	16.38
693.65	49.15
693.78	110.01
693.92	32.77
694.05	51.49
694.19	32.77
694.32	44.47
694.45	30.43
694.59	28.09
694.72	44.47
694.86	32.77
694.99	98.30
695.13	0.00
695.26	0.00
695.39	39.79
695.53	107.66
695.66	25.75
695.80	37.45
695.93	0.00
696.07	0.00
696.20	28.09
696.33	79.58
696.47	46.81
696.60	39.79
696.73	56.17
696.87	65.54
697.00	63.19
697.14	32.77
697.27	0.00
697.40	0.00
697.54	63.19
697.67	81.92
697.80	63.19
697.94	0.00
698.07	0.00
698.21	39.79
698.34	21.06
698.47	0.00
698.61	67.88
698.74	0.00
698.87	21.06
699.01	0.00
699.14	0.00
699.27	65.54
699.40	49.15
699.54	23.41
699.67	81.92
699.80	58.51
699.94	32.77
700.07	63.19
700.20	4.68
700.34	0.00
700.47	23.41
700.60	32.77
700.73	0.00
700.87	9.36
701.00	88.94
701.13	84.26
701.26	79.58
701.40	0.00
701.53	9.36
701.66	0.00
701.79	16.38
701.93	14.04
702.06	42.13
702.19	60.85
702.32	0.00
702.46	14.04
702.59	28.09
702.72	0.00
702.85	56.17
702.99	86.60
703.12	30.43
703.25	51.49
703.38	23.41
703.51	21.06
703.65	42.13
703.78	44.47
703.91	4.68
704.04	102.98
704.17	7.02
704.31	70.22
704.44	0.00
704.57	86.60
704.70	60.85
704.83	42.13
704.96	23.41
705.10	0.00
705.23	23.41
>>>>>End Processed Spectral Data<<<<<
