SpectraSuite Data File
++++++++++++++++++++++++++++++++++++
Date: Fri Oct 04 12:13:35 GMT-05:00 2013
User: price-jones
Dark Spectrum Present: No
Reference Spectrum Present: No
Number of Sampled Component Spectra: 1
Spectrometers: USB2+H05261
Integration Time (usec): 10000 (USB2+H05261)
Spectra Averaged: 1 (USB2+H05261)
Boxcar Smoothing: 0 (USB2+H05261)
Correct for Electrical Dark: No (USB2+H05261)
Strobe/Lamp Enabled: No (USB2+H05261)
Correct for Detector Non-linearity: No (USB2+H05261)
Correct for Stray Light: No (USB2+H05261)
Number of Pixels in Processed Spectrum: 2048
>>>>>Begin Processed Spectral Data<<<<<
365.73	0.00
365.92	0.00
366.12	0.00
366.32	0.00
366.52	0.00
366.72	0.00
366.91	0.00
367.11	0.00
367.31	0.00
367.51	0.00
367.70	0.00
367.90	0.00
368.10	0.00
368.30	0.00
368.49	0.00
368.69	0.00
368.89	0.00
369.09	0.00
369.28	0.00
369.48	0.00
369.68	0.00
369.87	0.00
370.07	0.00
370.27	14.04
370.47	0.00
370.66	0.00
370.86	0.00
371.06	0.00
371.25	0.00
371.45	0.00
371.65	0.00
371.84	0.00
372.04	46.81
372.24	0.00
372.44	0.00
372.63	0.00
372.83	0.00
373.03	56.17
373.22	39.79
373.42	14.04
373.62	11.70
373.81	37.45
374.01	58.51
374.21	88.94
374.40	25.75
374.60	58.51
374.79	44.47
374.99	37.45
375.19	11.70
375.38	35.11
375.58	102.98
375.78	18.72
375.97	67.88
376.17	42.13
376.37	58.51
376.56	35.11
376.76	18.72
376.95	65.54
377.15	65.54
377.35	0.00
377.54	11.70
377.74	25.75
377.93	32.77
378.13	7.02
378.33	70.22
378.52	21.06
378.72	0.00
378.91	23.41
379.11	18.72
379.31	72.56
379.50	0.00
379.70	14.04
379.89	49.15
380.09	60.85
380.28	0.00
380.48	42.13
380.68	25.75
380.87	14.04
381.07	0.00
381.26	0.00
381.46	0.00
381.65	0.00
381.85	35.11
382.04	0.00
382.24	0.00
382.43	0.00
382.63	21.06
382.83	0.00
383.02	9.36
383.22	56.17
383.41	23.41
383.61	72.56
383.80	65.54
384.00	77.24
384.19	67.88
384.39	0.00
384.58	21.06
384.78	11.70
384.97	37.45
385.17	35.11
385.36	2.34
385.56	0.00
385.75	58.51
385.95	51.49
386.14	0.00
386.34	0.00
386.53	51.49
386.72	18.72
386.92	0.00
387.11	28.09
387.31	46.81
387.50	65.54
387.70	18.72
387.89	21.06
388.09	18.72
388.28	14.04
388.48	0.00
388.67	60.85
388.86	9.36
389.06	37.45
389.25	0.00
389.45	63.19
389.64	0.00
389.84	30.43
390.03	9.36
390.22	88.94
390.42	18.72
390.61	30.43
390.81	37.45
391.00	86.60
391.19	30.43
391.39	44.47
391.58	72.56
391.78	0.00
391.97	49.15
392.16	60.85
392.36	0.00
392.55	0.00
392.75	2.34
392.94	0.00
393.13	0.00
393.33	28.09
393.52	70.22
393.71	46.81
393.91	81.92
394.10	21.06
394.29	28.09
394.49	110.01
394.68	56.17
394.88	25.75
395.07	39.79
395.26	25.75
395.46	0.00
395.65	16.38
395.84	0.00
396.04	0.00
396.23	93.62
396.42	0.00
396.62	81.92
396.81	11.70
397.00	30.43
397.19	18.72
397.39	58.51
397.58	25.75
397.77	35.11
397.97	67.88
398.16	0.00
398.35	18.72
398.55	11.70
398.74	7.02
398.93	16.38
399.12	16.38
399.32	0.00
399.51	65.54
399.70	39.79
399.90	56.17
400.09	0.00
400.28	58.51
400.47	60.85
400.67	53.83
400.86	0.00
401.05	30.43
401.24	0.00
401.44	0.00
401.63	16.38
401.82	0.00
402.01	0.00
402.21	30.43
402.40	63.19
402.59	25.75
402.78	0.00
402.97	14.04
403.17	35.11
403.36	0.00
403.55	7.02
403.74	32.77
403.93	0.00
404.13	9.36
404.32	53.83
404.51	0.00
404.70	91.28
404.89	0.00
405.09	11.70
405.28	23.41
405.47	58.51
405.66	28.09
405.85	39.79
406.05	37.45
406.24	35.11
406.43	63.19
406.62	16.38
406.81	0.00
407.00	112.35
407.20	91.28
407.39	21.06
407.58	28.09
407.77	2.34
407.96	0.00
408.15	7.02
408.34	53.83
408.54	86.60
408.73	86.60
408.92	46.81
409.11	81.92
409.30	0.00
409.49	39.79
409.68	81.92
409.87	9.36
410.07	21.06
410.26	9.36
410.45	18.72
410.64	11.70
410.83	18.72
411.02	39.79
411.21	51.49
411.40	37.45
411.59	51.49
411.78	0.00
411.98	56.17
412.17	46.81
412.36	110.01
412.55	56.17
412.74	0.00
412.93	30.43
413.12	63.19
413.31	0.00
413.50	56.17
413.69	107.66
413.88	0.00
414.07	133.41
414.26	14.04
414.45	112.35
414.64	46.81
414.83	63.19
415.02	51.49
415.22	35.11
415.41	110.01
415.60	63.19
415.79	53.83
415.98	39.79
416.17	2.34
416.36	18.72
416.55	21.06
416.74	0.00
416.93	39.79
417.12	51.49
417.31	81.92
417.50	77.24
417.69	28.09
417.88	42.13
418.07	30.43
418.26	51.49
418.45	30.43
418.64	7.02
418.83	35.11
419.02	63.19
419.21	30.43
419.39	88.94
419.58	39.79
419.77	0.00
419.96	51.49
420.15	25.75
420.34	46.81
420.53	0.00
420.72	79.58
420.91	81.92
421.10	16.38
421.29	32.77
421.48	142.77
421.67	0.00
421.86	0.00
422.05	72.56
422.24	67.88
422.43	21.06
422.61	25.75
422.80	60.85
422.99	4.68
423.18	28.09
423.37	30.43
423.56	0.00
423.75	28.09
423.94	4.68
424.13	30.43
424.32	18.72
424.50	65.54
424.69	56.17
424.88	28.09
425.07	58.51
425.26	42.13
425.45	4.68
425.64	18.72
425.83	44.47
426.01	81.92
426.20	117.03
426.39	67.88
426.58	28.09
426.77	14.04
426.96	72.56
427.15	72.56
427.33	49.15
427.52	56.17
427.71	49.15
427.90	0.00
428.09	128.73
428.28	0.00
428.46	23.41
428.65	35.11
428.84	44.47
429.03	58.51
429.22	53.83
429.40	23.41
429.59	11.70
429.78	98.30
429.97	23.41
430.16	110.01
430.34	72.56
430.53	21.06
430.72	32.77
430.91	56.17
431.10	72.56
431.28	0.00
431.47	51.49
431.66	0.00
431.85	0.00
432.03	67.88
432.22	84.26
432.41	18.72
432.60	39.79
432.79	9.36
432.97	30.43
433.16	91.28
433.35	74.90
433.54	35.11
433.72	56.17
433.91	4.68
434.10	51.49
434.28	86.60
434.47	0.00
434.66	53.83
434.85	0.00
435.03	0.00
435.22	77.24
435.41	18.72
435.59	53.83
435.78	65.54
435.97	37.45
436.16	25.75
436.34	46.81
436.53	42.13
436.72	70.22
436.90	30.43
437.09	37.45
437.28	100.64
437.46	102.98
437.65	86.60
437.84	60.85
438.02	9.36
438.21	30.43
438.40	56.17
438.58	74.90
438.77	46.81
438.96	2.34
439.14	46.81
439.33	72.56
439.52	93.62
439.70	98.30
439.89	9.36
440.08	70.22
440.26	46.81
440.45	67.88
440.63	0.00
440.82	60.85
441.01	25.75
441.19	18.72
441.38	21.06
441.57	65.54
441.75	7.02
441.94	0.00
442.12	60.85
442.31	88.94
442.50	102.98
442.68	72.56
442.87	74.90
443.05	70.22
443.24	7.02
443.43	39.79
443.61	58.51
443.80	42.13
443.98	35.11
444.17	0.00
444.35	28.09
444.54	121.71
444.73	0.00
444.91	91.28
445.10	35.11
445.28	65.54
445.47	93.62
445.65	44.47
445.84	49.15
446.02	56.17
446.21	51.49
446.39	86.60
446.58	67.88
446.77	9.36
446.95	51.49
447.14	42.13
447.32	65.54
447.51	53.83
447.69	7.02
447.88	60.85
448.06	51.49
448.25	0.00
448.43	0.00
448.62	0.00
448.80	16.38
448.99	79.58
449.17	135.75
449.36	4.68
449.54	21.06
449.73	74.90
449.91	117.03
450.10	14.04
450.28	91.28
450.46	107.66
450.65	42.13
450.83	74.90
451.02	74.90
451.20	7.02
451.39	72.56
451.57	126.39
451.76	126.39
451.94	28.09
452.13	0.00
452.31	0.00
452.49	74.90
452.68	30.43
452.86	14.04
453.05	58.51
453.23	28.09
453.42	53.83
453.60	35.11
453.78	98.30
453.97	56.17
454.15	84.26
454.34	81.92
454.52	28.09
454.70	51.49
454.89	56.17
455.07	67.88
455.26	60.85
455.44	9.36
455.62	81.92
455.81	37.45
455.99	44.47
456.17	77.24
456.36	51.49
456.54	0.00
456.73	14.04
456.91	49.15
457.09	84.26
457.28	21.06
457.46	81.92
457.64	98.30
457.83	84.26
458.01	65.54
458.19	23.41
458.38	107.66
458.56	39.79
458.74	79.58
458.93	58.51
459.11	107.66
459.29	14.04
459.48	67.88
459.66	77.24
459.84	37.45
460.03	21.06
460.21	79.58
460.39	2.34
460.57	11.70
460.76	105.32
460.94	0.00
461.12	51.49
461.31	88.94
461.49	121.71
461.67	105.32
461.85	128.73
462.04	128.73
462.22	74.90
462.40	117.03
462.59	28.09
462.77	65.54
462.95	70.22
463.13	86.60
463.32	91.28
463.50	124.05
463.68	39.79
463.86	7.02
464.05	91.28
464.23	46.81
464.41	53.83
464.59	23.41
464.78	42.13
464.96	44.47
465.14	0.00
465.32	30.43
465.50	56.17
465.69	32.77
465.87	9.36
466.05	67.88
466.23	21.06
466.41	60.85
466.60	93.62
466.78	0.00
466.96	79.58
467.14	100.64
467.32	37.45
467.51	0.00
467.69	25.75
467.87	56.17
468.05	81.92
468.23	60.85
468.41	46.81
468.60	65.54
468.78	30.43
468.96	4.68
469.14	23.41
469.32	56.17
469.50	46.81
469.69	7.02
469.87	39.79
470.05	91.28
470.23	53.83
470.41	28.09
470.59	37.45
470.77	77.24
470.95	0.00
471.14	0.00
471.32	51.49
471.50	84.26
471.68	51.49
471.86	100.64
472.04	35.11
472.22	88.94
472.40	35.11
472.58	16.38
472.77	25.75
472.95	0.00
473.13	135.75
473.31	117.03
473.49	177.88
473.67	63.19
473.85	60.85
474.03	102.98
474.21	63.19
474.39	95.96
474.57	105.32
474.75	9.36
474.93	51.49
475.12	11.70
475.30	32.77
475.48	4.68
475.66	44.47
475.84	44.47
476.02	0.00
476.20	81.92
476.38	39.79
476.56	84.26
476.74	88.94
476.92	77.24
477.10	100.64
477.28	98.30
477.46	44.47
477.64	46.81
477.82	58.51
478.00	60.85
478.18	16.38
478.36	0.00
478.54	60.85
478.72	53.83
478.90	18.72
479.08	11.70
479.26	88.94
479.44	100.64
479.62	28.09
479.80	149.79
479.98	28.09
480.16	16.38
480.34	107.66
480.52	77.24
480.70	98.30
480.88	114.69
481.06	35.11
481.24	60.85
481.41	131.07
481.59	70.22
481.77	32.77
481.95	72.56
482.13	72.56
482.31	86.60
482.49	37.45
482.67	56.17
482.85	110.01
483.03	102.98
483.21	88.94
483.39	63.19
483.57	56.17
483.74	65.54
483.92	74.90
484.10	79.58
484.28	79.58
484.46	21.06
484.64	35.11
484.82	72.56
485.00	77.24
485.18	42.13
485.35	4.68
485.53	58.51
485.71	100.64
485.89	14.04
486.07	93.62
486.25	49.15
486.43	100.64
486.61	56.17
486.78	100.64
486.96	56.17
487.14	100.64
487.32	77.24
487.50	18.72
487.68	81.92
487.85	49.15
488.03	95.96
488.21	84.26
488.39	65.54
488.57	63.19
488.75	56.17
488.92	81.92
489.10	28.09
489.28	16.38
489.46	9.36
489.64	56.17
489.81	23.41
489.99	74.90
490.17	149.79
490.35	102.98
490.53	65.54
490.70	100.64
490.88	58.51
491.06	88.94
491.24	32.77
491.41	72.56
491.59	77.24
491.77	86.60
491.95	72.56
492.13	30.43
492.30	53.83
492.48	25.75
492.66	63.19
492.84	81.92
493.01	77.24
493.19	86.60
493.37	0.00
493.54	21.06
493.72	42.13
493.90	51.49
494.08	112.35
494.25	91.28
494.43	63.19
494.61	56.17
494.79	79.58
494.96	173.20
495.14	63.19
495.32	56.17
495.49	58.51
495.67	93.62
495.85	63.19
496.02	70.22
496.20	128.73
496.38	58.51
496.55	138.09
496.73	65.54
496.91	95.96
497.09	37.45
497.26	42.13
497.44	35.11
497.62	39.79
497.79	46.81
497.97	65.54
498.14	86.60
498.32	65.54
498.50	39.79
498.67	105.32
498.85	84.26
499.03	147.45
499.20	70.22
499.38	79.58
499.56	67.88
499.73	63.19
499.91	30.43
500.08	88.94
500.26	42.13
500.44	98.30
500.61	77.24
500.79	44.47
500.97	133.41
501.14	88.94
501.32	53.83
501.49	39.79
501.67	121.71
501.84	81.92
502.02	46.81
502.20	86.60
502.37	58.51
502.55	128.73
502.72	105.32
502.90	81.92
503.07	102.98
503.25	58.51
503.43	53.83
503.60	86.60
503.78	93.62
503.95	98.30
504.13	32.77
504.30	145.11
504.48	65.54
504.65	107.66
504.83	72.56
505.01	117.03
505.18	131.07
505.36	30.43
505.53	60.85
505.71	53.83
505.88	70.22
506.06	72.56
506.23	140.43
506.41	107.66
506.58	14.04
506.76	79.58
506.93	28.09
507.11	42.13
507.28	72.56
507.46	189.58
507.63	102.98
507.81	35.11
507.98	46.81
508.16	72.56
508.33	67.88
508.50	84.26
508.68	126.39
508.85	93.62
509.03	91.28
509.20	79.58
509.38	18.72
509.55	107.66
509.73	119.37
509.90	42.13
510.08	93.62
510.25	51.49
510.42	86.60
510.60	60.85
510.77	60.85
510.95	58.51
511.12	102.98
511.30	56.17
511.47	98.30
511.64	131.07
511.82	93.62
511.99	168.52
512.17	51.49
512.34	44.47
512.51	102.98
512.69	126.39
512.86	58.51
513.04	67.88
513.21	35.11
513.38	58.51
513.56	51.49
513.73	142.77
513.90	105.32
514.08	98.30
514.25	140.43
514.43	58.51
514.60	63.19
514.77	74.90
514.95	70.22
515.12	70.22
515.29	30.43
515.47	79.58
515.64	114.69
515.81	98.30
515.99	138.09
516.16	63.19
516.33	98.30
516.51	65.54
516.68	42.13
516.85	67.88
517.03	81.92
517.20	100.64
517.37	180.22
517.54	126.39
517.72	84.26
517.89	37.45
518.06	88.94
518.24	46.81
518.41	56.17
518.58	161.50
518.75	84.26
518.93	142.77
519.10	100.64
519.27	16.38
519.45	117.03
519.62	56.17
519.79	114.69
519.96	142.77
520.14	105.32
520.31	63.19
520.48	100.64
520.65	98.30
520.83	121.71
521.00	77.24
521.17	93.62
521.34	107.66
521.52	30.43
521.69	121.71
521.86	159.16
522.03	100.64
522.20	142.77
522.38	39.79
522.55	88.94
522.72	0.00
522.89	133.41
523.07	79.58
523.24	46.81
523.41	91.28
523.58	44.47
523.75	170.86
523.92	51.49
524.10	93.62
524.27	39.79
524.44	44.47
524.61	95.96
524.78	0.00
524.96	93.62
525.13	119.37
525.30	88.94
525.47	53.83
525.64	110.01
525.81	91.28
525.98	2.34
526.16	46.81
526.33	25.75
526.50	88.94
526.67	46.81
526.84	79.58
527.01	39.79
527.18	49.15
527.36	28.09
527.53	42.13
527.70	102.98
527.87	49.15
528.04	133.41
528.21	110.01
528.38	131.07
528.55	105.32
528.72	100.64
528.89	112.35
529.07	28.09
529.24	25.75
529.41	0.00
529.58	112.35
529.75	86.60
529.92	95.96
530.09	4.68
530.26	93.62
530.43	98.30
530.60	105.32
530.77	102.98
530.94	42.13
531.11	98.30
531.28	63.19
531.46	42.13
531.63	93.62
531.80	74.90
531.97	51.49
532.14	18.72
532.31	121.71
532.48	86.60
532.65	14.04
532.82	74.90
532.99	65.54
533.16	86.60
533.33	147.45
533.50	102.98
533.67	67.88
533.84	65.54
534.01	140.43
534.18	112.35
534.35	77.24
534.52	142.77
534.69	102.98
534.86	100.64
535.03	46.81
535.20	53.83
535.37	84.26
535.54	91.28
535.71	107.66
535.88	149.79
536.05	63.19
536.22	65.54
536.38	119.37
536.55	84.26
536.72	77.24
536.89	53.83
537.06	91.28
537.23	131.07
537.40	70.22
537.57	128.73
537.74	81.92
537.91	84.26
538.08	117.03
538.25	84.26
538.42	30.43
538.59	81.92
538.75	72.56
538.92	161.50
539.09	128.73
539.26	70.22
539.43	98.30
539.60	124.05
539.77	110.01
539.94	70.22
540.11	74.90
540.28	67.88
540.44	133.41
540.61	25.75
540.78	86.60
540.95	86.60
541.12	86.60
541.29	72.56
541.46	65.54
541.62	131.07
541.79	30.43
541.96	124.05
542.13	84.26
542.30	102.98
542.47	74.90
542.63	60.85
542.80	95.96
542.97	88.94
543.14	95.96
543.31	67.88
543.48	121.71
543.64	93.62
543.81	117.03
543.98	81.92
544.15	56.17
544.32	23.41
544.48	65.54
544.65	30.43
544.82	91.28
544.99	86.60
545.16	65.54
545.32	70.22
545.49	72.56
545.66	138.09
545.83	72.56
546.00	117.03
546.16	70.22
546.33	93.62
546.50	126.39
546.67	42.13
546.83	117.03
547.00	51.49
547.17	23.41
547.34	168.52
547.50	95.96
547.67	65.54
547.84	102.98
548.00	152.13
548.17	95.96
548.34	51.49
548.51	95.96
548.67	168.52
548.84	102.98
549.01	86.60
549.18	46.81
549.34	131.07
549.51	107.66
549.68	145.11
549.84	63.19
550.01	0.00
550.18	0.00
550.34	11.70
550.51	56.17
550.68	140.43
550.84	107.66
551.01	81.92
551.18	46.81
551.34	88.94
551.51	39.79
551.68	58.51
551.84	46.81
552.01	35.11
552.18	79.58
552.34	77.24
552.51	58.51
552.68	65.54
552.84	30.43
553.01	42.13
553.18	74.90
553.34	21.06
553.51	112.35
553.67	100.64
553.84	100.64
554.01	135.75
554.17	37.45
554.34	81.92
554.51	102.98
554.67	177.88
554.84	112.35
555.00	95.96
555.17	81.92
555.33	93.62
555.50	100.64
555.67	112.35
555.83	56.17
556.00	107.66
556.16	110.01
556.33	88.94
556.50	142.77
556.66	133.41
556.83	91.28
556.99	70.22
557.16	88.94
557.32	65.54
557.49	58.51
557.65	84.26
557.82	112.35
557.98	77.24
558.15	156.82
558.32	51.49
558.48	88.94
558.65	93.62
558.81	65.54
558.98	77.24
559.14	65.54
559.31	133.41
559.47	135.75
559.64	107.66
559.80	100.64
559.97	124.05
560.13	98.30
560.30	88.94
560.46	49.15
560.63	70.22
560.79	42.13
560.96	51.49
561.12	86.60
561.29	126.39
561.45	81.92
561.61	128.73
561.78	44.47
561.94	25.75
562.11	93.62
562.27	100.64
562.44	74.90
562.60	86.60
562.77	2.34
562.93	30.43
563.10	105.32
563.26	53.83
563.42	74.90
563.59	91.28
563.75	86.60
563.92	72.56
564.08	121.71
564.24	28.09
564.41	114.69
564.57	28.09
564.74	58.51
564.90	63.19
565.07	77.24
565.23	91.28
565.39	23.41
565.56	42.13
565.72	152.13
565.88	121.71
566.05	56.17
566.21	203.63
566.38	112.35
566.54	93.62
566.70	30.43
566.87	51.49
567.03	128.73
567.19	124.05
567.36	77.24
567.52	42.13
567.68	119.37
567.85	168.52
568.01	16.38
568.17	46.81
568.34	112.35
568.50	112.35
568.66	91.28
568.83	44.47
568.99	49.15
569.15	23.41
569.32	7.02
569.48	46.81
569.64	0.00
569.81	53.83
569.97	44.47
570.13	65.54
570.30	140.43
570.46	98.30
570.62	86.60
570.78	74.90
570.95	86.60
571.11	53.83
571.27	95.96
571.43	65.54
571.60	114.69
571.76	42.13
571.92	114.69
572.09	74.90
572.25	65.54
572.41	86.60
572.57	16.38
572.74	105.32
572.90	81.92
573.06	77.24
573.22	88.94
573.38	119.37
573.55	102.98
573.71	102.98
573.87	72.56
574.03	49.15
574.20	138.09
574.36	77.24
574.52	72.56
574.68	84.26
574.84	95.96
575.01	154.48
575.17	100.64
575.33	37.45
575.49	58.51
575.65	37.45
575.82	72.56
575.98	53.83
576.14	74.90
576.30	86.60
576.46	65.54
576.62	121.71
576.79	18.72
576.95	51.49
577.11	72.56
577.27	0.00
577.43	149.79
577.59	135.75
577.75	42.13
577.92	93.62
578.08	91.28
578.24	77.24
578.40	35.11
578.56	14.04
578.72	100.64
578.88	114.69
579.04	42.13
579.21	102.98
579.37	128.73
579.53	53.83
579.69	84.26
579.85	145.11
580.01	140.43
580.17	107.66
580.33	100.64
580.49	53.83
580.65	72.56
580.82	53.83
580.98	93.62
581.14	60.85
581.30	67.88
581.46	93.62
581.62	128.73
581.78	133.41
581.94	74.90
582.10	93.62
582.26	56.17
582.42	30.43
582.58	70.22
582.74	124.05
582.90	149.79
583.06	67.88
583.22	107.66
583.38	28.09
583.54	74.90
583.70	49.15
583.86	88.94
584.02	51.49
584.18	131.07
584.34	53.83
584.50	67.88
584.66	51.49
584.82	131.07
584.98	126.39
585.14	30.43
585.30	60.85
585.46	86.60
585.62	39.79
585.78	105.32
585.94	35.11
586.10	37.45
586.26	142.77
586.42	105.32
586.58	128.73
586.74	72.56
586.90	117.03
587.06	126.39
587.22	72.56
587.38	51.49
587.54	86.60
587.70	63.19
587.86	21.06
588.02	53.83
588.18	51.49
588.34	63.19
588.49	70.22
588.65	107.66
588.81	28.09
588.97	0.00
589.13	32.77
589.29	37.45
589.45	67.88
589.61	105.32
589.77	2.34
589.93	74.90
590.08	0.00
590.24	112.35
590.40	93.62
590.56	95.96
590.72	72.56
590.88	135.75
591.04	105.32
591.20	60.85
591.35	49.15
591.51	46.81
591.67	28.09
591.83	7.02
591.99	63.19
592.15	98.30
592.31	95.96
592.46	53.83
592.62	63.19
592.78	77.24
592.94	37.45
593.10	35.11
593.26	46.81
593.41	0.00
593.57	35.11
593.73	42.13
593.89	49.15
594.05	79.58
594.20	44.47
594.36	63.19
594.52	77.24
594.68	72.56
594.84	46.81
594.99	30.43
595.15	39.79
595.31	49.15
595.47	67.88
595.62	60.85
595.78	0.00
595.94	16.38
596.10	145.11
596.25	18.72
596.41	88.94
596.57	133.41
596.73	63.19
596.88	72.56
597.04	91.28
597.20	25.75
597.36	124.05
597.51	105.32
597.67	117.03
597.83	77.24
597.99	60.85
598.14	112.35
598.30	95.96
598.46	95.96
598.61	84.26
598.77	102.98
598.93	63.19
599.09	88.94
599.24	100.64
599.40	67.88
599.56	86.60
599.71	72.56
599.87	70.22
600.03	23.41
600.18	74.90
600.34	110.01
600.50	72.56
600.65	98.30
600.81	93.62
600.97	74.90
601.12	72.56
601.28	74.90
601.44	42.13
601.59	0.00
601.75	72.56
601.91	39.79
602.06	67.88
602.22	126.39
602.37	51.49
602.53	70.22
602.69	58.51
602.84	37.45
603.00	60.85
603.16	121.71
603.31	49.15
603.47	86.60
603.62	39.79
603.78	49.15
603.94	74.90
604.09	63.19
604.25	74.90
604.40	49.15
604.56	93.62
604.71	107.66
604.87	30.43
605.03	39.79
605.18	60.85
605.34	98.30
605.49	77.24
605.65	39.79
605.80	93.62
605.96	88.94
606.12	107.66
606.27	79.58
606.43	11.70
606.58	72.56
606.74	93.62
606.89	51.49
607.05	110.01
607.20	93.62
607.36	77.24
607.51	9.36
607.67	58.51
607.82	51.49
607.98	37.45
608.13	74.90
608.29	60.85
608.44	74.90
608.60	23.41
608.75	46.81
608.91	86.60
609.06	72.56
609.22	98.30
609.37	70.22
609.53	81.92
609.68	18.72
609.84	77.24
609.99	79.58
610.15	56.17
610.30	79.58
610.46	0.00
610.61	49.15
610.76	37.45
610.92	42.13
611.07	49.15
611.23	65.54
611.38	37.45
611.54	25.75
611.69	100.64
611.84	63.19
612.00	133.41
612.15	86.60
612.31	93.62
612.46	107.66
612.62	18.72
612.77	70.22
612.92	105.32
613.08	44.47
613.23	14.04
613.39	28.09
613.54	121.71
613.69	49.15
613.85	18.72
614.00	67.88
614.15	0.00
614.31	14.04
614.46	70.22
614.62	58.51
614.77	95.96
614.92	126.39
615.08	60.85
615.23	98.30
615.38	46.81
615.54	149.79
615.69	91.28
615.84	152.13
616.00	65.54
616.15	46.81
616.30	0.00
616.46	119.37
616.61	93.62
616.76	60.85
616.92	21.06
617.07	56.17
617.22	70.22
617.37	138.09
617.53	79.58
617.68	117.03
617.83	145.11
617.99	124.05
618.14	81.92
618.29	81.92
618.45	58.51
618.60	0.00
618.75	112.35
618.90	28.09
619.06	74.90
619.21	93.62
619.36	4.68
619.51	21.06
619.67	93.62
619.82	65.54
619.97	67.88
620.12	110.01
620.28	110.01
620.43	84.26
620.58	58.51
620.73	46.81
620.89	86.60
621.04	49.15
621.19	119.37
621.34	65.54
621.49	0.00
621.65	91.28
621.80	110.01
621.95	44.47
622.10	51.49
622.25	0.00
622.41	25.75
622.56	102.98
622.71	30.43
622.86	53.83
623.01	81.92
623.16	126.39
623.32	65.54
623.47	86.60
623.62	138.09
623.77	84.26
623.92	84.26
624.07	58.51
624.23	49.15
624.38	77.24
624.53	77.24
624.68	28.09
624.83	112.35
624.98	60.85
625.13	93.62
625.29	0.00
625.44	0.00
625.59	88.94
625.74	114.69
625.89	65.54
626.04	105.32
626.19	84.26
626.34	4.68
626.49	46.81
626.65	56.17
626.80	53.83
626.95	42.13
627.10	70.22
627.25	110.01
627.40	9.36
627.55	23.41
627.70	11.70
627.85	110.01
628.00	0.00
628.15	49.15
628.30	56.17
628.45	98.30
628.60	58.51
628.76	98.30
628.91	25.75
629.06	126.39
629.21	98.30
629.36	117.03
629.51	114.69
629.66	0.00
629.81	58.51
629.96	42.13
630.11	42.13
630.26	56.17
630.41	44.47
630.56	30.43
630.71	44.47
630.86	114.69
631.01	32.77
631.16	23.41
631.31	21.06
631.46	58.51
631.61	81.92
631.76	93.62
631.91	65.54
632.06	53.83
632.21	105.32
632.36	58.51
632.51	117.03
632.66	46.81
632.81	79.58
632.96	79.58
633.10	23.41
633.25	105.32
633.40	42.13
633.55	81.92
633.70	93.62
633.85	51.49
634.00	100.64
634.15	51.49
634.30	95.96
634.45	44.47
634.60	14.04
634.75	79.58
634.90	53.83
635.05	79.58
635.19	107.66
635.34	72.56
635.49	72.56
635.64	100.64
635.79	88.94
635.94	0.00
636.09	37.45
636.24	56.17
636.39	25.75
636.53	93.62
636.68	46.81
636.83	46.81
636.98	58.51
637.13	44.47
637.28	2.34
637.43	79.58
637.57	16.38
637.72	39.79
637.87	63.19
638.02	58.51
638.17	16.38
638.32	95.96
638.46	65.54
638.61	42.13
638.76	0.00
638.91	4.68
639.06	145.11
639.20	51.49
639.35	51.49
639.50	14.04
639.65	70.22
639.80	63.19
639.94	14.04
640.09	58.51
640.24	72.56
640.39	39.79
640.54	53.83
640.68	56.17
640.83	65.54
640.98	25.75
641.13	53.83
641.27	0.00
641.42	53.83
641.57	32.77
641.72	53.83
641.86	63.19
642.01	35.11
642.16	4.68
642.31	39.79
642.45	81.92
642.60	74.90
642.75	16.38
642.90	37.45
643.04	65.54
643.19	77.24
643.34	37.45
643.48	159.16
643.63	102.98
643.78	100.64
643.93	91.28
644.07	25.75
644.22	37.45
644.37	58.51
644.51	53.83
644.66	100.64
644.81	51.49
644.95	91.28
645.10	56.17
645.25	93.62
645.39	51.49
645.54	44.47
645.69	11.70
645.83	0.00
645.98	28.09
646.13	56.17
646.27	42.13
646.42	51.49
646.57	72.56
646.71	0.00
646.86	67.88
647.00	42.13
647.15	7.02
647.30	14.04
647.44	72.56
647.59	58.51
647.74	0.00
647.88	56.17
648.03	18.72
648.17	53.83
648.32	65.54
648.47	46.81
648.61	51.49
648.76	25.75
648.90	88.94
649.05	77.24
649.20	39.79
649.34	74.90
649.49	88.94
649.63	79.58
649.78	72.56
649.92	58.51
650.07	42.13
650.21	60.85
650.36	28.09
650.51	79.58
650.65	9.36
650.80	0.00
650.94	63.19
651.09	16.38
651.23	74.90
651.38	18.72
651.52	16.38
651.67	91.28
651.81	74.90
651.96	140.43
652.10	0.00
652.25	53.83
652.39	0.00
652.54	30.43
652.68	0.00
652.83	35.11
652.97	51.49
653.12	98.30
653.26	32.77
653.41	32.77
653.55	0.00
653.70	18.72
653.84	30.43
653.99	35.11
654.13	9.36
654.27	51.49
654.42	51.49
654.56	70.22
654.71	81.92
654.85	32.77
655.00	77.24
655.14	88.94
655.29	39.79
655.43	65.54
655.57	81.92
655.72	21.06
655.86	0.00
656.01	30.43
656.15	7.02
656.30	46.81
656.44	9.36
656.58	91.28
656.73	56.17
656.87	110.01
657.01	86.60
657.16	39.79
657.30	21.06
657.45	21.06
657.59	49.15
657.73	77.24
657.88	51.49
658.02	51.49
658.16	84.26
658.31	77.24
658.45	44.47
658.60	84.26
658.74	44.47
658.88	86.60
659.03	32.77
659.17	72.56
659.31	0.00
659.46	14.04
659.60	2.34
659.74	67.88
659.89	70.22
660.03	30.43
660.17	44.47
660.32	4.68
660.46	14.04
660.60	156.82
660.74	128.73
660.89	56.17
661.03	53.83
661.17	14.04
661.32	39.79
661.46	58.51
661.60	53.83
661.74	0.00
661.89	65.54
662.03	65.54
662.17	72.56
662.31	56.17
662.46	100.64
662.60	30.43
662.74	65.54
662.88	46.81
663.03	16.38
663.17	77.24
663.31	110.01
663.45	16.38
663.60	11.70
663.74	91.28
663.88	51.49
664.02	110.01
664.17	49.15
664.31	51.49
664.45	25.75
664.59	37.45
664.73	102.98
664.88	65.54
665.02	46.81
665.16	44.47
665.30	107.66
665.44	98.30
665.59	21.06
665.73	79.58
665.87	79.58
666.01	53.83
666.15	93.62
666.29	18.72
666.44	53.83
666.58	51.49
666.72	28.09
666.86	7.02
667.00	67.88
667.14	58.51
667.28	44.47
667.43	42.13
667.57	32.77
667.71	98.30
667.85	11.70
667.99	42.13
668.13	67.88
668.27	117.03
668.41	14.04
668.56	67.88
668.70	0.00
668.84	51.49
668.98	21.06
669.12	51.49
669.26	4.68
669.40	18.72
669.54	0.00
669.68	37.45
669.82	65.54
669.96	84.26
670.10	95.96
670.25	0.00
670.39	0.00
670.53	25.75
670.67	0.00
670.81	70.22
670.95	110.01
671.09	110.01
671.23	88.94
671.37	28.09
671.51	39.79
671.65	60.85
671.79	28.09
671.93	161.50
672.07	74.90
672.21	25.75
672.35	46.81
672.49	14.04
672.63	70.22
672.77	58.51
672.91	77.24
673.05	138.09
673.19	42.13
673.33	93.62
673.47	86.60
673.61	49.15
673.75	42.13
673.89	98.30
674.03	65.54
674.17	100.64
674.31	86.60
674.45	18.72
674.59	30.43
674.73	46.81
674.87	39.79
675.01	23.41
675.15	46.81
675.29	72.56
675.43	88.94
675.56	28.09
675.70	0.00
675.84	49.15
675.98	30.43
676.12	65.54
676.26	0.00
676.40	51.49
676.54	58.51
676.68	9.36
676.82	32.77
676.96	2.34
677.10	60.85
677.23	117.03
677.37	70.22
677.51	25.75
677.65	138.09
677.79	81.92
677.93	0.00
678.07	74.90
678.21	25.75
678.34	51.49
678.48	60.85
678.62	84.26
678.76	32.77
678.90	70.22
679.04	67.88
679.18	16.38
679.31	72.56
679.45	35.11
679.59	18.72
679.73	81.92
679.87	7.02
680.00	53.83
680.14	0.00
680.28	30.43
680.42	39.79
680.56	67.88
680.70	0.00
680.83	67.88
680.97	9.36
681.11	28.09
681.25	30.43
681.39	56.17
681.52	49.15
681.66	46.81
681.80	49.15
681.94	77.24
682.07	30.43
682.21	88.94
682.35	11.70
682.49	25.75
682.62	9.36
682.76	21.06
682.90	51.49
683.04	30.43
683.17	32.77
683.31	42.13
683.45	56.17
683.59	7.02
683.72	16.38
683.86	0.00
684.00	51.49
684.13	0.00
684.27	18.72
684.41	117.03
684.55	128.73
684.68	58.51
684.82	91.28
684.96	65.54
685.09	51.49
685.23	0.00
685.37	86.60
685.50	25.75
685.64	58.51
685.78	0.00
685.91	16.38
686.05	0.00
686.19	37.45
686.32	35.11
686.46	21.06
686.60	0.00
686.73	46.81
686.87	0.00
687.01	42.13
687.14	14.04
687.28	77.24
687.42	35.11
687.55	77.24
687.69	117.03
687.82	23.41
687.96	37.45
688.10	44.47
688.23	53.83
688.37	100.64
688.50	60.85
688.64	65.54
688.78	42.13
688.91	51.49
689.05	9.36
689.18	37.45
689.32	0.00
689.46	25.75
689.59	67.88
689.73	2.34
689.86	39.79
690.00	86.60
690.13	37.45
690.27	86.60
690.41	0.00
690.54	0.00
690.68	86.60
690.81	81.92
690.95	58.51
691.08	53.83
691.22	30.43
691.35	79.58
691.49	46.81
691.62	0.00
691.76	77.24
691.89	42.13
692.03	65.54
692.16	0.00
692.30	95.96
692.43	72.56
692.57	49.15
692.70	28.09
692.84	93.62
692.97	0.00
693.11	56.17
693.24	9.36
693.38	72.56
693.51	79.58
693.65	0.00
693.78	84.26
693.92	56.17
694.05	39.79
694.19	0.00
694.32	88.94
694.45	51.49
694.59	9.36
694.72	91.28
694.86	67.88
694.99	88.94
695.13	11.70
695.26	0.00
695.39	60.85
695.53	84.26
695.66	9.36
695.80	2.34
695.93	7.02
696.07	46.81
696.20	39.79
696.33	60.85
696.47	63.19
696.60	23.41
696.73	53.83
696.87	95.96
697.00	124.05
697.14	65.54
697.27	72.56
697.40	159.16
697.54	14.04
697.67	67.88
697.80	60.85
697.94	0.00
698.07	7.02
698.21	0.00
698.34	30.43
698.47	58.51
698.61	14.04
698.74	9.36
698.87	60.85
699.01	51.49
699.14	77.24
699.27	42.13
699.40	46.81
699.54	74.90
699.67	32.77
699.80	56.17
699.94	74.90
700.07	88.94
700.20	4.68
700.34	11.70
700.47	49.15
700.60	0.00
700.73	0.00
700.87	0.00
701.00	0.00
701.13	9.36
701.26	74.90
701.40	93.62
701.53	44.47
701.66	32.77
701.79	95.96
701.93	98.30
702.06	46.81
702.19	46.81
702.32	91.28
702.46	95.96
702.59	117.03
702.72	72.56
702.85	0.00
702.99	65.54
703.12	14.04
703.25	28.09
703.38	23.41
703.51	46.81
703.65	60.85
703.78	72.56
703.91	16.38
704.04	35.11
704.17	35.11
704.31	44.47
704.44	28.09
704.57	42.13
704.70	39.79
704.83	67.88
704.96	14.04
705.10	60.85
705.23	63.19
>>>>>End Processed Spectral Data<<<<<
