SpectraSuite Data File
++++++++++++++++++++++++++++++++++++
Date: Fri Oct 04 12:13:25 GMT-05:00 2013
User: price-jones
Dark Spectrum Present: No
Reference Spectrum Present: No
Number of Sampled Component Spectra: 1
Spectrometers: USB2+H05261
Integration Time (usec): 10000 (USB2+H05261)
Spectra Averaged: 1 (USB2+H05261)
Boxcar Smoothing: 0 (USB2+H05261)
Correct for Electrical Dark: No (USB2+H05261)
Strobe/Lamp Enabled: No (USB2+H05261)
Correct for Detector Non-linearity: No (USB2+H05261)
Correct for Stray Light: No (USB2+H05261)
Number of Pixels in Processed Spectrum: 2048
>>>>>Begin Processed Spectral Data<<<<<
365.73	0.00
365.92	0.00
366.12	0.00
366.32	0.00
366.52	0.00
366.72	0.00
366.91	0.00
367.11	0.00
367.31	0.00
367.51	0.00
367.70	0.00
367.90	0.00
368.10	0.00
368.30	0.00
368.49	0.00
368.69	0.00
368.89	0.00
369.09	0.00
369.28	0.00
369.48	0.00
369.68	0.00
369.87	0.00
370.07	0.00
370.27	0.00
370.47	60.85
370.66	0.00
370.86	0.00
371.06	0.00
371.25	0.00
371.45	0.00
371.65	11.70
371.84	0.00
372.04	0.00
372.24	35.11
372.44	18.72
372.63	0.00
372.83	25.75
373.03	14.04
373.22	0.00
373.42	11.70
373.62	63.19
373.81	67.88
374.01	18.72
374.21	0.00
374.40	74.90
374.60	53.83
374.79	23.41
374.99	21.06
375.19	91.28
375.38	93.62
375.58	0.00
375.78	53.83
375.97	18.72
376.17	35.11
376.37	0.00
376.56	25.75
376.76	51.49
376.95	0.00
377.15	63.19
377.35	0.00
377.54	18.72
377.74	28.09
377.93	60.85
378.13	0.00
378.33	28.09
378.52	67.88
378.72	44.47
378.91	2.34
379.11	35.11
379.31	0.00
379.50	79.58
379.70	28.09
379.89	84.26
380.09	74.90
380.28	65.54
380.48	0.00
380.68	0.00
380.87	0.00
381.07	16.38
381.26	58.51
381.46	0.00
381.65	51.49
381.85	0.00
382.04	0.00
382.24	30.43
382.43	0.00
382.63	0.00
382.83	44.47
383.02	37.45
383.22	46.81
383.41	0.00
383.61	0.00
383.80	0.00
384.00	51.49
384.19	0.00
384.39	0.00
384.58	39.79
384.78	46.81
384.97	49.15
385.17	0.00
385.36	23.41
385.56	0.00
385.75	16.38
385.95	0.00
386.14	0.00
386.34	100.64
386.53	21.06
386.72	42.13
386.92	56.17
387.11	25.75
387.31	0.00
387.50	21.06
387.70	23.41
387.89	0.00
388.09	39.79
388.28	11.70
388.48	49.15
388.67	0.00
388.86	53.83
389.06	77.24
389.25	56.17
389.45	79.58
389.64	18.72
389.84	35.11
390.03	9.36
390.22	0.00
390.42	0.00
390.61	23.41
390.81	16.38
391.00	25.75
391.19	18.72
391.39	53.83
391.58	32.77
391.78	16.38
391.97	56.17
392.16	14.04
392.36	42.13
392.55	4.68
392.75	0.00
392.94	77.24
393.13	46.81
393.33	51.49
393.52	4.68
393.71	11.70
393.91	0.00
394.10	7.02
394.29	0.00
394.49	86.60
394.68	0.00
394.88	37.45
395.07	0.00
395.26	35.11
395.46	56.17
395.65	46.81
395.84	0.00
396.04	30.43
396.23	14.04
396.42	0.00
396.62	32.77
396.81	0.00
397.00	4.68
397.19	4.68
397.39	46.81
397.58	81.92
397.77	51.49
397.97	0.00
398.16	0.00
398.35	7.02
398.55	16.38
398.74	70.22
398.93	60.85
399.12	0.00
399.32	21.06
399.51	0.00
399.70	28.09
399.90	16.38
400.09	0.00
400.28	42.13
400.47	0.00
400.67	46.81
400.86	44.47
401.05	42.13
401.24	95.96
401.44	49.15
401.63	7.02
401.82	37.45
402.01	39.79
402.21	30.43
402.40	60.85
402.59	95.96
402.78	0.00
402.97	2.34
403.17	14.04
403.36	16.38
403.55	21.06
403.74	16.38
403.93	86.60
404.13	70.22
404.32	0.00
404.51	39.79
404.70	18.72
404.89	42.13
405.09	23.41
405.28	0.00
405.47	21.06
405.66	44.47
405.85	14.04
406.05	21.06
406.24	18.72
406.43	74.90
406.62	2.34
406.81	0.00
407.00	0.00
407.20	25.75
407.39	51.49
407.58	28.09
407.77	84.26
407.96	114.69
408.15	51.49
408.34	11.70
408.54	14.04
408.73	102.98
408.92	44.47
409.11	0.00
409.30	84.26
409.49	30.43
409.68	2.34
409.87	0.00
410.07	16.38
410.26	46.81
410.45	0.00
410.64	7.02
410.83	58.51
411.02	7.02
411.21	25.75
411.40	0.00
411.59	39.79
411.78	72.56
411.98	23.41
412.17	46.81
412.36	81.92
412.55	95.96
412.74	0.00
412.93	0.00
413.12	49.15
413.31	46.81
413.50	21.06
413.69	42.13
413.88	63.19
414.07	35.11
414.26	37.45
414.45	39.79
414.64	39.79
414.83	39.79
415.02	0.00
415.22	39.79
415.41	65.54
415.60	105.32
415.79	0.00
415.98	77.24
416.17	135.75
416.36	39.79
416.55	42.13
416.74	14.04
416.93	28.09
417.12	37.45
417.31	39.79
417.50	32.77
417.69	72.56
417.88	70.22
418.07	0.00
418.26	0.00
418.45	28.09
418.64	0.00
418.83	28.09
419.02	63.19
419.21	11.70
419.39	0.00
419.58	4.68
419.77	14.04
419.96	28.09
420.15	46.81
420.34	28.09
420.53	67.88
420.72	53.83
420.91	0.00
421.10	14.04
421.29	0.00
421.48	7.02
421.67	51.49
421.86	39.79
422.05	0.00
422.24	44.47
422.43	37.45
422.61	37.45
422.80	30.43
422.99	44.47
423.18	124.05
423.37	74.90
423.56	0.00
423.75	9.36
423.94	4.68
424.13	11.70
424.32	0.00
424.50	49.15
424.69	0.00
424.88	46.81
425.07	0.00
425.26	49.15
425.45	42.13
425.64	56.17
425.83	28.09
426.01	65.54
426.20	60.85
426.39	74.90
426.58	42.13
426.77	46.81
426.96	79.58
427.15	0.00
427.33	18.72
427.52	107.66
427.71	42.13
427.90	42.13
428.09	2.34
428.28	7.02
428.46	49.15
428.65	16.38
428.84	46.81
429.03	42.13
429.22	30.43
429.40	0.00
429.59	60.85
429.78	2.34
429.97	16.38
430.16	37.45
430.34	11.70
430.53	37.45
430.72	0.00
430.91	49.15
431.10	21.06
431.28	0.00
431.47	60.85
431.66	74.90
431.85	0.00
432.03	63.19
432.22	51.49
432.41	39.79
432.60	53.83
432.79	35.11
432.97	28.09
433.16	49.15
433.35	0.00
433.54	37.45
433.72	44.47
433.91	65.54
434.10	74.90
434.28	39.79
434.47	65.54
434.66	30.43
434.85	0.00
435.03	0.00
435.22	39.79
435.41	35.11
435.59	46.81
435.78	0.00
435.97	0.00
436.16	0.00
436.34	37.45
436.53	4.68
436.72	58.51
436.90	0.00
437.09	0.00
437.28	53.83
437.46	21.06
437.65	70.22
437.84	70.22
438.02	0.00
438.21	49.15
438.40	7.02
438.58	30.43
438.77	30.43
438.96	25.75
439.14	44.47
439.33	100.64
439.52	67.88
439.70	58.51
439.89	11.70
440.08	16.38
440.26	0.00
440.45	2.34
440.63	42.13
440.82	14.04
441.01	72.56
441.19	88.94
441.38	21.06
441.57	0.00
441.75	32.77
441.94	39.79
442.12	7.02
442.31	0.00
442.50	84.26
442.68	0.00
442.87	51.49
443.05	28.09
443.24	14.04
443.43	28.09
443.61	39.79
443.80	2.34
443.98	0.00
444.17	7.02
444.35	25.75
444.54	16.38
444.73	88.94
444.91	2.34
445.10	49.15
445.28	21.06
445.47	0.00
445.65	0.00
445.84	0.00
446.02	30.43
446.21	11.70
446.39	23.41
446.58	0.00
446.77	35.11
446.95	35.11
447.14	0.00
447.32	42.13
447.51	44.47
447.69	49.15
447.88	74.90
448.06	81.92
448.25	39.79
448.43	18.72
448.62	9.36
448.80	25.75
448.99	42.13
449.17	74.90
449.36	18.72
449.54	30.43
449.73	0.00
449.91	49.15
450.10	65.54
450.28	56.17
450.46	51.49
450.65	2.34
450.83	44.47
451.02	49.15
451.20	18.72
451.39	32.77
451.57	30.43
451.76	84.26
451.94	32.77
452.13	39.79
452.31	0.00
452.49	56.17
452.68	0.00
452.86	0.00
453.05	21.06
453.23	32.77
453.42	37.45
453.60	37.45
453.78	79.58
453.97	51.49
454.15	79.58
454.34	58.51
454.52	46.81
454.70	0.00
454.89	110.01
455.07	51.49
455.26	25.75
455.44	100.64
455.62	53.83
455.81	37.45
455.99	4.68
456.17	67.88
456.36	58.51
456.54	9.36
456.73	0.00
456.91	60.85
457.09	65.54
457.28	37.45
457.46	2.34
457.64	65.54
457.83	58.51
458.01	7.02
458.19	49.15
458.38	0.00
458.56	28.09
458.74	53.83
458.93	4.68
459.11	0.00
459.29	84.26
459.48	4.68
459.66	51.49
459.84	18.72
460.03	81.92
460.21	30.43
460.39	98.30
460.57	49.15
460.76	0.00
460.94	11.70
461.12	9.36
461.31	0.00
461.49	72.56
461.67	42.13
461.85	16.38
462.04	60.85
462.22	56.17
462.40	30.43
462.59	18.72
462.77	9.36
462.95	9.36
463.13	4.68
463.32	46.81
463.50	74.90
463.68	28.09
463.86	42.13
464.05	0.00
464.23	49.15
464.41	0.00
464.59	35.11
464.78	14.04
464.96	86.60
465.14	0.00
465.32	58.51
465.50	77.24
465.69	88.94
465.87	0.00
466.05	0.00
466.23	25.75
466.41	4.68
466.60	42.13
466.78	32.77
466.96	49.15
467.14	39.79
467.32	46.81
467.51	46.81
467.69	7.02
467.87	60.85
468.05	35.11
468.23	0.00
468.41	30.43
468.60	93.62
468.78	0.00
468.96	93.62
469.14	2.34
469.32	74.90
469.50	63.19
469.69	0.00
469.87	18.72
470.05	23.41
470.23	0.00
470.41	30.43
470.59	0.00
470.77	14.04
470.95	32.77
471.14	23.41
471.32	28.09
471.50	37.45
471.68	0.00
471.86	23.41
472.04	44.47
472.22	23.41
472.40	0.00
472.58	56.17
472.77	0.00
472.95	93.62
473.13	70.22
473.31	65.54
473.49	25.75
473.67	0.00
473.85	51.49
474.03	51.49
474.21	0.00
474.39	39.79
474.57	25.75
474.75	37.45
474.93	67.88
475.12	0.00
475.30	70.22
475.48	56.17
475.66	21.06
475.84	46.81
476.02	110.01
476.20	0.00
476.38	0.00
476.56	0.00
476.74	84.26
476.92	93.62
477.10	0.00
477.28	14.04
477.46	138.09
477.64	7.02
477.82	23.41
478.00	32.77
478.18	4.68
478.36	11.70
478.54	25.75
478.72	70.22
478.90	46.81
479.08	93.62
479.26	30.43
479.44	51.49
479.62	37.45
479.80	0.00
479.98	9.36
480.16	37.45
480.34	77.24
480.52	74.90
480.70	0.00
480.88	0.00
481.06	81.92
481.24	63.19
481.41	0.00
481.59	32.77
481.77	30.43
481.95	16.38
482.13	0.00
482.31	25.75
482.49	51.49
482.67	0.00
482.85	44.47
483.03	44.47
483.21	49.15
483.39	0.00
483.57	0.00
483.74	28.09
483.92	4.68
484.10	60.85
484.28	25.75
484.46	0.00
484.64	0.00
484.82	16.38
485.00	32.77
485.18	0.00
485.35	91.28
485.53	0.00
485.71	0.00
485.89	65.54
486.07	100.64
486.25	7.02
486.43	4.68
486.61	37.45
486.78	0.00
486.96	88.94
487.14	70.22
487.32	72.56
487.50	79.58
487.68	30.43
487.85	74.90
488.03	21.06
488.21	0.00
488.39	65.54
488.57	79.58
488.75	11.70
488.92	49.15
489.10	70.22
489.28	25.75
489.46	0.00
489.64	0.00
489.81	84.26
489.99	0.00
490.17	18.72
490.35	86.60
490.53	77.24
490.70	77.24
490.88	0.00
491.06	9.36
491.24	0.00
491.41	44.47
491.59	16.38
491.77	0.00
491.95	56.17
492.13	0.00
492.30	23.41
492.48	51.49
492.66	84.26
492.84	32.77
493.01	28.09
493.19	2.34
493.37	37.45
493.54	70.22
493.72	44.47
493.90	51.49
494.08	56.17
494.25	72.56
494.43	0.00
494.61	16.38
494.79	0.00
494.96	2.34
495.14	46.81
495.32	18.72
495.49	0.00
495.67	0.00
495.85	67.88
496.02	11.70
496.20	14.04
496.38	0.00
496.55	37.45
496.73	32.77
496.91	4.68
497.09	53.83
497.26	0.00
497.44	56.17
497.62	0.00
497.79	81.92
497.97	30.43
498.14	100.64
498.32	0.00
498.50	95.96
498.67	0.00
498.85	63.19
499.03	30.43
499.20	35.11
499.38	0.00
499.56	60.85
499.73	60.85
499.91	46.81
500.08	105.32
500.26	35.11
500.44	51.49
500.61	60.85
500.79	72.56
500.97	44.47
501.14	93.62
501.32	51.49
501.49	53.83
501.67	39.79
501.84	77.24
502.02	25.75
502.20	98.30
502.37	49.15
502.55	58.51
502.72	79.58
502.90	18.72
503.07	35.11
503.25	53.83
503.43	51.49
503.60	23.41
503.78	28.09
503.95	28.09
504.13	70.22
504.30	39.79
504.48	25.75
504.65	16.38
504.83	72.56
505.01	44.47
505.18	60.85
505.36	32.77
505.53	0.00
505.71	30.43
505.88	37.45
506.06	39.79
506.23	46.81
506.41	21.06
506.58	32.77
506.76	30.43
506.93	60.85
507.11	35.11
507.28	56.17
507.46	93.62
507.63	88.94
507.81	0.00
507.98	14.04
508.16	114.69
508.33	88.94
508.50	23.41
508.68	32.77
508.85	35.11
509.03	46.81
509.20	9.36
509.38	70.22
509.55	49.15
509.73	72.56
509.90	95.96
510.08	2.34
510.25	0.00
510.42	0.00
510.60	86.60
510.77	28.09
510.95	88.94
511.12	51.49
511.30	131.07
511.47	58.51
511.64	16.38
511.82	49.15
511.99	39.79
512.17	72.56
512.34	112.35
512.51	0.00
512.69	63.19
512.86	58.51
513.04	65.54
513.21	14.04
513.38	49.15
513.56	2.34
513.73	23.41
513.90	11.70
514.08	25.75
514.25	60.85
514.43	49.15
514.60	14.04
514.77	53.83
514.95	79.58
515.12	14.04
515.29	46.81
515.47	74.90
515.64	49.15
515.81	0.00
515.99	58.51
516.16	2.34
516.33	58.51
516.51	0.00
516.68	42.13
516.85	60.85
517.03	11.70
517.20	0.00
517.37	51.49
517.54	70.22
517.72	67.88
517.89	9.36
518.06	60.85
518.24	154.48
518.41	67.88
518.58	23.41
518.75	0.00
518.93	74.90
519.10	65.54
519.27	7.02
519.45	7.02
519.62	0.00
519.79	88.94
519.96	70.22
520.14	2.34
520.31	0.00
520.48	42.13
520.65	32.77
520.83	58.51
521.00	117.03
521.17	23.41
521.34	25.75
521.52	23.41
521.69	39.79
521.86	35.11
522.03	74.90
522.20	98.30
522.38	0.00
522.55	32.77
522.72	32.77
522.89	67.88
523.07	32.77
523.24	11.70
523.41	35.11
523.58	112.35
523.75	60.85
523.92	70.22
524.10	23.41
524.27	65.54
524.44	0.00
524.61	74.90
524.78	18.72
524.96	42.13
525.13	42.13
525.30	23.41
525.47	51.49
525.64	65.54
525.81	53.83
525.98	0.00
526.16	102.98
526.33	60.85
526.50	93.62
526.67	56.17
526.84	0.00
527.01	18.72
527.18	39.79
527.36	44.47
527.53	49.15
527.70	98.30
527.87	60.85
528.04	7.02
528.21	46.81
528.38	0.00
528.55	23.41
528.72	16.38
528.89	0.00
529.07	65.54
529.24	4.68
529.41	14.04
529.58	72.56
529.75	84.26
529.92	58.51
530.09	91.28
530.26	4.68
530.43	51.49
530.60	0.00
530.77	56.17
530.94	2.34
531.11	21.06
531.28	42.13
531.46	0.00
531.63	72.56
531.80	88.94
531.97	0.00
532.14	0.00
532.31	23.41
532.48	4.68
532.65	42.13
532.82	0.00
532.99	2.34
533.16	44.47
533.33	30.43
533.50	0.00
533.67	0.00
533.84	18.72
534.01	35.11
534.18	35.11
534.35	39.79
534.52	42.13
534.69	49.15
534.86	4.68
535.03	51.49
535.20	35.11
535.37	18.72
535.54	49.15
535.71	84.26
535.88	124.05
536.05	42.13
536.22	81.92
536.38	56.17
536.55	58.51
536.72	58.51
536.89	23.41
537.06	2.34
537.23	23.41
537.40	81.92
537.57	67.88
537.74	0.00
537.91	23.41
538.08	0.00
538.25	23.41
538.42	39.79
538.59	4.68
538.75	67.88
538.92	4.68
539.09	42.13
539.26	74.90
539.43	65.54
539.60	35.11
539.77	70.22
539.94	37.45
540.11	39.79
540.28	46.81
540.44	100.64
540.61	25.75
540.78	37.45
540.95	0.00
541.12	0.00
541.29	30.43
541.46	51.49
541.62	0.00
541.79	105.32
541.96	77.24
542.13	23.41
542.30	44.47
542.47	25.75
542.63	74.90
542.80	105.32
542.97	77.24
543.14	32.77
543.31	28.09
543.48	39.79
543.64	21.06
543.81	72.56
543.98	100.64
544.15	58.51
544.32	46.81
544.48	56.17
544.65	0.00
544.82	77.24
544.99	11.70
545.16	0.00
545.32	0.00
545.49	0.00
545.66	128.73
545.83	95.96
546.00	7.02
546.16	37.45
546.33	67.88
546.50	56.17
546.67	51.49
546.83	100.64
547.00	35.11
547.17	0.00
547.34	23.41
547.50	63.19
547.67	117.03
547.84	0.00
548.00	7.02
548.17	51.49
548.34	58.51
548.51	56.17
548.67	32.77
548.84	51.49
549.01	49.15
549.18	18.72
549.34	39.79
549.51	42.13
549.68	0.00
549.84	100.64
550.01	32.77
550.18	42.13
550.34	30.43
550.51	46.81
550.68	81.92
550.84	32.77
551.01	51.49
551.18	49.15
551.34	39.79
551.51	7.02
551.68	0.00
551.84	0.00
552.01	2.34
552.18	79.58
552.34	56.17
552.51	35.11
552.68	9.36
552.84	16.38
553.01	0.00
553.18	105.32
553.34	100.64
553.51	42.13
553.67	49.15
553.84	88.94
554.01	35.11
554.17	37.45
554.34	74.90
554.51	25.75
554.67	14.04
554.84	121.71
555.00	9.36
555.17	32.77
555.33	46.81
555.50	93.62
555.67	7.02
555.83	74.90
556.00	53.83
556.16	58.51
556.33	49.15
556.50	91.28
556.66	0.00
556.83	32.77
556.99	51.49
557.16	0.00
557.32	74.90
557.49	0.00
557.65	74.90
557.82	21.06
557.98	74.90
558.15	23.41
558.32	95.96
558.48	0.00
558.65	30.43
558.81	9.36
558.98	28.09
559.14	44.47
559.31	14.04
559.47	39.79
559.64	4.68
559.80	49.15
559.97	42.13
560.13	124.05
560.30	30.43
560.46	0.00
560.63	32.77
560.79	53.83
560.96	39.79
561.12	32.77
561.29	35.11
561.45	67.88
561.61	14.04
561.78	112.35
561.94	112.35
562.11	16.38
562.27	46.81
562.44	42.13
562.60	37.45
562.77	11.70
562.93	30.43
563.10	60.85
563.26	53.83
563.42	35.11
563.59	14.04
563.75	49.15
563.92	35.11
564.08	28.09
564.24	35.11
564.41	18.72
564.57	2.34
564.74	0.00
564.90	18.72
565.07	0.00
565.23	7.02
565.39	21.06
565.56	11.70
565.72	74.90
565.88	67.88
566.05	28.09
566.21	56.17
566.38	21.06
566.54	0.00
566.70	16.38
566.87	18.72
567.03	58.51
567.19	42.13
567.36	35.11
567.52	84.26
567.68	0.00
567.85	79.58
568.01	84.26
568.17	56.17
568.34	56.17
568.50	37.45
568.66	0.00
568.83	60.85
568.99	32.77
569.15	46.81
569.32	0.00
569.48	16.38
569.64	35.11
569.81	23.41
569.97	28.09
570.13	4.68
570.30	44.47
570.46	53.83
570.62	4.68
570.78	65.54
570.95	70.22
571.11	70.22
571.27	105.32
571.43	42.13
571.60	39.79
571.76	67.88
571.92	25.75
572.09	0.00
572.25	70.22
572.41	46.81
572.57	18.72
572.74	0.00
572.90	42.13
573.06	42.13
573.22	30.43
573.38	2.34
573.55	0.00
573.71	51.49
573.87	81.92
574.03	117.03
574.20	39.79
574.36	58.51
574.52	51.49
574.68	4.68
574.84	131.07
575.01	28.09
575.17	0.00
575.33	74.90
575.49	84.26
575.65	14.04
575.82	18.72
575.98	72.56
576.14	95.96
576.30	107.66
576.46	16.38
576.62	72.56
576.79	105.32
576.95	0.00
577.11	25.75
577.27	0.00
577.43	0.00
577.59	42.13
577.75	32.77
577.92	39.79
578.08	25.75
578.24	86.60
578.40	0.00
578.56	32.77
578.72	56.17
578.88	65.54
579.04	28.09
579.21	28.09
579.37	32.77
579.53	0.00
579.69	0.00
579.85	18.72
580.01	67.88
580.17	131.07
580.33	4.68
580.49	11.70
580.65	2.34
580.82	46.81
580.98	16.38
581.14	42.13
581.30	95.96
581.46	35.11
581.62	70.22
581.78	37.45
581.94	37.45
582.10	0.00
582.26	2.34
582.42	14.04
582.58	100.64
582.74	25.75
582.90	0.00
583.06	79.58
583.22	72.56
583.38	70.22
583.54	65.54
583.70	30.43
583.86	58.51
584.02	25.75
584.18	58.51
584.34	35.11
584.50	93.62
584.66	0.00
584.82	93.62
584.98	42.13
585.14	51.49
585.30	39.79
585.46	114.69
585.62	100.64
585.78	0.00
585.94	0.00
586.10	18.72
586.26	60.85
586.42	107.66
586.58	60.85
586.74	46.81
586.90	60.85
587.06	4.68
587.22	4.68
587.38	11.70
587.54	30.43
587.70	46.81
587.86	21.06
588.02	79.58
588.18	0.00
588.34	0.00
588.49	0.00
588.65	25.75
588.81	32.77
588.97	0.00
589.13	0.00
589.29	42.13
589.45	0.00
589.61	7.02
589.77	74.90
589.93	18.72
590.08	21.06
590.24	23.41
590.40	81.92
590.56	44.47
590.72	79.58
590.88	60.85
591.04	0.00
591.20	56.17
591.35	18.72
591.51	42.13
591.67	112.35
591.83	9.36
591.99	58.51
592.15	60.85
592.31	46.81
592.46	51.49
592.62	11.70
592.78	2.34
592.94	67.88
593.10	112.35
593.26	0.00
593.41	21.06
593.57	16.38
593.73	4.68
593.89	0.00
594.05	46.81
594.20	100.64
594.36	23.41
594.52	77.24
594.68	49.15
594.84	42.13
594.99	0.00
595.15	67.88
595.31	58.51
595.47	95.96
595.62	11.70
595.78	53.83
595.94	51.49
596.10	72.56
596.25	7.02
596.41	42.13
596.57	46.81
596.73	9.36
596.88	21.06
597.04	0.00
597.20	7.02
597.36	28.09
597.51	14.04
597.67	77.24
597.83	72.56
597.99	32.77
598.14	79.58
598.30	0.00
598.46	72.56
598.61	0.00
598.77	53.83
598.93	37.45
599.09	0.00
599.24	0.00
599.40	2.34
599.56	0.00
599.71	0.00
599.87	18.72
600.03	46.81
600.18	14.04
600.34	46.81
600.50	30.43
600.65	91.28
600.81	42.13
600.97	11.70
601.12	7.02
601.28	18.72
601.44	7.02
601.59	30.43
601.75	0.00
601.91	44.47
602.06	0.00
602.22	16.38
602.37	74.90
602.53	72.56
602.69	7.02
602.84	23.41
603.00	39.79
603.16	74.90
603.31	0.00
603.47	37.45
603.62	9.36
603.78	28.09
603.94	65.54
604.09	21.06
604.25	14.04
604.40	0.00
604.56	0.00
604.71	35.11
604.87	110.01
605.03	39.79
605.18	37.45
605.34	63.19
605.49	60.85
605.65	42.13
605.80	16.38
605.96	0.00
606.12	9.36
606.27	30.43
606.43	7.02
606.58	16.38
606.74	11.70
606.89	30.43
607.05	117.03
607.20	58.51
607.36	0.00
607.51	14.04
607.67	42.13
607.82	81.92
607.98	14.04
608.13	0.00
608.29	0.00
608.44	0.00
608.60	67.88
608.75	65.54
608.91	51.49
609.06	25.75
609.22	65.54
609.37	0.00
609.53	46.81
609.68	14.04
609.84	93.62
609.99	7.02
610.15	11.70
610.30	0.00
610.46	46.81
610.61	93.62
610.76	0.00
610.92	58.51
611.07	0.00
611.23	25.75
611.38	21.06
611.54	0.00
611.69	0.00
611.84	32.77
612.00	39.79
612.15	23.41
612.31	0.00
612.46	0.00
612.62	32.77
612.77	14.04
612.92	23.41
613.08	28.09
613.23	51.49
613.39	11.70
613.54	4.68
613.69	21.06
613.85	46.81
614.00	37.45
614.15	28.09
614.31	30.43
614.46	63.19
614.62	0.00
614.77	7.02
614.92	0.00
615.08	63.19
615.23	63.19
615.38	65.54
615.54	25.75
615.69	86.60
615.84	72.56
616.00	0.00
616.15	25.75
616.30	0.00
616.46	74.90
616.61	140.43
616.76	23.41
616.92	49.15
617.07	9.36
617.22	0.00
617.37	58.51
617.53	32.77
617.68	58.51
617.83	0.00
617.99	39.79
618.14	46.81
618.29	30.43
618.45	32.77
618.60	39.79
618.75	0.00
618.90	16.38
619.06	30.43
619.21	79.58
619.36	77.24
619.51	88.94
619.67	51.49
619.82	14.04
619.97	58.51
620.12	0.00
620.28	42.13
620.43	93.62
620.58	42.13
620.73	39.79
620.89	7.02
621.04	28.09
621.19	0.00
621.34	51.49
621.49	49.15
621.65	49.15
621.80	28.09
621.95	56.17
622.10	56.17
622.25	91.28
622.41	30.43
622.56	0.00
622.71	0.00
622.86	0.00
623.01	0.00
623.16	4.68
623.32	72.56
623.47	42.13
623.62	7.02
623.77	9.36
623.92	0.00
624.07	28.09
624.23	35.11
624.38	67.88
624.53	11.70
624.68	0.00
624.83	112.35
624.98	42.13
625.13	16.38
625.29	0.00
625.44	67.88
625.59	16.38
625.74	51.49
625.89	0.00
626.04	58.51
626.19	53.83
626.34	0.00
626.49	70.22
626.65	0.00
626.80	0.00
626.95	35.11
627.10	100.64
627.25	93.62
627.40	16.38
627.55	44.47
627.70	0.00
627.85	0.00
628.00	0.00
628.15	91.28
628.30	44.47
628.45	28.09
628.60	21.06
628.76	58.51
628.91	23.41
629.06	46.81
629.21	39.79
629.36	86.60
629.51	23.41
629.66	37.45
629.81	9.36
629.96	0.00
630.11	4.68
630.26	60.85
630.41	2.34
630.56	88.94
630.71	25.75
630.86	32.77
631.01	117.03
631.16	56.17
631.31	2.34
631.46	32.77
631.61	16.38
631.76	21.06
631.91	4.68
632.06	0.00
632.21	65.54
632.36	86.60
632.51	0.00
632.66	0.00
632.81	114.69
632.96	77.24
633.10	35.11
633.25	18.72
633.40	77.24
633.55	51.49
633.70	0.00
633.85	21.06
634.00	18.72
634.15	18.72
634.30	58.51
634.45	30.43
634.60	72.56
634.75	79.58
634.90	114.69
635.05	2.34
635.19	32.77
635.34	42.13
635.49	0.00
635.64	81.92
635.79	32.77
635.94	81.92
636.09	32.77
636.24	0.00
636.39	0.00
636.53	63.19
636.68	93.62
636.83	44.47
636.98	37.45
637.13	7.02
637.28	39.79
637.43	35.11
637.57	91.28
637.72	53.83
637.87	23.41
638.02	4.68
638.17	53.83
638.32	0.00
638.46	4.68
638.61	32.77
638.76	91.28
638.91	65.54
639.06	4.68
639.20	35.11
639.35	0.00
639.50	11.70
639.65	79.58
639.80	53.83
639.94	42.13
640.09	56.17
640.24	65.54
640.39	77.24
640.54	23.41
640.68	37.45
640.83	21.06
640.98	32.77
641.13	23.41
641.27	79.58
641.42	0.00
641.57	102.98
641.72	72.56
641.86	128.73
642.01	0.00
642.16	16.38
642.31	117.03
642.45	58.51
642.60	49.15
642.75	0.00
642.90	46.81
643.04	39.79
643.19	84.26
643.34	98.30
643.48	58.51
643.63	63.19
643.78	60.85
643.93	102.98
644.07	0.00
644.22	0.00
644.37	0.00
644.51	14.04
644.66	2.34
644.81	39.79
644.95	35.11
645.10	0.00
645.25	0.00
645.39	0.00
645.54	14.04
645.69	46.81
645.83	28.09
645.98	86.60
646.13	0.00
646.27	117.03
646.42	46.81
646.57	14.04
646.71	0.00
646.86	21.06
647.00	37.45
647.15	56.17
647.30	0.00
647.44	4.68
647.59	39.79
647.74	11.70
647.88	0.00
648.03	9.36
648.17	18.72
648.32	0.00
648.47	37.45
648.61	18.72
648.76	147.45
648.90	0.00
649.05	0.00
649.20	28.09
649.34	93.62
649.49	9.36
649.63	0.00
649.78	128.73
649.92	7.02
650.07	42.13
650.21	25.75
650.36	0.00
650.51	4.68
650.65	126.39
650.80	114.69
650.94	35.11
651.09	58.51
651.23	39.79
651.38	74.90
651.52	0.00
651.67	44.47
651.81	2.34
651.96	88.94
652.10	35.11
652.25	7.02
652.39	67.88
652.54	16.38
652.68	25.75
652.83	124.05
652.97	98.30
653.12	63.19
653.26	39.79
653.41	32.77
653.55	21.06
653.70	72.56
653.84	32.77
653.99	102.98
654.13	32.77
654.27	11.70
654.42	18.72
654.56	14.04
654.71	81.92
654.85	25.75
655.00	56.17
655.14	51.49
655.29	0.00
655.43	77.24
655.57	30.43
655.72	74.90
655.86	0.00
656.01	0.00
656.15	65.54
656.30	70.22
656.44	0.00
656.58	0.00
656.73	0.00
656.87	49.15
657.01	28.09
657.16	44.47
657.30	49.15
657.45	74.90
657.59	0.00
657.73	2.34
657.88	28.09
658.02	25.75
658.16	67.88
658.31	25.75
658.45	9.36
658.60	0.00
658.74	0.00
658.88	0.00
659.03	46.81
659.17	46.81
659.31	7.02
659.46	23.41
659.60	56.17
659.74	35.11
659.89	44.47
660.03	0.00
660.17	77.24
660.32	70.22
660.46	60.85
660.60	81.92
660.74	86.60
660.89	58.51
661.03	0.00
661.17	0.00
661.32	117.03
661.46	28.09
661.60	51.49
661.74	28.09
661.89	35.11
662.03	0.00
662.17	63.19
662.31	18.72
662.46	0.00
662.60	2.34
662.74	16.38
662.88	0.00
663.03	0.00
663.17	98.30
663.31	44.47
663.45	18.72
663.60	9.36
663.74	42.13
663.88	21.06
664.02	58.51
664.17	0.00
664.31	37.45
664.45	65.54
664.59	0.00
664.73	0.00
664.88	0.00
665.02	60.85
665.16	110.01
665.30	18.72
665.44	32.77
665.59	9.36
665.73	2.34
665.87	28.09
666.01	0.00
666.15	18.72
666.29	0.00
666.44	2.34
666.58	0.00
666.72	11.70
666.86	63.19
667.00	117.03
667.14	7.02
667.28	63.19
667.43	9.36
667.57	0.00
667.71	46.81
667.85	39.79
667.99	56.17
668.13	58.51
668.27	74.90
668.41	58.51
668.56	0.00
668.70	28.09
668.84	0.00
668.98	53.83
669.12	46.81
669.26	23.41
669.40	21.06
669.54	25.75
669.68	14.04
669.82	0.00
669.96	67.88
670.10	88.94
670.25	77.24
670.39	142.77
670.53	84.26
670.67	51.49
670.81	42.13
670.95	0.00
671.09	0.00
671.23	14.04
671.37	0.00
671.51	70.22
671.65	9.36
671.79	16.38
671.93	11.70
672.07	0.00
672.21	81.92
672.35	42.13
672.49	2.34
672.63	0.00
672.77	9.36
672.91	37.45
673.05	107.66
673.19	56.17
673.33	2.34
673.47	37.45
673.61	46.81
673.75	35.11
673.89	0.00
674.03	70.22
674.17	93.62
674.31	2.34
674.45	30.43
674.59	81.92
674.73	58.51
674.87	44.47
675.01	35.11
675.15	30.43
675.29	37.45
675.43	107.66
675.56	35.11
675.70	133.41
675.84	0.00
675.98	88.94
676.12	39.79
676.26	0.00
676.40	23.41
676.54	60.85
676.68	51.49
676.82	2.34
676.96	0.00
677.10	65.54
677.23	72.56
677.37	28.09
677.51	0.00
677.65	37.45
677.79	56.17
677.93	93.62
678.07	0.00
678.21	100.64
678.34	28.09
678.48	35.11
678.62	32.77
678.76	0.00
678.90	63.19
679.04	39.79
679.18	25.75
679.31	9.36
679.45	0.00
679.59	72.56
679.73	14.04
679.87	25.75
680.00	74.90
680.14	67.88
680.28	79.58
680.42	32.77
680.56	72.56
680.70	0.00
680.83	4.68
680.97	23.41
681.11	49.15
681.25	56.17
681.39	16.38
681.52	42.13
681.66	39.79
681.80	70.22
681.94	11.70
682.07	102.98
682.21	25.75
682.35	0.00
682.49	0.00
682.62	42.13
682.76	14.04
682.90	84.26
683.04	7.02
683.17	53.83
683.31	58.51
683.45	0.00
683.59	51.49
683.72	91.28
683.86	11.70
684.00	56.17
684.13	67.88
684.27	32.77
684.41	49.15
684.55	65.54
684.68	81.92
684.82	58.51
684.96	58.51
685.09	107.66
685.23	7.02
685.37	30.43
685.50	28.09
685.64	46.81
685.78	25.75
685.91	91.28
686.05	133.41
686.19	11.70
686.32	0.00
686.46	42.13
686.60	21.06
686.73	0.00
686.87	70.22
687.01	28.09
687.14	79.58
687.28	2.34
687.42	0.00
687.55	0.00
687.69	49.15
687.82	2.34
687.96	46.81
688.10	35.11
688.23	72.56
688.37	74.90
688.50	0.00
688.64	4.68
688.78	60.85
688.91	0.00
689.05	49.15
689.18	79.58
689.32	0.00
689.46	0.00
689.59	11.70
689.73	25.75
689.86	30.43
690.00	63.19
690.13	86.60
690.27	0.00
690.41	58.51
690.54	84.26
690.68	46.81
690.81	0.00
690.95	30.43
691.08	51.49
691.22	11.70
691.35	0.00
691.49	7.02
691.62	35.11
691.76	0.00
691.89	23.41
692.03	2.34
692.16	35.11
692.30	60.85
692.43	39.79
692.57	30.43
692.70	2.34
692.84	39.79
692.97	7.02
693.11	63.19
693.24	16.38
693.38	28.09
693.51	0.00
693.65	53.83
693.78	0.00
693.92	21.06
694.05	46.81
694.19	37.45
694.32	58.51
694.45	0.00
694.59	39.79
694.72	0.00
694.86	0.00
694.99	0.00
695.13	30.43
695.26	0.00
695.39	14.04
695.53	67.88
695.66	14.04
695.80	42.13
695.93	11.70
696.07	30.43
696.20	56.17
696.33	49.15
696.47	0.00
696.60	35.11
696.73	16.38
696.87	0.00
697.00	30.43
697.14	37.45
697.27	0.00
697.40	14.04
697.54	49.15
697.67	0.00
697.80	63.19
697.94	7.02
698.07	39.79
698.21	7.02
698.34	58.51
698.47	53.83
698.61	77.24
698.74	53.83
698.87	46.81
699.01	32.77
699.14	14.04
699.27	74.90
699.40	16.38
699.54	0.00
699.67	28.09
699.80	39.79
699.94	46.81
700.07	0.00
700.20	25.75
700.34	21.06
700.47	0.00
700.60	0.00
700.73	60.85
700.87	42.13
701.00	14.04
701.13	58.51
701.26	7.02
701.40	16.38
701.53	23.41
701.66	67.88
701.79	35.11
701.93	79.58
702.06	23.41
702.19	70.22
702.32	11.70
702.46	0.00
702.59	0.00
702.72	0.00
702.85	0.00
702.99	9.36
703.12	51.49
703.25	91.28
703.38	84.26
703.51	14.04
703.65	46.81
703.78	16.38
703.91	53.83
704.04	11.70
704.17	30.43
704.31	112.35
704.44	21.06
704.57	53.83
704.70	65.54
704.83	32.77
704.96	16.38
705.10	21.06
705.23	4.68
>>>>>End Processed Spectral Data<<<<<
