SpectraSuite Data File
++++++++++++++++++++++++++++++++++++
Date: Fri Oct 04 12:13:40 GMT-05:00 2013
User: price-jones
Dark Spectrum Present: No
Reference Spectrum Present: No
Number of Sampled Component Spectra: 1
Spectrometers: USB2+H05261
Integration Time (usec): 10000 (USB2+H05261)
Spectra Averaged: 1 (USB2+H05261)
Boxcar Smoothing: 0 (USB2+H05261)
Correct for Electrical Dark: No (USB2+H05261)
Strobe/Lamp Enabled: No (USB2+H05261)
Correct for Detector Non-linearity: No (USB2+H05261)
Correct for Stray Light: No (USB2+H05261)
Number of Pixels in Processed Spectrum: 2048
>>>>>Begin Processed Spectral Data<<<<<
365.73	11.70
365.92	11.70
366.12	11.70
366.32	0.00
366.52	0.00
366.72	0.00
366.91	0.00
367.11	0.00
367.31	0.00
367.51	0.00
367.70	0.00
367.90	0.00
368.10	0.00
368.30	0.00
368.49	0.00
368.69	0.00
368.89	0.00
369.09	0.00
369.28	0.00
369.48	0.00
369.68	0.00
369.87	0.00
370.07	0.00
370.27	0.00
370.47	0.00
370.66	28.09
370.86	0.00
371.06	0.00
371.25	0.00
371.45	4.68
371.65	0.00
371.84	0.00
372.04	32.77
372.24	39.79
372.44	25.75
372.63	0.00
372.83	35.11
373.03	21.06
373.22	14.04
373.42	30.43
373.62	0.00
373.81	53.83
374.01	88.94
374.21	81.92
374.40	42.13
374.60	2.34
374.79	42.13
374.99	84.26
375.19	63.19
375.38	44.47
375.58	42.13
375.78	16.38
375.97	18.72
376.17	7.02
376.37	18.72
376.56	60.85
376.76	25.75
376.95	0.00
377.15	37.45
377.35	0.00
377.54	60.85
377.74	23.41
377.93	0.00
378.13	35.11
378.33	0.00
378.52	0.00
378.72	18.72
378.91	56.17
379.11	72.56
379.31	58.51
379.50	0.00
379.70	65.54
379.89	16.38
380.09	0.00
380.28	39.79
380.48	58.51
380.68	0.00
380.87	23.41
381.07	79.58
381.26	44.47
381.46	28.09
381.65	0.00
381.85	0.00
382.04	67.88
382.24	100.64
382.43	35.11
382.63	0.00
382.83	30.43
383.02	32.77
383.22	23.41
383.41	2.34
383.61	46.81
383.80	35.11
384.00	0.00
384.19	46.81
384.39	32.77
384.58	60.85
384.78	79.58
384.97	11.70
385.17	0.00
385.36	0.00
385.56	0.00
385.75	79.58
385.95	0.00
386.14	18.72
386.34	0.00
386.53	30.43
386.72	23.41
386.92	28.09
387.11	28.09
387.31	39.79
387.50	58.51
387.70	0.00
387.89	0.00
388.09	0.00
388.28	42.13
388.48	102.98
388.67	49.15
388.86	63.19
389.06	25.75
389.25	28.09
389.45	0.00
389.64	86.60
389.84	72.56
390.03	14.04
390.22	23.41
390.42	7.02
390.61	0.00
390.81	2.34
391.00	28.09
391.19	51.49
391.39	7.02
391.58	9.36
391.78	39.79
391.97	100.64
392.16	32.77
392.36	86.60
392.55	74.90
392.75	0.00
392.94	0.00
393.13	84.26
393.33	0.00
393.52	4.68
393.71	37.45
393.91	91.28
394.10	51.49
394.29	51.49
394.49	0.00
394.68	0.00
394.88	14.04
395.07	23.41
395.26	30.43
395.46	100.64
395.65	72.56
395.84	0.00
396.04	79.58
396.23	18.72
396.42	0.00
396.62	74.90
396.81	53.83
397.00	51.49
397.19	7.02
397.39	0.00
397.58	0.00
397.77	14.04
397.97	63.19
398.16	2.34
398.35	0.00
398.55	28.09
398.74	14.04
398.93	77.24
399.12	14.04
399.32	37.45
399.51	25.75
399.70	30.43
399.90	91.28
400.09	4.68
400.28	56.17
400.47	63.19
400.67	60.85
400.86	44.47
401.05	65.54
401.24	0.00
401.44	0.00
401.63	21.06
401.82	0.00
402.01	0.00
402.21	7.02
402.40	7.02
402.59	81.92
402.78	37.45
402.97	0.00
403.17	126.39
403.36	79.58
403.55	21.06
403.74	91.28
403.93	25.75
404.13	0.00
404.32	44.47
404.51	0.00
404.70	4.68
404.89	25.75
405.09	60.85
405.28	21.06
405.47	0.00
405.66	23.41
405.85	0.00
406.05	35.11
406.24	9.36
406.43	74.90
406.62	0.00
406.81	0.00
407.00	79.58
407.20	86.60
407.39	30.43
407.58	53.83
407.77	53.83
407.96	11.70
408.15	28.09
408.34	72.56
408.54	95.96
408.73	16.38
408.92	44.47
409.11	39.79
409.30	0.00
409.49	16.38
409.68	4.68
409.87	56.17
410.07	63.19
410.26	0.00
410.45	81.92
410.64	11.70
410.83	51.49
411.02	74.90
411.21	42.13
411.40	95.96
411.59	2.34
411.78	0.00
411.98	4.68
412.17	0.00
412.36	63.19
412.55	0.00
412.74	58.51
412.93	21.06
413.12	49.15
413.31	100.64
413.50	14.04
413.69	0.00
413.88	79.58
414.07	30.43
414.26	42.13
414.45	63.19
414.64	74.90
414.83	53.83
415.02	0.00
415.22	77.24
415.41	107.66
415.60	0.00
415.79	0.00
415.98	107.66
416.17	28.09
416.36	39.79
416.55	60.85
416.74	81.92
416.93	49.15
417.12	18.72
417.31	70.22
417.50	95.96
417.69	44.47
417.88	49.15
418.07	9.36
418.26	0.00
418.45	0.00
418.64	51.49
418.83	67.88
419.02	16.38
419.21	77.24
419.39	9.36
419.58	23.41
419.77	16.38
419.96	16.38
420.15	81.92
420.34	32.77
420.53	23.41
420.72	32.77
420.91	91.28
421.10	42.13
421.29	0.00
421.48	93.62
421.67	63.19
421.86	2.34
422.05	53.83
422.24	2.34
422.43	81.92
422.61	4.68
422.80	58.51
422.99	32.77
423.18	21.06
423.37	84.26
423.56	32.77
423.75	0.00
423.94	7.02
424.13	0.00
424.32	32.77
424.50	117.03
424.69	58.51
424.88	67.88
425.07	67.88
425.26	110.01
425.45	117.03
425.64	84.26
425.83	23.41
426.01	46.81
426.20	0.00
426.39	23.41
426.58	42.13
426.77	9.36
426.96	0.00
427.15	63.19
427.33	21.06
427.52	72.56
427.71	18.72
427.90	32.77
428.09	0.00
428.28	88.94
428.46	60.85
428.65	65.54
428.84	67.88
429.03	32.77
429.22	39.79
429.40	23.41
429.59	28.09
429.78	30.43
429.97	93.62
430.16	0.00
430.34	0.00
430.53	0.00
430.72	23.41
430.91	32.77
431.10	51.49
431.28	21.06
431.47	32.77
431.66	49.15
431.85	49.15
432.03	16.38
432.22	95.96
432.41	51.49
432.60	65.54
432.79	39.79
432.97	72.56
433.16	79.58
433.35	42.13
433.54	63.19
433.72	63.19
433.91	14.04
434.10	35.11
434.28	44.47
434.47	70.22
434.66	98.30
434.85	88.94
435.03	63.19
435.22	88.94
435.41	11.70
435.59	4.68
435.78	74.90
435.97	30.43
436.16	107.66
436.34	37.45
436.53	30.43
436.72	74.90
436.90	53.83
437.09	67.88
437.28	44.47
437.46	0.00
437.65	60.85
437.84	42.13
438.02	84.26
438.21	102.98
438.40	28.09
438.58	18.72
438.77	84.26
438.96	7.02
439.14	77.24
439.33	74.90
439.52	77.24
439.70	46.81
439.89	42.13
440.08	72.56
440.26	105.32
440.45	35.11
440.63	119.37
440.82	63.19
441.01	0.00
441.19	0.00
441.38	0.00
441.57	56.17
441.75	0.00
441.94	65.54
442.12	159.16
442.31	30.43
442.50	0.00
442.68	81.92
442.87	23.41
443.05	35.11
443.24	58.51
443.43	102.98
443.61	81.92
443.80	46.81
443.98	37.45
444.17	86.60
444.35	18.72
444.54	30.43
444.73	98.30
444.91	18.72
445.10	74.90
445.28	65.54
445.47	128.73
445.65	21.06
445.84	70.22
446.02	0.00
446.21	18.72
446.39	91.28
446.58	37.45
446.77	0.00
446.95	39.79
447.14	93.62
447.32	98.30
447.51	63.19
447.69	28.09
447.88	84.26
448.06	93.62
448.25	98.30
448.43	93.62
448.62	77.24
448.80	53.83
448.99	14.04
449.17	23.41
449.36	72.56
449.54	37.45
449.73	91.28
449.91	117.03
450.10	79.58
450.28	21.06
450.46	70.22
450.65	51.49
450.83	0.00
451.02	60.85
451.20	0.00
451.39	32.77
451.57	37.45
451.76	93.62
451.94	21.06
452.13	46.81
452.31	56.17
452.49	32.77
452.68	0.00
452.86	65.54
453.05	81.92
453.23	112.35
453.42	126.39
453.60	107.66
453.78	28.09
453.97	95.96
454.15	53.83
454.34	100.64
454.52	21.06
454.70	0.00
454.89	100.64
455.07	23.41
455.26	100.64
455.44	53.83
455.62	135.75
455.81	28.09
455.99	86.60
456.17	95.96
456.36	23.41
456.54	25.75
456.73	37.45
456.91	0.00
457.09	67.88
457.28	79.58
457.46	18.72
457.64	42.13
457.83	16.38
458.01	53.83
458.19	63.19
458.38	53.83
458.56	65.54
458.74	81.92
458.93	65.54
459.11	0.00
459.29	25.75
459.48	63.19
459.66	107.66
459.84	44.47
460.03	93.62
460.21	51.49
460.39	121.71
460.57	72.56
460.76	42.13
460.94	93.62
461.12	37.45
461.31	79.58
461.49	28.09
461.67	18.72
461.85	107.66
462.04	95.96
462.22	42.13
462.40	79.58
462.59	58.51
462.77	91.28
462.95	95.96
463.13	67.88
463.32	131.07
463.50	105.32
463.68	135.75
463.86	86.60
464.05	37.45
464.23	100.64
464.41	86.60
464.59	107.66
464.78	72.56
464.96	58.51
465.14	107.66
465.32	21.06
465.50	44.47
465.69	21.06
465.87	30.43
466.05	42.13
466.23	0.00
466.41	18.72
466.60	86.60
466.78	70.22
466.96	84.26
467.14	58.51
467.32	46.81
467.51	30.43
467.69	77.24
467.87	44.47
468.05	98.30
468.23	98.30
468.41	95.96
468.60	84.26
468.78	42.13
468.96	84.26
469.14	51.49
469.32	23.41
469.50	0.00
469.69	51.49
469.87	32.77
470.05	67.88
470.23	100.64
470.41	88.94
470.59	65.54
470.77	21.06
470.95	14.04
471.14	9.36
471.32	84.26
471.50	0.00
471.68	51.49
471.86	2.34
472.04	88.94
472.22	65.54
472.40	74.90
472.58	11.70
472.77	16.38
472.95	86.60
473.13	11.70
473.31	53.83
473.49	149.79
473.67	70.22
473.85	95.96
474.03	93.62
474.21	114.69
474.39	44.47
474.57	56.17
474.75	72.56
474.93	49.15
475.12	121.71
475.30	51.49
475.48	84.26
475.66	105.32
475.84	11.70
476.02	35.11
476.20	0.00
476.38	58.51
476.56	135.75
476.74	67.88
476.92	35.11
477.10	56.17
477.28	18.72
477.46	67.88
477.64	70.22
477.82	142.77
478.00	126.39
478.18	28.09
478.36	11.70
478.54	98.30
478.72	49.15
478.90	86.60
479.08	49.15
479.26	37.45
479.44	152.13
479.62	72.56
479.80	93.62
479.98	88.94
480.16	67.88
480.34	72.56
480.52	37.45
480.70	81.92
480.88	63.19
481.06	91.28
481.24	51.49
481.41	28.09
481.59	23.41
481.77	25.75
481.95	46.81
482.13	84.26
482.31	63.19
482.49	42.13
482.67	49.15
482.85	42.13
483.03	63.19
483.21	0.00
483.39	51.49
483.57	11.70
483.74	88.94
483.92	51.49
484.10	98.30
484.28	25.75
484.46	0.00
484.64	53.83
484.82	63.19
485.00	58.51
485.18	37.45
485.35	79.58
485.53	72.56
485.71	77.24
485.89	86.60
486.07	72.56
486.25	77.24
486.43	114.69
486.61	65.54
486.78	65.54
486.96	93.62
487.14	53.83
487.32	98.30
487.50	35.11
487.68	14.04
487.85	21.06
488.03	0.00
488.21	128.73
488.39	23.41
488.57	67.88
488.75	28.09
488.92	112.35
489.10	93.62
489.28	65.54
489.46	18.72
489.64	67.88
489.81	72.56
489.99	30.43
490.17	42.13
490.35	119.37
490.53	72.56
490.70	119.37
490.88	100.64
491.06	49.15
491.24	81.92
491.41	74.90
491.59	88.94
491.77	84.26
491.95	25.75
492.13	0.00
492.30	86.60
492.48	117.03
492.66	44.47
492.84	77.24
493.01	140.43
493.19	46.81
493.37	147.45
493.54	131.07
493.72	30.43
493.90	16.38
494.08	95.96
494.25	114.69
494.43	100.64
494.61	49.15
494.79	39.79
494.96	84.26
495.14	124.05
495.32	79.58
495.49	58.51
495.67	42.13
495.85	58.51
496.02	77.24
496.20	42.13
496.38	0.00
496.55	79.58
496.73	72.56
496.91	39.79
497.09	102.98
497.26	46.81
497.44	140.43
497.62	28.09
497.79	60.85
497.97	37.45
498.14	98.30
498.32	98.30
498.50	88.94
498.67	67.88
498.85	170.86
499.03	114.69
499.20	63.19
499.38	100.64
499.56	124.05
499.73	77.24
499.91	117.03
500.08	0.00
500.26	32.77
500.44	16.38
500.61	102.98
500.79	140.43
500.97	77.24
501.14	28.09
501.32	117.03
501.49	49.15
501.67	23.41
501.84	23.41
502.02	65.54
502.20	77.24
502.37	145.11
502.55	93.62
502.72	74.90
502.90	95.96
503.07	112.35
503.25	126.39
503.43	16.38
503.60	117.03
503.78	35.11
503.95	56.17
504.13	79.58
504.30	100.64
504.48	105.32
504.65	42.13
504.83	72.56
505.01	51.49
505.18	74.90
505.36	107.66
505.53	131.07
505.71	35.11
505.88	65.54
506.06	60.85
506.23	93.62
506.41	107.66
506.58	126.39
506.76	98.30
506.93	67.88
507.11	95.96
507.28	81.92
507.46	86.60
507.63	98.30
507.81	37.45
507.98	77.24
508.16	91.28
508.33	79.58
508.50	70.22
508.68	147.45
508.85	102.98
509.03	131.07
509.20	74.90
509.38	70.22
509.55	23.41
509.73	98.30
509.90	32.77
510.08	74.90
510.25	114.69
510.42	98.30
510.60	14.04
510.77	21.06
510.95	16.38
511.12	79.58
511.30	63.19
511.47	44.47
511.64	77.24
511.82	117.03
511.99	51.49
512.17	102.98
512.34	11.70
512.51	88.94
512.69	63.19
512.86	105.32
513.04	2.34
513.21	74.90
513.38	58.51
513.56	161.50
513.73	56.17
513.90	95.96
514.08	9.36
514.25	25.75
514.43	100.64
514.60	67.88
514.77	21.06
514.95	84.26
515.12	88.94
515.29	58.51
515.47	77.24
515.64	128.73
515.81	102.98
515.99	65.54
516.16	126.39
516.33	102.98
516.51	74.90
516.68	88.94
516.85	93.62
517.03	53.83
517.20	124.05
517.37	60.85
517.54	16.38
517.72	0.00
517.89	49.15
518.06	0.00
518.24	135.75
518.41	72.56
518.58	163.84
518.75	163.84
518.93	70.22
519.10	98.30
519.27	30.43
519.45	126.39
519.62	86.60
519.79	131.07
519.96	4.68
520.14	74.90
520.31	39.79
520.48	119.37
520.65	44.47
520.83	49.15
521.00	81.92
521.17	119.37
521.34	79.58
521.52	119.37
521.69	126.39
521.86	81.92
522.03	93.62
522.20	30.43
522.38	0.00
522.55	117.03
522.72	98.30
522.89	98.30
523.07	93.62
523.24	107.66
523.41	72.56
523.58	166.18
523.75	32.77
523.92	93.62
524.10	105.32
524.27	11.70
524.44	100.64
524.61	93.62
524.78	30.43
524.96	42.13
525.13	81.92
525.30	128.73
525.47	28.09
525.64	119.37
525.81	152.13
525.98	56.17
526.16	131.07
526.33	25.75
526.50	44.47
526.67	107.66
526.84	79.58
527.01	152.13
527.18	72.56
527.36	138.09
527.53	74.90
527.70	21.06
527.87	128.73
528.04	91.28
528.21	98.30
528.38	110.01
528.55	74.90
528.72	95.96
528.89	128.73
529.07	53.83
529.24	77.24
529.41	56.17
529.58	46.81
529.75	25.75
529.92	58.51
530.09	98.30
530.26	88.94
530.43	112.35
530.60	60.85
530.77	70.22
530.94	28.09
531.11	63.19
531.28	95.96
531.46	60.85
531.63	140.43
531.80	91.28
531.97	124.05
532.14	84.26
532.31	91.28
532.48	67.88
532.65	93.62
532.82	63.19
532.99	0.00
533.16	84.26
533.33	74.90
533.50	84.26
533.67	67.88
533.84	0.00
534.01	77.24
534.18	95.96
534.35	37.45
534.52	88.94
534.69	39.79
534.86	35.11
535.03	25.75
535.20	105.32
535.37	88.94
535.54	63.19
535.71	53.83
535.88	114.69
536.05	98.30
536.22	88.94
536.38	18.72
536.55	0.00
536.72	23.41
536.89	91.28
537.06	79.58
537.23	84.26
537.40	140.43
537.57	44.47
537.74	107.66
537.91	67.88
538.08	77.24
538.25	58.51
538.42	79.58
538.59	135.75
538.75	110.01
538.92	147.45
539.09	147.45
539.26	30.43
539.43	56.17
539.60	100.64
539.77	58.51
539.94	63.19
540.11	63.19
540.28	84.26
540.44	100.64
540.61	98.30
540.78	107.66
540.95	93.62
541.12	74.90
541.29	147.45
541.46	65.54
541.62	95.96
541.79	131.07
541.96	119.37
542.13	91.28
542.30	37.45
542.47	154.48
542.63	88.94
542.80	91.28
542.97	88.94
543.14	51.49
543.31	131.07
543.48	84.26
543.64	98.30
543.81	35.11
543.98	110.01
544.15	107.66
544.32	110.01
544.48	86.60
544.65	79.58
544.82	126.39
544.99	124.05
545.16	67.88
545.32	56.17
545.49	98.30
545.66	86.60
545.83	93.62
546.00	58.51
546.16	65.54
546.33	39.79
546.50	102.98
546.67	25.75
546.83	121.71
547.00	70.22
547.17	49.15
547.34	154.48
547.50	67.88
547.67	39.79
547.84	58.51
548.00	51.49
548.17	95.96
548.34	110.01
548.51	117.03
548.67	91.28
548.84	63.19
549.01	91.28
549.18	51.49
549.34	74.90
549.51	112.35
549.68	11.70
549.84	166.18
550.01	46.81
550.18	117.03
550.34	21.06
550.51	70.22
550.68	79.58
550.84	77.24
551.01	81.92
551.18	72.56
551.34	37.45
551.51	128.73
551.68	70.22
551.84	70.22
552.01	86.60
552.18	74.90
552.34	133.41
552.51	67.88
552.68	28.09
552.84	140.43
553.01	95.96
553.18	51.49
553.34	110.01
553.51	46.81
553.67	32.77
553.84	102.98
554.01	112.35
554.17	86.60
554.34	39.79
554.51	58.51
554.67	95.96
554.84	114.69
555.00	37.45
555.17	63.19
555.33	49.15
555.50	65.54
555.67	60.85
555.83	131.07
556.00	95.96
556.16	53.83
556.33	84.26
556.50	14.04
556.66	72.56
556.83	100.64
556.99	91.28
557.16	21.06
557.32	79.58
557.49	32.77
557.65	70.22
557.82	67.88
557.98	60.85
558.15	44.47
558.32	95.96
558.48	79.58
558.65	98.30
558.81	88.94
558.98	81.92
559.14	81.92
559.31	154.48
559.47	65.54
559.64	67.88
559.80	100.64
559.97	72.56
560.13	121.71
560.30	95.96
560.46	126.39
560.63	91.28
560.79	124.05
560.96	152.13
561.12	63.19
561.29	42.13
561.45	98.30
561.61	81.92
561.78	112.35
561.94	63.19
562.11	53.83
562.27	112.35
562.44	114.69
562.60	121.71
562.77	88.94
562.93	28.09
563.10	74.90
563.26	163.84
563.42	142.77
563.59	51.49
563.75	102.98
563.92	117.03
564.08	112.35
564.24	25.75
564.41	67.88
564.57	93.62
564.74	79.58
564.90	84.26
565.07	60.85
565.23	100.64
565.39	60.85
565.56	135.75
565.72	0.00
565.88	30.43
566.05	11.70
566.21	102.98
566.38	93.62
566.54	7.02
566.70	70.22
566.87	100.64
567.03	119.37
567.19	74.90
567.36	88.94
567.52	91.28
567.68	28.09
567.85	91.28
568.01	56.17
568.17	67.88
568.34	56.17
568.50	23.41
568.66	79.58
568.83	145.11
568.99	98.30
569.15	88.94
569.32	86.60
569.48	145.11
569.64	81.92
569.81	39.79
569.97	161.50
570.13	98.30
570.30	0.00
570.46	98.30
570.62	49.15
570.78	65.54
570.95	30.43
571.11	16.38
571.27	142.77
571.43	81.92
571.60	70.22
571.76	86.60
571.92	84.26
572.09	91.28
572.25	56.17
572.41	121.71
572.57	102.98
572.74	110.01
572.90	105.32
573.06	0.00
573.22	77.24
573.38	88.94
573.55	77.24
573.71	9.36
573.87	128.73
574.03	84.26
574.20	128.73
574.36	70.22
574.52	121.71
574.68	74.90
574.84	70.22
575.01	86.60
575.17	37.45
575.33	84.26
575.49	98.30
575.65	79.58
575.82	28.09
575.98	60.85
576.14	51.49
576.30	21.06
576.46	58.51
576.62	72.56
576.79	0.00
576.95	142.77
577.11	58.51
577.27	16.38
577.43	0.00
577.59	58.51
577.75	72.56
577.92	44.47
578.08	84.26
578.24	28.09
578.40	60.85
578.56	72.56
578.72	21.06
578.88	44.47
579.04	4.68
579.21	44.47
579.37	133.41
579.53	112.35
579.69	100.64
579.85	88.94
580.01	32.77
580.17	23.41
580.33	86.60
580.49	107.66
580.65	56.17
580.82	98.30
580.98	0.00
581.14	30.43
581.30	30.43
581.46	56.17
581.62	124.05
581.78	70.22
581.94	18.72
582.10	74.90
582.26	107.66
582.42	51.49
582.58	126.39
582.74	86.60
582.90	53.83
583.06	156.82
583.22	9.36
583.38	98.30
583.54	65.54
583.70	56.17
583.86	81.92
584.02	100.64
584.18	67.88
584.34	79.58
584.50	0.00
584.66	60.85
584.82	124.05
584.98	74.90
585.14	0.00
585.30	93.62
585.46	30.43
585.62	110.01
585.78	93.62
585.94	58.51
586.10	65.54
586.26	107.66
586.42	42.13
586.58	67.88
586.74	112.35
586.90	0.00
587.06	110.01
587.22	86.60
587.38	138.09
587.54	100.64
587.70	91.28
587.86	133.41
588.02	105.32
588.18	84.26
588.34	79.58
588.49	9.36
588.65	42.13
588.81	63.19
588.97	74.90
589.13	0.00
589.29	37.45
589.45	128.73
589.61	117.03
589.77	58.51
589.93	77.24
590.08	21.06
590.24	37.45
590.40	107.66
590.56	32.77
590.72	98.30
590.88	142.77
591.04	60.85
591.20	46.81
591.35	72.56
591.51	32.77
591.67	117.03
591.83	110.01
591.99	100.64
592.15	98.30
592.31	65.54
592.46	84.26
592.62	51.49
592.78	98.30
592.94	121.71
593.10	0.00
593.26	51.49
593.41	58.51
593.57	131.07
593.73	138.09
593.89	28.09
594.05	28.09
594.20	88.94
594.36	142.77
594.52	11.70
594.68	95.96
594.84	121.71
594.99	79.58
595.15	63.19
595.31	23.41
595.47	86.60
595.62	42.13
595.78	28.09
595.94	35.11
596.10	56.17
596.25	51.49
596.41	77.24
596.57	102.98
596.73	77.24
596.88	98.30
597.04	119.37
597.20	112.35
597.36	35.11
597.51	7.02
597.67	74.90
597.83	60.85
597.99	37.45
598.14	44.47
598.30	67.88
598.46	63.19
598.61	77.24
598.77	91.28
598.93	23.41
599.09	110.01
599.24	70.22
599.40	72.56
599.56	58.51
599.71	72.56
599.87	72.56
600.03	60.85
600.18	60.85
600.34	74.90
600.50	37.45
600.65	30.43
600.81	30.43
600.97	9.36
601.12	84.26
601.28	91.28
601.44	74.90
601.59	35.11
601.75	88.94
601.91	37.45
602.06	86.60
602.22	39.79
602.37	46.81
602.53	121.71
602.69	67.88
602.84	93.62
603.00	79.58
603.16	30.43
603.31	51.49
603.47	84.26
603.62	135.75
603.78	67.88
603.94	35.11
604.09	16.38
604.25	117.03
604.40	98.30
604.56	46.81
604.71	98.30
604.87	79.58
605.03	32.77
605.18	35.11
605.34	107.66
605.49	32.77
605.65	105.32
605.80	32.77
605.96	37.45
606.12	84.26
606.27	112.35
606.43	84.26
606.58	84.26
606.74	84.26
606.89	9.36
607.05	60.85
607.20	44.47
607.36	77.24
607.51	42.13
607.67	124.05
607.82	81.92
607.98	65.54
608.13	93.62
608.29	53.83
608.44	95.96
608.60	39.79
608.75	0.00
608.91	63.19
609.06	72.56
609.22	58.51
609.37	121.71
609.53	14.04
609.68	58.51
609.84	32.77
609.99	32.77
610.15	72.56
610.30	140.43
610.46	67.88
610.61	84.26
610.76	88.94
610.92	100.64
611.07	53.83
611.23	51.49
611.38	32.77
611.54	91.28
611.69	56.17
611.84	51.49
612.00	46.81
612.15	16.38
612.31	18.72
612.46	79.58
612.62	126.39
612.77	102.98
612.92	102.98
613.08	23.41
613.23	107.66
613.39	110.01
613.54	56.17
613.69	74.90
613.85	42.13
614.00	32.77
614.15	133.41
614.31	23.41
614.46	74.90
614.62	56.17
614.77	0.00
614.92	46.81
615.08	51.49
615.23	77.24
615.38	79.58
615.54	28.09
615.69	0.00
615.84	16.38
616.00	51.49
616.15	49.15
616.30	126.39
616.46	63.19
616.61	16.38
616.76	74.90
616.92	119.37
617.07	84.26
617.22	126.39
617.37	39.79
617.53	23.41
617.68	37.45
617.83	37.45
617.99	49.15
618.14	0.00
618.29	0.00
618.45	102.98
618.60	32.77
618.75	0.00
618.90	0.00
619.06	84.26
619.21	79.58
619.36	9.36
619.51	72.56
619.67	63.19
619.82	23.41
619.97	81.92
620.12	98.30
620.28	11.70
620.43	60.85
620.58	74.90
620.73	16.38
620.89	35.11
621.04	0.00
621.19	79.58
621.34	28.09
621.49	112.35
621.65	23.41
621.80	0.00
621.95	86.60
622.10	77.24
622.25	44.47
622.41	0.00
622.56	21.06
622.71	74.90
622.86	60.85
623.01	86.60
623.16	112.35
623.32	39.79
623.47	44.47
623.62	84.26
623.77	74.90
623.92	70.22
624.07	98.30
624.23	72.56
624.38	53.83
624.53	28.09
624.68	88.94
624.83	35.11
624.98	86.60
625.13	86.60
625.29	42.13
625.44	28.09
625.59	46.81
625.74	168.52
625.89	56.17
626.04	44.47
626.19	112.35
626.34	53.83
626.49	77.24
626.65	53.83
626.80	88.94
626.95	25.75
627.10	37.45
627.25	25.75
627.40	30.43
627.55	35.11
627.70	0.00
627.85	65.54
628.00	0.00
628.15	67.88
628.30	77.24
628.45	9.36
628.60	88.94
628.76	112.35
628.91	74.90
629.06	65.54
629.21	53.83
629.36	25.75
629.51	14.04
629.66	44.47
629.81	56.17
629.96	53.83
630.11	7.02
630.26	88.94
630.41	100.64
630.56	46.81
630.71	0.00
630.86	86.60
631.01	9.36
631.16	21.06
631.31	140.43
631.46	60.85
631.61	70.22
631.76	88.94
631.91	86.60
632.06	28.09
632.21	35.11
632.36	105.32
632.51	37.45
632.66	49.15
632.81	67.88
632.96	58.51
633.10	86.60
633.25	84.26
633.40	77.24
633.55	4.68
633.70	49.15
633.85	102.98
634.00	44.47
634.15	53.83
634.30	93.62
634.45	42.13
634.60	63.19
634.75	65.54
634.90	79.58
635.05	28.09
635.19	32.77
635.34	56.17
635.49	121.71
635.64	95.96
635.79	44.47
635.94	60.85
636.09	4.68
636.24	91.28
636.39	18.72
636.53	93.62
636.68	135.75
636.83	72.56
636.98	51.49
637.13	67.88
637.28	70.22
637.43	81.92
637.57	124.05
637.72	30.43
637.87	98.30
638.02	58.51
638.17	79.58
638.32	58.51
638.46	39.79
638.61	25.75
638.76	74.90
638.91	126.39
639.06	74.90
639.20	63.19
639.35	86.60
639.50	79.58
639.65	114.69
639.80	42.13
639.94	126.39
640.09	32.77
640.24	39.79
640.39	0.00
640.54	81.92
640.68	51.49
640.83	60.85
640.98	67.88
641.13	44.47
641.27	46.81
641.42	32.77
641.57	32.77
641.72	79.58
641.86	14.04
642.01	44.47
642.16	60.85
642.31	37.45
642.45	93.62
642.60	100.64
642.75	74.90
642.90	53.83
643.04	16.38
643.19	39.79
643.34	107.66
643.48	91.28
643.63	72.56
643.78	77.24
643.93	53.83
644.07	110.01
644.22	93.62
644.37	39.79
644.51	93.62
644.66	42.13
644.81	91.28
644.95	53.83
645.10	42.13
645.25	51.49
645.39	65.54
645.54	131.07
645.69	65.54
645.83	35.11
645.98	25.75
646.13	49.15
646.27	44.47
646.42	18.72
646.57	58.51
646.71	86.60
646.86	46.81
647.00	110.01
647.15	91.28
647.30	2.34
647.44	44.47
647.59	67.88
647.74	65.54
647.88	28.09
648.03	39.79
648.17	16.38
648.32	53.83
648.47	60.85
648.61	25.75
648.76	56.17
648.90	42.13
649.05	58.51
649.20	0.00
649.34	77.24
649.49	65.54
649.63	32.77
649.78	28.09
649.92	56.17
650.07	70.22
650.21	88.94
650.36	53.83
650.51	58.51
650.65	86.60
650.80	77.24
650.94	91.28
651.09	44.47
651.23	9.36
651.38	23.41
651.52	63.19
651.67	28.09
651.81	84.26
651.96	21.06
652.10	0.00
652.25	18.72
652.39	46.81
652.54	84.26
652.68	56.17
652.83	42.13
652.97	70.22
653.12	42.13
653.26	49.15
653.41	93.62
653.55	2.34
653.70	37.45
653.84	49.15
653.99	88.94
654.13	98.30
654.27	14.04
654.42	46.81
654.56	7.02
654.71	121.71
654.85	21.06
655.00	35.11
655.14	63.19
655.29	42.13
655.43	37.45
655.57	30.43
655.72	63.19
655.86	105.32
656.01	23.41
656.15	98.30
656.30	63.19
656.44	44.47
656.58	46.81
656.73	91.28
656.87	39.79
657.01	70.22
657.16	74.90
657.30	14.04
657.45	0.00
657.59	91.28
657.73	18.72
657.88	56.17
658.02	49.15
658.16	35.11
658.31	21.06
658.45	67.88
658.60	77.24
658.74	46.81
658.88	0.00
659.03	9.36
659.17	28.09
659.31	91.28
659.46	16.38
659.60	84.26
659.74	63.19
659.89	65.54
660.03	56.17
660.17	0.00
660.32	107.66
660.46	28.09
660.60	18.72
660.74	154.48
660.89	91.28
661.03	4.68
661.17	42.13
661.32	58.51
661.46	84.26
661.60	11.70
661.74	9.36
661.89	28.09
662.03	0.00
662.17	35.11
662.31	117.03
662.46	74.90
662.60	39.79
662.74	11.70
662.88	0.00
663.03	93.62
663.17	46.81
663.31	86.60
663.45	49.15
663.60	53.83
663.74	14.04
663.88	67.88
664.02	112.35
664.17	46.81
664.31	72.56
664.45	65.54
664.59	63.19
664.73	44.47
664.88	63.19
665.02	21.06
665.16	93.62
665.30	121.71
665.44	119.37
665.59	110.01
665.73	37.45
665.87	21.06
666.01	32.77
666.15	35.11
666.29	63.19
666.44	98.30
666.58	46.81
666.72	25.75
666.86	11.70
667.00	32.77
667.14	18.72
667.28	7.02
667.43	32.77
667.57	23.41
667.71	16.38
667.85	63.19
667.99	77.24
668.13	18.72
668.27	0.00
668.41	18.72
668.56	95.96
668.70	121.71
668.84	63.19
668.98	65.54
669.12	0.00
669.26	0.00
669.40	0.00
669.54	105.32
669.68	70.22
669.82	91.28
669.96	72.56
670.10	25.75
670.25	32.77
670.39	58.51
670.53	25.75
670.67	74.90
670.81	128.73
670.95	18.72
671.09	91.28
671.23	42.13
671.37	56.17
671.51	72.56
671.65	18.72
671.79	63.19
671.93	18.72
672.07	53.83
672.21	65.54
672.35	4.68
672.49	114.69
672.63	42.13
672.77	39.79
672.91	88.94
673.05	121.71
673.19	39.79
673.33	65.54
673.47	84.26
673.61	86.60
673.75	110.01
673.89	0.00
674.03	56.17
674.17	56.17
674.31	84.26
674.45	39.79
674.59	173.20
674.73	51.49
674.87	16.38
675.01	46.81
675.15	7.02
675.29	0.00
675.43	0.00
675.56	39.79
675.70	0.00
675.84	105.32
675.98	49.15
676.12	0.00
676.26	42.13
676.40	51.49
676.54	0.00
676.68	32.77
676.82	145.11
676.96	7.02
677.10	32.77
677.23	63.19
677.37	30.43
677.51	91.28
677.65	23.41
677.79	0.00
677.93	11.70
678.07	95.96
678.21	84.26
678.34	25.75
678.48	0.00
678.62	72.56
678.76	16.38
678.90	32.77
679.04	65.54
679.18	21.06
679.31	63.19
679.45	18.72
679.59	42.13
679.73	30.43
679.87	53.83
680.00	42.13
680.14	14.04
680.28	37.45
680.42	0.00
680.56	46.81
680.70	28.09
680.83	0.00
680.97	0.00
681.11	39.79
681.25	74.90
681.39	44.47
681.52	32.77
681.66	42.13
681.80	95.96
681.94	18.72
682.07	58.51
682.21	0.00
682.35	77.24
682.49	91.28
682.62	0.00
682.76	60.85
682.90	32.77
683.04	11.70
683.17	37.45
683.31	86.60
683.45	16.38
683.59	0.00
683.72	37.45
683.86	9.36
684.00	49.15
684.13	49.15
684.27	77.24
684.41	35.11
684.55	53.83
684.68	56.17
684.82	79.58
684.96	0.00
685.09	39.79
685.23	53.83
685.37	0.00
685.50	88.94
685.64	0.00
685.78	46.81
685.91	46.81
686.05	65.54
686.19	42.13
686.32	72.56
686.46	91.28
686.60	0.00
686.73	28.09
686.87	16.38
687.01	25.75
687.14	23.41
687.28	9.36
687.42	86.60
687.55	30.43
687.69	0.00
687.82	67.88
687.96	67.88
688.10	58.51
688.23	0.00
688.37	51.49
688.50	30.43
688.64	28.09
688.78	93.62
688.91	42.13
689.05	86.60
689.18	72.56
689.32	18.72
689.46	0.00
689.59	28.09
689.73	0.00
689.86	51.49
690.00	0.00
690.13	0.00
690.27	0.00
690.41	37.45
690.54	21.06
690.68	23.41
690.81	51.49
690.95	102.98
691.08	37.45
691.22	72.56
691.35	58.51
691.49	7.02
691.62	16.38
691.76	18.72
691.89	0.00
692.03	23.41
692.16	0.00
692.30	0.00
692.43	0.00
692.57	35.11
692.70	72.56
692.84	0.00
692.97	32.77
693.11	0.00
693.24	9.36
693.38	79.58
693.51	30.43
693.65	21.06
693.78	49.15
693.92	9.36
694.05	77.24
694.19	25.75
694.32	7.02
694.45	4.68
694.59	0.00
694.72	16.38
694.86	11.70
694.99	25.75
695.13	28.09
695.26	70.22
695.39	0.00
695.53	21.06
695.66	30.43
695.80	39.79
695.93	119.37
696.07	72.56
696.20	9.36
696.33	21.06
696.47	14.04
696.60	88.94
696.73	35.11
696.87	49.15
697.00	91.28
697.14	7.02
697.27	21.06
697.40	42.13
697.54	35.11
697.67	79.58
697.80	56.17
697.94	0.00
698.07	0.00
698.21	35.11
698.34	28.09
698.47	63.19
698.61	63.19
698.74	77.24
698.87	67.88
699.01	56.17
699.14	23.41
699.27	46.81
699.40	84.26
699.54	0.00
699.67	65.54
699.80	9.36
699.94	58.51
700.07	95.96
700.20	28.09
700.34	70.22
700.47	46.81
700.60	58.51
700.73	37.45
700.87	11.70
701.00	51.49
701.13	18.72
701.26	53.83
701.40	0.00
701.53	84.26
701.66	0.00
701.79	35.11
701.93	46.81
702.06	0.00
702.19	28.09
702.32	65.54
702.46	114.69
702.59	0.00
702.72	0.00
702.85	37.45
702.99	23.41
703.12	70.22
703.25	67.88
703.38	28.09
703.51	56.17
703.65	42.13
703.78	2.34
703.91	35.11
704.04	70.22
704.17	67.88
704.31	37.45
704.44	11.70
704.57	42.13
704.70	86.60
704.83	44.47
704.96	0.00
705.10	102.98
705.23	159.16
>>>>>End Processed Spectral Data<<<<<
