SpectraSuite Data File
++++++++++++++++++++++++++++++++++++
Date: Fri Oct 04 12:13:42 GMT-05:00 2013
User: price-jones
Dark Spectrum Present: No
Reference Spectrum Present: No
Number of Sampled Component Spectra: 1
Spectrometers: USB2+H05261
Integration Time (usec): 10000 (USB2+H05261)
Spectra Averaged: 1 (USB2+H05261)
Boxcar Smoothing: 0 (USB2+H05261)
Correct for Electrical Dark: No (USB2+H05261)
Strobe/Lamp Enabled: No (USB2+H05261)
Correct for Detector Non-linearity: No (USB2+H05261)
Correct for Stray Light: No (USB2+H05261)
Number of Pixels in Processed Spectrum: 2048
>>>>>Begin Processed Spectral Data<<<<<
365.73	37.45
365.92	37.45
366.12	37.45
366.32	0.00
366.52	0.00
366.72	0.00
366.91	0.00
367.11	0.00
367.31	0.00
367.51	0.00
367.70	0.00
367.90	0.00
368.10	0.00
368.30	0.00
368.49	0.00
368.69	0.00
368.89	0.00
369.09	0.00
369.28	0.00
369.48	0.00
369.68	0.00
369.87	0.00
370.07	0.00
370.27	0.00
370.47	0.00
370.66	0.00
370.86	0.00
371.06	0.00
371.25	23.41
371.45	25.75
371.65	11.70
371.84	0.00
372.04	18.72
372.24	4.68
372.44	0.00
372.63	0.00
372.83	21.06
373.03	9.36
373.22	4.68
373.42	37.45
373.62	39.79
373.81	91.28
374.01	51.49
374.21	79.58
374.40	23.41
374.60	0.00
374.79	53.83
374.99	7.02
375.19	67.88
375.38	51.49
375.58	18.72
375.78	46.81
375.97	11.70
376.17	32.77
376.37	28.09
376.56	4.68
376.76	7.02
376.95	53.83
377.15	7.02
377.35	0.00
377.54	49.15
377.74	0.00
377.93	4.68
378.13	53.83
378.33	30.43
378.52	84.26
378.72	79.58
378.91	0.00
379.11	39.79
379.31	70.22
379.50	46.81
379.70	0.00
379.89	32.77
380.09	63.19
380.28	0.00
380.48	28.09
380.68	0.00
380.87	79.58
381.07	0.00
381.26	53.83
381.46	58.51
381.65	21.06
381.85	0.00
382.04	0.00
382.24	0.00
382.43	21.06
382.63	25.75
382.83	4.68
383.02	63.19
383.22	0.00
383.41	70.22
383.61	21.06
383.80	35.11
384.00	0.00
384.19	46.81
384.39	0.00
384.58	60.85
384.78	32.77
384.97	18.72
385.17	74.90
385.36	60.85
385.56	0.00
385.75	0.00
385.95	98.30
386.14	88.94
386.34	42.13
386.53	119.37
386.72	2.34
386.92	0.00
387.11	49.15
387.31	86.60
387.50	0.00
387.70	16.38
387.89	37.45
388.09	35.11
388.28	42.13
388.48	11.70
388.67	30.43
388.86	35.11
389.06	58.51
389.25	2.34
389.45	23.41
389.64	0.00
389.84	79.58
390.03	0.00
390.22	65.54
390.42	16.38
390.61	4.68
390.81	0.00
391.00	21.06
391.19	70.22
391.39	37.45
391.58	9.36
391.78	0.00
391.97	18.72
392.16	37.45
392.36	0.00
392.55	0.00
392.75	16.38
392.94	95.96
393.13	70.22
393.33	0.00
393.52	11.70
393.71	42.13
393.91	28.09
394.10	0.00
394.29	88.94
394.49	65.54
394.68	58.51
394.88	51.49
395.07	0.00
395.26	49.15
395.46	0.00
395.65	0.00
395.84	16.38
396.04	16.38
396.23	53.83
396.42	51.49
396.62	102.98
396.81	18.72
397.00	121.71
397.19	51.49
397.39	42.13
397.58	16.38
397.77	16.38
397.97	74.90
398.16	117.03
398.35	84.26
398.55	16.38
398.74	32.77
398.93	0.00
399.12	0.00
399.32	0.00
399.51	37.45
399.70	0.00
399.90	23.41
400.09	28.09
400.28	0.00
400.47	46.81
400.67	51.49
400.86	28.09
401.05	65.54
401.24	102.98
401.44	0.00
401.63	21.06
401.82	0.00
402.01	28.09
402.21	74.90
402.40	11.70
402.59	18.72
402.78	46.81
402.97	53.83
403.17	74.90
403.36	25.75
403.55	0.00
403.74	0.00
403.93	72.56
404.13	58.51
404.32	25.75
404.51	28.09
404.70	60.85
404.89	0.00
405.09	42.13
405.28	60.85
405.47	58.51
405.66	49.15
405.85	16.38
406.05	74.90
406.24	0.00
406.43	0.00
406.62	79.58
406.81	112.35
407.00	53.83
407.20	23.41
407.39	56.17
407.58	72.56
407.77	25.75
407.96	39.79
408.15	0.00
408.34	4.68
408.54	70.22
408.73	44.47
408.92	74.90
409.11	4.68
409.30	51.49
409.49	63.19
409.68	23.41
409.87	0.00
410.07	63.19
410.26	77.24
410.45	0.00
410.64	2.34
410.83	42.13
411.02	84.26
411.21	93.62
411.40	37.45
411.59	0.00
411.78	65.54
411.98	21.06
412.17	30.43
412.36	30.43
412.55	42.13
412.74	0.00
412.93	0.00
413.12	86.60
413.31	9.36
413.50	4.68
413.69	32.77
413.88	67.88
414.07	65.54
414.26	53.83
414.45	30.43
414.64	11.70
414.83	114.69
415.02	35.11
415.22	32.77
415.41	46.81
415.60	65.54
415.79	14.04
415.98	72.56
416.17	4.68
416.36	0.00
416.55	58.51
416.74	23.41
416.93	37.45
417.12	77.24
417.31	4.68
417.50	142.77
417.69	95.96
417.88	46.81
418.07	16.38
418.26	30.43
418.45	0.00
418.64	25.75
418.83	65.54
419.02	28.09
419.21	135.75
419.39	56.17
419.58	56.17
419.77	0.00
419.96	58.51
420.15	110.01
420.34	39.79
420.53	21.06
420.72	18.72
420.91	16.38
421.10	145.11
421.29	35.11
421.48	46.81
421.67	79.58
421.86	149.79
422.05	30.43
422.24	63.19
422.43	119.37
422.61	53.83
422.80	42.13
422.99	60.85
423.18	81.92
423.37	21.06
423.56	2.34
423.75	11.70
423.94	91.28
424.13	0.00
424.32	4.68
424.50	21.06
424.69	56.17
424.88	14.04
425.07	46.81
425.26	39.79
425.45	39.79
425.64	44.47
425.83	32.77
426.01	11.70
426.20	32.77
426.39	30.43
426.58	18.72
426.77	49.15
426.96	117.03
427.15	107.66
427.33	65.54
427.52	84.26
427.71	0.00
427.90	56.17
428.09	53.83
428.28	84.26
428.46	21.06
428.65	117.03
428.84	44.47
429.03	74.90
429.22	53.83
429.40	25.75
429.59	9.36
429.78	0.00
429.97	14.04
430.16	0.00
430.34	30.43
430.53	0.00
430.72	81.92
430.91	7.02
431.10	0.00
431.28	49.15
431.47	67.88
431.66	46.81
431.85	107.66
432.03	60.85
432.22	77.24
432.41	14.04
432.60	60.85
432.79	28.09
432.97	58.51
433.16	84.26
433.35	102.98
433.54	18.72
433.72	42.13
433.91	39.79
434.10	42.13
434.28	35.11
434.47	14.04
434.66	81.92
434.85	91.28
435.03	79.58
435.22	100.64
435.41	60.85
435.59	77.24
435.78	0.00
435.97	46.81
436.16	79.58
436.34	2.34
436.53	91.28
436.72	32.77
436.90	65.54
437.09	145.11
437.28	0.00
437.46	16.38
437.65	25.75
437.84	18.72
438.02	124.05
438.21	11.70
438.40	44.47
438.58	28.09
438.77	53.83
438.96	72.56
439.14	35.11
439.33	126.39
439.52	114.69
439.70	93.62
439.89	7.02
440.08	42.13
440.26	18.72
440.45	84.26
440.63	112.35
440.82	25.75
441.01	46.81
441.19	9.36
441.38	84.26
441.57	25.75
441.75	88.94
441.94	46.81
442.12	44.47
442.31	39.79
442.50	102.98
442.68	124.05
442.87	11.70
443.05	0.00
443.24	98.30
443.43	30.43
443.61	110.01
443.80	0.00
443.98	46.81
444.17	72.56
444.35	39.79
444.54	98.30
444.73	81.92
444.91	28.09
445.10	121.71
445.28	0.00
445.47	51.49
445.65	0.00
445.84	95.96
446.02	93.62
446.21	21.06
446.39	32.77
446.58	65.54
446.77	126.39
446.95	39.79
447.14	35.11
447.32	72.56
447.51	70.22
447.69	42.13
447.88	53.83
448.06	58.51
448.25	77.24
448.43	86.60
448.62	39.79
448.80	95.96
448.99	0.00
449.17	56.17
449.36	16.38
449.54	0.00
449.73	72.56
449.91	88.94
450.10	84.26
450.28	4.68
450.46	95.96
450.65	42.13
450.83	53.83
451.02	91.28
451.20	60.85
451.39	18.72
451.57	58.51
451.76	21.06
451.94	100.64
452.13	119.37
452.31	67.88
452.49	140.43
452.68	46.81
452.86	74.90
453.05	23.41
453.23	95.96
453.42	42.13
453.60	79.58
453.78	51.49
453.97	63.19
454.15	58.51
454.34	37.45
454.52	63.19
454.70	21.06
454.89	72.56
455.07	63.19
455.26	81.92
455.44	46.81
455.62	65.54
455.81	91.28
455.99	39.79
456.17	88.94
456.36	74.90
456.54	58.51
456.73	18.72
456.91	25.75
457.09	53.83
457.28	74.90
457.46	63.19
457.64	100.64
457.83	79.58
458.01	114.69
458.19	95.96
458.38	105.32
458.56	49.15
458.74	56.17
458.93	84.26
459.11	117.03
459.29	114.69
459.48	56.17
459.66	53.83
459.84	74.90
460.03	105.32
460.21	28.09
460.39	95.96
460.57	74.90
460.76	46.81
460.94	107.66
461.12	39.79
461.31	0.00
461.49	42.13
461.67	51.49
461.85	112.35
462.04	44.47
462.22	107.66
462.40	84.26
462.59	81.92
462.77	53.83
462.95	0.00
463.13	65.54
463.32	0.00
463.50	23.41
463.68	51.49
463.86	72.56
464.05	46.81
464.23	77.24
464.41	74.90
464.59	74.90
464.78	51.49
464.96	74.90
465.14	53.83
465.32	51.49
465.50	86.60
465.69	14.04
465.87	79.58
466.05	65.54
466.23	93.62
466.41	56.17
466.60	2.34
466.78	7.02
466.96	0.00
467.14	67.88
467.32	60.85
467.51	30.43
467.69	114.69
467.87	28.09
468.05	102.98
468.23	95.96
468.41	74.90
468.60	35.11
468.78	95.96
468.96	77.24
469.14	0.00
469.32	49.15
469.50	18.72
469.69	23.41
469.87	95.96
470.05	63.19
470.23	114.69
470.41	37.45
470.59	67.88
470.77	93.62
470.95	25.75
471.14	77.24
471.32	32.77
471.50	107.66
471.68	42.13
471.86	88.94
472.04	74.90
472.22	0.00
472.40	30.43
472.58	16.38
472.77	51.49
472.95	102.98
473.13	114.69
473.31	35.11
473.49	70.22
473.67	46.81
473.85	56.17
474.03	28.09
474.21	37.45
474.39	79.58
474.57	18.72
474.75	107.66
474.93	46.81
475.12	58.51
475.30	18.72
475.48	56.17
475.66	25.75
475.84	53.83
476.02	23.41
476.20	77.24
476.38	42.13
476.56	21.06
476.74	107.66
476.92	53.83
477.10	0.00
477.28	14.04
477.46	2.34
477.64	32.77
477.82	9.36
478.00	63.19
478.18	105.32
478.36	56.17
478.54	0.00
478.72	25.75
478.90	0.00
479.08	98.30
479.26	98.30
479.44	86.60
479.62	74.90
479.80	86.60
479.98	49.15
480.16	0.00
480.34	21.06
480.52	35.11
480.70	0.00
480.88	32.77
481.06	58.51
481.24	79.58
481.41	39.79
481.59	102.98
481.77	49.15
481.95	60.85
482.13	56.17
482.31	100.64
482.49	25.75
482.67	72.56
482.85	110.01
483.03	14.04
483.21	93.62
483.39	84.26
483.57	65.54
483.74	95.96
483.92	44.47
484.10	63.19
484.28	77.24
484.46	4.68
484.64	67.88
484.82	46.81
485.00	21.06
485.18	93.62
485.35	53.83
485.53	63.19
485.71	70.22
485.89	67.88
486.07	30.43
486.25	105.32
486.43	100.64
486.61	70.22
486.78	93.62
486.96	0.00
487.14	91.28
487.32	77.24
487.50	128.73
487.68	51.49
487.85	42.13
488.03	39.79
488.21	65.54
488.39	105.32
488.57	184.90
488.75	84.26
488.92	65.54
489.10	56.17
489.28	67.88
489.46	117.03
489.64	100.64
489.81	23.41
489.99	95.96
490.17	39.79
490.35	37.45
490.53	131.07
490.70	28.09
490.88	140.43
491.06	102.98
491.24	42.13
491.41	98.30
491.59	53.83
491.77	86.60
491.95	35.11
492.13	131.07
492.30	42.13
492.48	65.54
492.66	67.88
492.84	79.58
493.01	138.09
493.19	95.96
493.37	72.56
493.54	117.03
493.72	28.09
493.90	60.85
494.08	95.96
494.25	23.41
494.43	147.45
494.61	93.62
494.79	117.03
494.96	119.37
495.14	110.01
495.32	35.11
495.49	18.72
495.67	58.51
495.85	35.11
496.02	7.02
496.20	65.54
496.38	58.51
496.55	37.45
496.73	84.26
496.91	51.49
497.09	117.03
497.26	37.45
497.44	86.60
497.62	53.83
497.79	86.60
497.97	105.32
498.14	63.19
498.32	21.06
498.50	114.69
498.67	28.09
498.85	72.56
499.03	77.24
499.20	42.13
499.38	77.24
499.56	30.43
499.73	79.58
499.91	65.54
500.08	119.37
500.26	58.51
500.44	51.49
500.61	114.69
500.79	98.30
500.97	133.41
501.14	37.45
501.32	95.96
501.49	16.38
501.67	23.41
501.84	131.07
502.02	98.30
502.20	131.07
502.37	105.32
502.55	121.71
502.72	142.77
502.90	105.32
503.07	53.83
503.25	9.36
503.43	91.28
503.60	56.17
503.78	93.62
503.95	65.54
504.13	114.69
504.30	0.00
504.48	79.58
504.65	138.09
504.83	147.45
505.01	56.17
505.18	58.51
505.36	56.17
505.53	60.85
505.71	98.30
505.88	98.30
506.06	100.64
506.23	79.58
506.41	37.45
506.58	23.41
506.76	4.68
506.93	105.32
507.11	67.88
507.28	14.04
507.46	56.17
507.63	86.60
507.81	98.30
507.98	117.03
508.16	60.85
508.33	145.11
508.50	149.79
508.68	98.30
508.85	105.32
509.03	102.98
509.20	58.51
509.38	60.85
509.55	70.22
509.73	56.17
509.90	110.01
510.08	16.38
510.25	0.00
510.42	21.06
510.60	98.30
510.77	110.01
510.95	102.98
511.12	74.90
511.30	93.62
511.47	44.47
511.64	88.94
511.82	86.60
511.99	88.94
512.17	37.45
512.34	46.81
512.51	95.96
512.69	74.90
512.86	65.54
513.04	84.26
513.21	124.05
513.38	147.45
513.56	23.41
513.73	42.13
513.90	114.69
514.08	117.03
514.25	39.79
514.43	65.54
514.60	42.13
514.77	152.13
514.95	46.81
515.12	0.00
515.29	37.45
515.47	23.41
515.64	58.51
515.81	77.24
515.99	65.54
516.16	65.54
516.33	95.96
516.51	25.75
516.68	70.22
516.85	18.72
517.03	28.09
517.20	79.58
517.37	84.26
517.54	98.30
517.72	117.03
517.89	23.41
518.06	0.00
518.24	53.83
518.41	124.05
518.58	39.79
518.75	79.58
518.93	46.81
519.10	86.60
519.27	131.07
519.45	100.64
519.62	100.64
519.79	121.71
519.96	91.28
520.14	126.39
520.31	135.75
520.48	88.94
520.65	16.38
520.83	138.09
521.00	154.48
521.17	166.18
521.34	86.60
521.52	42.13
521.69	149.79
521.86	28.09
522.03	63.19
522.20	58.51
522.38	102.98
522.55	65.54
522.72	0.00
522.89	14.04
523.07	65.54
523.24	121.71
523.41	58.51
523.58	0.00
523.75	81.92
523.92	46.81
524.10	63.19
524.27	145.11
524.44	114.69
524.61	60.85
524.78	60.85
524.96	44.47
525.13	117.03
525.30	46.81
525.47	95.96
525.64	91.28
525.81	93.62
525.98	23.41
526.16	110.01
526.33	28.09
526.50	53.83
526.67	63.19
526.84	98.30
527.01	95.96
527.18	63.19
527.36	70.22
527.53	184.90
527.70	86.60
527.87	79.58
528.04	74.90
528.21	159.16
528.38	86.60
528.55	173.20
528.72	58.51
528.89	70.22
529.07	39.79
529.24	86.60
529.41	51.49
529.58	140.43
529.75	44.47
529.92	77.24
530.09	81.92
530.26	112.35
530.43	107.66
530.60	70.22
530.77	105.32
530.94	37.45
531.11	23.41
531.28	102.98
531.46	140.43
531.63	44.47
531.80	86.60
531.97	110.01
532.14	95.96
532.31	135.75
532.48	135.75
532.65	105.32
532.82	28.09
532.99	119.37
533.16	117.03
533.33	88.94
533.50	63.19
533.67	53.83
533.84	72.56
534.01	91.28
534.18	121.71
534.35	93.62
534.52	81.92
534.69	121.71
534.86	156.82
535.03	95.96
535.20	74.90
535.37	105.32
535.54	105.32
535.71	42.13
535.88	124.05
536.05	112.35
536.22	42.13
536.38	21.06
536.55	100.64
536.72	77.24
536.89	128.73
537.06	49.15
537.23	84.26
537.40	95.96
537.57	168.52
537.74	170.86
537.91	30.43
538.08	112.35
538.25	102.98
538.42	119.37
538.59	84.26
538.75	128.73
538.92	107.66
539.09	65.54
539.26	114.69
539.43	77.24
539.60	56.17
539.77	44.47
539.94	121.71
540.11	98.30
540.28	95.96
540.44	100.64
540.61	21.06
540.78	86.60
540.95	131.07
541.12	121.71
541.29	58.51
541.46	58.51
541.62	46.81
541.79	149.79
541.96	126.39
542.13	72.56
542.30	117.03
542.47	39.79
542.63	49.15
542.80	51.49
542.97	0.00
543.14	32.77
543.31	53.83
543.48	88.94
543.64	135.75
543.81	152.13
543.98	72.56
544.15	121.71
544.32	114.69
544.48	77.24
544.65	56.17
544.82	35.11
544.99	117.03
545.16	79.58
545.32	65.54
545.49	114.69
545.66	79.58
545.83	79.58
546.00	28.09
546.16	152.13
546.33	138.09
546.50	93.62
546.67	93.62
546.83	81.92
547.00	112.35
547.17	39.79
547.34	102.98
547.50	86.60
547.67	81.92
547.84	93.62
548.00	105.32
548.17	91.28
548.34	51.49
548.51	131.07
548.67	53.83
548.84	98.30
549.01	44.47
549.18	56.17
549.34	74.90
549.51	110.01
549.68	77.24
549.84	133.41
550.01	49.15
550.18	102.98
550.34	37.45
550.51	53.83
550.68	93.62
550.84	112.35
551.01	110.01
551.18	114.69
551.34	135.75
551.51	93.62
551.68	93.62
551.84	135.75
552.01	112.35
552.18	142.77
552.34	77.24
552.51	72.56
552.68	88.94
552.84	51.49
553.01	84.26
553.18	91.28
553.34	102.98
553.51	44.47
553.67	84.26
553.84	44.47
554.01	58.51
554.17	105.32
554.34	93.62
554.51	4.68
554.67	72.56
554.84	16.38
555.00	145.11
555.17	105.32
555.33	107.66
555.50	67.88
555.67	154.48
555.83	72.56
556.00	147.45
556.16	37.45
556.33	53.83
556.50	63.19
556.66	30.43
556.83	65.54
556.99	74.90
557.16	56.17
557.32	60.85
557.49	126.39
557.65	42.13
557.82	95.96
557.98	140.43
558.15	112.35
558.32	65.54
558.48	126.39
558.65	102.98
558.81	37.45
558.98	93.62
559.14	23.41
559.31	86.60
559.47	46.81
559.64	65.54
559.80	114.69
559.97	70.22
560.13	138.09
560.30	86.60
560.46	42.13
560.63	102.98
560.79	131.07
560.96	100.64
561.12	128.73
561.29	81.92
561.45	126.39
561.61	25.75
561.78	60.85
561.94	161.50
562.11	51.49
562.27	39.79
562.44	135.75
562.60	91.28
562.77	70.22
562.93	81.92
563.10	88.94
563.26	53.83
563.42	70.22
563.59	88.94
563.75	70.22
563.92	4.68
564.08	51.49
564.24	42.13
564.41	63.19
564.57	25.75
564.74	110.01
564.90	124.05
565.07	2.34
565.23	67.88
565.39	70.22
565.56	81.92
565.72	14.04
565.88	65.54
566.05	79.58
566.21	58.51
566.38	102.98
566.54	74.90
566.70	46.81
566.87	63.19
567.03	39.79
567.19	93.62
567.36	102.98
567.52	114.69
567.68	124.05
567.85	60.85
568.01	86.60
568.17	133.41
568.34	93.62
568.50	135.75
568.66	39.79
568.83	53.83
568.99	58.51
569.15	0.00
569.32	58.51
569.48	53.83
569.64	0.00
569.81	46.81
569.97	72.56
570.13	49.15
570.30	35.11
570.46	63.19
570.62	112.35
570.78	35.11
570.95	53.83
571.11	49.15
571.27	93.62
571.43	18.72
571.60	128.73
571.76	51.49
571.92	53.83
572.09	39.79
572.25	128.73
572.41	28.09
572.57	63.19
572.74	114.69
572.90	177.88
573.06	84.26
573.22	0.00
573.38	77.24
573.55	49.15
573.71	9.36
573.87	135.75
574.03	84.26
574.20	63.19
574.36	0.00
574.52	49.15
574.68	46.81
574.84	98.30
575.01	67.88
575.17	110.01
575.33	81.92
575.49	35.11
575.65	91.28
575.82	98.30
575.98	110.01
576.14	112.35
576.30	72.56
576.46	46.81
576.62	58.51
576.79	114.69
576.95	0.00
577.11	112.35
577.27	140.43
577.43	100.64
577.59	53.83
577.75	215.33
577.92	79.58
578.08	81.92
578.24	60.85
578.40	88.94
578.56	18.72
578.72	32.77
578.88	156.82
579.04	56.17
579.21	168.52
579.37	72.56
579.53	74.90
579.69	131.07
579.85	142.77
580.01	105.32
580.17	81.92
580.33	72.56
580.49	77.24
580.65	114.69
580.82	205.97
580.98	86.60
581.14	91.28
581.30	81.92
581.46	79.58
581.62	49.15
581.78	81.92
581.94	121.71
582.10	156.82
582.26	79.58
582.42	35.11
582.58	110.01
582.74	110.01
582.90	107.66
583.06	98.30
583.22	74.90
583.38	51.49
583.54	86.60
583.70	39.79
583.86	23.41
584.02	88.94
584.18	88.94
584.34	149.79
584.50	95.96
584.66	46.81
584.82	131.07
584.98	51.49
585.14	98.30
585.30	128.73
585.46	114.69
585.62	145.11
585.78	86.60
585.94	60.85
586.10	121.71
586.26	46.81
586.42	121.71
586.58	100.64
586.74	77.24
586.90	88.94
587.06	65.54
587.22	93.62
587.38	86.60
587.54	74.90
587.70	65.54
587.86	56.17
588.02	25.75
588.18	79.58
588.34	81.92
588.49	84.26
588.65	37.45
588.81	51.49
588.97	18.72
589.13	25.75
589.29	70.22
589.45	70.22
589.61	58.51
589.77	56.17
589.93	49.15
590.08	140.43
590.24	72.56
590.40	79.58
590.56	124.05
590.72	56.17
590.88	63.19
591.04	53.83
591.20	72.56
591.35	35.11
591.51	58.51
591.67	30.43
591.83	154.48
591.99	77.24
592.15	42.13
592.31	67.88
592.46	63.19
592.62	49.15
592.78	35.11
592.94	25.75
593.10	21.06
593.26	67.88
593.41	58.51
593.57	105.32
593.73	95.96
593.89	91.28
594.05	72.56
594.20	110.01
594.36	105.32
594.52	81.92
594.68	58.51
594.84	7.02
594.99	84.26
595.15	28.09
595.31	67.88
595.47	65.54
595.62	16.38
595.78	86.60
595.94	77.24
596.10	51.49
596.25	30.43
596.41	60.85
596.57	0.00
596.73	112.35
596.88	84.26
597.04	117.03
597.20	51.49
597.36	28.09
597.51	159.16
597.67	84.26
597.83	63.19
597.99	95.96
598.14	42.13
598.30	11.70
598.46	32.77
598.61	81.92
598.77	86.60
598.93	79.58
599.09	63.19
599.24	72.56
599.40	65.54
599.56	74.90
599.71	53.83
599.87	58.51
600.03	37.45
600.18	131.07
600.34	14.04
600.50	58.51
600.65	53.83
600.81	51.49
600.97	93.62
601.12	102.98
601.28	93.62
601.44	121.71
601.59	88.94
601.75	93.62
601.91	53.83
602.06	91.28
602.22	88.94
602.37	51.49
602.53	25.75
602.69	72.56
602.84	84.26
603.00	16.38
603.16	77.24
603.31	46.81
603.47	86.60
603.62	39.79
603.78	56.17
603.94	37.45
604.09	46.81
604.25	86.60
604.40	53.83
604.56	170.86
604.71	60.85
604.87	18.72
605.03	110.01
605.18	51.49
605.34	107.66
605.49	95.96
605.65	135.75
605.80	28.09
605.96	2.34
606.12	128.73
606.27	88.94
606.43	107.66
606.58	100.64
606.74	117.03
606.89	42.13
607.05	21.06
607.20	119.37
607.36	56.17
607.51	119.37
607.67	35.11
607.82	28.09
607.98	138.09
608.13	25.75
608.29	58.51
608.44	49.15
608.60	25.75
608.75	117.03
608.91	107.66
609.06	58.51
609.22	117.03
609.37	100.64
609.53	102.98
609.68	81.92
609.84	32.77
609.99	53.83
610.15	67.88
610.30	51.49
610.46	128.73
610.61	95.96
610.76	65.54
610.92	44.47
611.07	21.06
611.23	81.92
611.38	72.56
611.54	81.92
611.69	93.62
611.84	117.03
612.00	77.24
612.15	72.56
612.31	119.37
612.46	60.85
612.62	119.37
612.77	72.56
612.92	119.37
613.08	63.19
613.23	95.96
613.39	58.51
613.54	86.60
613.69	149.79
613.85	138.09
614.00	98.30
614.15	102.98
614.31	30.43
614.46	142.77
614.62	77.24
614.77	37.45
614.92	91.28
615.08	105.32
615.23	42.13
615.38	81.92
615.54	65.54
615.69	91.28
615.84	37.45
616.00	37.45
616.15	117.03
616.30	28.09
616.46	37.45
616.61	49.15
616.76	65.54
616.92	72.56
617.07	102.98
617.22	37.45
617.37	23.41
617.53	95.96
617.68	35.11
617.83	74.90
617.99	49.15
618.14	121.71
618.29	51.49
618.45	0.00
618.60	25.75
618.75	51.49
618.90	65.54
619.06	60.85
619.21	46.81
619.36	119.37
619.51	131.07
619.67	74.90
619.82	105.32
619.97	35.11
620.12	58.51
620.28	117.03
620.43	93.62
620.58	93.62
620.73	56.17
620.89	166.18
621.04	114.69
621.19	53.83
621.34	72.56
621.49	70.22
621.65	88.94
621.80	84.26
621.95	35.11
622.10	105.32
622.25	51.49
622.41	166.18
622.56	60.85
622.71	46.81
622.86	98.30
623.01	81.92
623.16	79.58
623.32	126.39
623.47	65.54
623.62	93.62
623.77	98.30
623.92	58.51
624.07	74.90
624.23	42.13
624.38	77.24
624.53	0.00
624.68	77.24
624.83	63.19
624.98	102.98
625.13	114.69
625.29	44.47
625.44	72.56
625.59	86.60
625.74	42.13
625.89	35.11
626.04	67.88
626.19	81.92
626.34	72.56
626.49	44.47
626.65	86.60
626.80	88.94
626.95	46.81
627.10	0.00
627.25	7.02
627.40	140.43
627.55	102.98
627.70	18.72
627.85	18.72
628.00	63.19
628.15	2.34
628.30	14.04
628.45	23.41
628.60	88.94
628.76	58.51
628.91	30.43
629.06	35.11
629.21	23.41
629.36	65.54
629.51	56.17
629.66	46.81
629.81	98.30
629.96	98.30
630.11	18.72
630.26	107.66
630.41	42.13
630.56	56.17
630.71	2.34
630.86	67.88
631.01	4.68
631.16	77.24
631.31	119.37
631.46	23.41
631.61	107.66
631.76	44.47
631.91	98.30
632.06	56.17
632.21	0.00
632.36	44.47
632.51	56.17
632.66	63.19
632.81	11.70
632.96	25.75
633.10	42.13
633.25	51.49
633.40	84.26
633.55	58.51
633.70	0.00
633.85	86.60
634.00	72.56
634.15	42.13
634.30	77.24
634.45	86.60
634.60	49.15
634.75	30.43
634.90	74.90
635.05	0.00
635.19	60.85
635.34	58.51
635.49	91.28
635.64	95.96
635.79	70.22
635.94	112.35
636.09	102.98
636.24	91.28
636.39	35.11
636.53	53.83
636.68	58.51
636.83	16.38
636.98	84.26
637.13	102.98
637.28	131.07
637.43	88.94
637.57	63.19
637.72	100.64
637.87	93.62
638.02	51.49
638.17	91.28
638.32	60.85
638.46	56.17
638.61	74.90
638.76	77.24
638.91	37.45
639.06	67.88
639.20	67.88
639.35	35.11
639.50	18.72
639.65	77.24
639.80	14.04
639.94	53.83
640.09	63.19
640.24	79.58
640.39	91.28
640.54	60.85
640.68	88.94
640.83	140.43
640.98	65.54
641.13	21.06
641.27	77.24
641.42	88.94
641.57	42.13
641.72	117.03
641.86	63.19
642.01	44.47
642.16	30.43
642.31	23.41
642.45	30.43
642.60	100.64
642.75	39.79
642.90	133.41
643.04	81.92
643.19	28.09
643.34	100.64
643.48	95.96
643.63	37.45
643.78	35.11
643.93	51.49
644.07	0.00
644.22	105.32
644.37	72.56
644.51	98.30
644.66	53.83
644.81	95.96
644.95	102.98
645.10	28.09
645.25	84.26
645.39	84.26
645.54	77.24
645.69	133.41
645.83	67.88
645.98	53.83
646.13	42.13
646.27	79.58
646.42	23.41
646.57	53.83
646.71	70.22
646.86	16.38
647.00	88.94
647.15	51.49
647.30	65.54
647.44	18.72
647.59	49.15
647.74	93.62
647.88	4.68
648.03	86.60
648.17	58.51
648.32	32.77
648.47	70.22
648.61	53.83
648.76	98.30
648.90	84.26
649.05	112.35
649.20	98.30
649.34	14.04
649.49	56.17
649.63	0.00
649.78	0.00
649.92	65.54
650.07	0.00
650.21	67.88
650.36	4.68
650.51	56.17
650.65	51.49
650.80	58.51
650.94	72.56
651.09	98.30
651.23	81.92
651.38	2.34
651.52	18.72
651.67	86.60
651.81	4.68
651.96	42.13
652.10	91.28
652.25	114.69
652.39	74.90
652.54	77.24
652.68	93.62
652.83	119.37
652.97	32.77
653.12	60.85
653.26	60.85
653.41	11.70
653.55	21.06
653.70	28.09
653.84	39.79
653.99	0.00
654.13	63.19
654.27	0.00
654.42	0.00
654.56	107.66
654.71	58.51
654.85	93.62
655.00	60.85
655.14	105.32
655.29	0.00
655.43	67.88
655.57	112.35
655.72	35.11
655.86	0.00
656.01	23.41
656.15	60.85
656.30	28.09
656.44	72.56
656.58	88.94
656.73	107.66
656.87	79.58
657.01	16.38
657.16	100.64
657.30	65.54
657.45	124.05
657.59	93.62
657.73	9.36
657.88	81.92
658.02	9.36
658.16	4.68
658.31	30.43
658.45	63.19
658.60	23.41
658.74	63.19
658.88	49.15
659.03	70.22
659.17	84.26
659.31	60.85
659.46	93.62
659.60	65.54
659.74	77.24
659.89	126.39
660.03	21.06
660.17	70.22
660.32	72.56
660.46	70.22
660.60	25.75
660.74	121.71
660.89	28.09
661.03	11.70
661.17	72.56
661.32	49.15
661.46	21.06
661.60	77.24
661.74	105.32
661.89	39.79
662.03	56.17
662.17	70.22
662.31	53.83
662.46	119.37
662.60	28.09
662.74	74.90
662.88	37.45
663.03	91.28
663.17	65.54
663.31	58.51
663.45	79.58
663.60	18.72
663.74	112.35
663.88	28.09
664.02	9.36
664.17	37.45
664.31	51.49
664.45	7.02
664.59	37.45
664.73	60.85
664.88	65.54
665.02	16.38
665.16	51.49
665.30	81.92
665.44	53.83
665.59	56.17
665.73	93.62
665.87	42.13
666.01	21.06
666.15	44.47
666.29	42.13
666.44	72.56
666.58	93.62
666.72	67.88
666.86	117.03
667.00	91.28
667.14	74.90
667.28	88.94
667.43	79.58
667.57	18.72
667.71	60.85
667.85	98.30
667.99	35.11
668.13	58.51
668.27	21.06
668.41	0.00
668.56	2.34
668.70	98.30
668.84	93.62
668.98	42.13
669.12	63.19
669.26	93.62
669.40	119.37
669.54	63.19
669.68	39.79
669.82	0.00
669.96	93.62
670.10	39.79
670.25	74.90
670.39	16.38
670.53	93.62
670.67	18.72
670.81	67.88
670.95	46.81
671.09	51.49
671.23	46.81
671.37	30.43
671.51	46.81
671.65	44.47
671.79	46.81
671.93	58.51
672.07	44.47
672.21	58.51
672.35	105.32
672.49	42.13
672.63	39.79
672.77	100.64
672.91	70.22
673.05	63.19
673.19	21.06
673.33	74.90
673.47	18.72
673.61	110.01
673.75	28.09
673.89	35.11
674.03	72.56
674.17	11.70
674.31	72.56
674.45	51.49
674.59	114.69
674.73	46.81
674.87	58.51
675.01	53.83
675.15	81.92
675.29	32.77
675.43	0.00
675.56	51.49
675.70	21.06
675.84	0.00
675.98	28.09
676.12	124.05
676.26	88.94
676.40	70.22
676.54	35.11
676.68	60.85
676.82	35.11
676.96	28.09
677.10	4.68
677.23	44.47
677.37	63.19
677.51	0.00
677.65	37.45
677.79	25.75
677.93	18.72
678.07	42.13
678.21	28.09
678.34	0.00
678.48	53.83
678.62	60.85
678.76	23.41
678.90	23.41
679.04	9.36
679.18	110.01
679.31	0.00
679.45	39.79
679.59	37.45
679.73	51.49
679.87	86.60
680.00	0.00
680.14	21.06
680.28	88.94
680.42	53.83
680.56	51.49
680.70	37.45
680.83	58.51
680.97	11.70
681.11	63.19
681.25	0.00
681.39	86.60
681.52	42.13
681.66	88.94
681.80	42.13
681.94	102.98
682.07	9.36
682.21	2.34
682.35	4.68
682.49	30.43
682.62	70.22
682.76	37.45
682.90	67.88
683.04	35.11
683.17	105.32
683.31	46.81
683.45	84.26
683.59	44.47
683.72	72.56
683.86	63.19
684.00	28.09
684.13	9.36
684.27	0.00
684.41	42.13
684.55	0.00
684.68	44.47
684.82	9.36
684.96	46.81
685.09	25.75
685.23	16.38
685.37	0.00
685.50	112.35
685.64	0.00
685.78	32.77
685.91	60.85
686.05	9.36
686.19	0.00
686.32	166.18
686.46	70.22
686.60	16.38
686.73	124.05
686.87	37.45
687.01	67.88
687.14	37.45
687.28	93.62
687.42	18.72
687.55	81.92
687.69	21.06
687.82	91.28
687.96	46.81
688.10	23.41
688.23	56.17
688.37	2.34
688.50	105.32
688.64	30.43
688.78	32.77
688.91	18.72
689.05	28.09
689.18	35.11
689.32	0.00
689.46	44.47
689.59	46.81
689.73	46.81
689.86	23.41
690.00	0.00
690.13	86.60
690.27	88.94
690.41	0.00
690.54	74.90
690.68	21.06
690.81	70.22
690.95	49.15
691.08	0.00
691.22	60.85
691.35	37.45
691.49	84.26
691.62	39.79
691.76	25.75
691.89	56.17
692.03	74.90
692.16	0.00
692.30	0.00
692.43	81.92
692.57	23.41
692.70	46.81
692.84	28.09
692.97	0.00
693.11	21.06
693.24	25.75
693.38	72.56
693.51	49.15
693.65	2.34
693.78	37.45
693.92	0.00
694.05	42.13
694.19	100.64
694.32	56.17
694.45	100.64
694.59	23.41
694.72	25.75
694.86	51.49
694.99	32.77
695.13	0.00
695.26	0.00
695.39	25.75
695.53	9.36
695.66	35.11
695.80	84.26
695.93	0.00
696.07	70.22
696.20	51.49
696.33	4.68
696.47	35.11
696.60	46.81
696.73	23.41
696.87	23.41
697.00	49.15
697.14	18.72
697.27	124.05
697.40	2.34
697.54	23.41
697.67	46.81
697.80	44.47
697.94	23.41
698.07	0.00
698.21	32.77
698.34	91.28
698.47	0.00
698.61	0.00
698.74	0.00
698.87	0.00
699.01	0.00
699.14	0.00
699.27	42.13
699.40	30.43
699.54	58.51
699.67	7.02
699.80	7.02
699.94	0.00
700.07	14.04
700.20	93.62
700.34	63.19
700.47	0.00
700.60	84.26
700.73	25.75
700.87	70.22
701.00	102.98
701.13	110.01
701.26	56.17
701.40	65.54
701.53	56.17
701.66	84.26
701.79	23.41
701.93	9.36
702.06	30.43
702.19	11.70
702.32	0.00
702.46	21.06
702.59	84.26
702.72	44.47
702.85	79.58
702.99	30.43
703.12	16.38
703.25	0.00
703.38	105.32
703.51	4.68
703.65	21.06
703.78	37.45
703.91	63.19
704.04	42.13
704.17	77.24
704.31	53.83
704.44	35.11
704.57	65.54
704.70	37.45
704.83	0.00
704.96	46.81
705.10	49.15
705.23	35.11
>>>>>End Processed Spectral Data<<<<<
