SpectraSuite Data File
++++++++++++++++++++++++++++++++++++
Date: Fri Oct 04 12:13:41 GMT-05:00 2013
User: price-jones
Dark Spectrum Present: No
Reference Spectrum Present: No
Number of Sampled Component Spectra: 1
Spectrometers: USB2+H05261
Integration Time (usec): 10000 (USB2+H05261)
Spectra Averaged: 1 (USB2+H05261)
Boxcar Smoothing: 0 (USB2+H05261)
Correct for Electrical Dark: No (USB2+H05261)
Strobe/Lamp Enabled: No (USB2+H05261)
Correct for Detector Non-linearity: No (USB2+H05261)
Correct for Stray Light: No (USB2+H05261)
Number of Pixels in Processed Spectrum: 2048
>>>>>Begin Processed Spectral Data<<<<<
365.73	25.75
365.92	25.75
366.12	25.75
366.32	0.00
366.52	0.00
366.72	0.00
366.91	0.00
367.11	0.00
367.31	0.00
367.51	0.00
367.70	0.00
367.90	0.00
368.10	0.00
368.30	0.00
368.49	0.00
368.69	0.00
368.89	0.00
369.09	0.00
369.28	0.00
369.48	0.00
369.68	0.00
369.87	0.00
370.07	0.00
370.27	0.00
370.47	0.00
370.66	0.00
370.86	0.00
371.06	0.00
371.25	0.00
371.45	0.00
371.65	0.00
371.84	9.36
372.04	46.81
372.24	0.00
372.44	0.00
372.63	42.13
372.83	60.85
373.03	9.36
373.22	0.00
373.42	18.72
373.62	72.56
373.81	56.17
374.01	9.36
374.21	9.36
374.40	79.58
374.60	21.06
374.79	58.51
374.99	42.13
375.19	67.88
375.38	25.75
375.58	4.68
375.78	25.75
375.97	84.26
376.17	23.41
376.37	32.77
376.56	56.17
376.76	81.92
376.95	60.85
377.15	63.19
377.35	74.90
377.54	16.38
377.74	44.47
377.93	0.00
378.13	28.09
378.33	119.37
378.52	70.22
378.72	16.38
378.91	11.70
379.11	42.13
379.31	0.00
379.50	0.00
379.70	23.41
379.89	7.02
380.09	0.00
380.28	74.90
380.48	16.38
380.68	46.81
380.87	58.51
381.07	25.75
381.26	23.41
381.46	53.83
381.65	0.00
381.85	18.72
382.04	4.68
382.24	0.00
382.43	119.37
382.63	0.00
382.83	53.83
383.02	53.83
383.22	0.00
383.41	0.00
383.61	21.06
383.80	84.26
384.00	49.15
384.19	42.13
384.39	0.00
384.58	7.02
384.78	4.68
384.97	70.22
385.17	39.79
385.36	63.19
385.56	28.09
385.75	0.00
385.95	46.81
386.14	0.00
386.34	142.77
386.53	30.43
386.72	28.09
386.92	0.00
387.11	2.34
387.31	0.00
387.50	42.13
387.70	88.94
387.89	65.54
388.09	21.06
388.28	28.09
388.48	44.47
388.67	91.28
388.86	0.00
389.06	44.47
389.25	65.54
389.45	14.04
389.64	51.49
389.84	25.75
390.03	0.00
390.22	46.81
390.42	0.00
390.61	86.60
390.81	9.36
391.00	0.00
391.19	67.88
391.39	30.43
391.58	37.45
391.78	37.45
391.97	30.43
392.16	70.22
392.36	63.19
392.55	25.75
392.75	0.00
392.94	0.00
393.13	0.00
393.33	32.77
393.52	35.11
393.71	0.00
393.91	4.68
394.10	14.04
394.29	4.68
394.49	0.00
394.68	9.36
394.88	0.00
395.07	9.36
395.26	67.88
395.46	0.00
395.65	9.36
395.84	0.00
396.04	4.68
396.23	79.58
396.42	0.00
396.62	65.54
396.81	21.06
397.00	0.00
397.19	16.38
397.39	16.38
397.58	32.77
397.77	65.54
397.97	84.26
398.16	32.77
398.35	49.15
398.55	0.00
398.74	2.34
398.93	4.68
399.12	0.00
399.32	7.02
399.51	0.00
399.70	44.47
399.90	42.13
400.09	0.00
400.28	21.06
400.47	0.00
400.67	18.72
400.86	39.79
401.05	0.00
401.24	23.41
401.44	0.00
401.63	0.00
401.82	74.90
402.01	18.72
402.21	60.85
402.40	72.56
402.59	86.60
402.78	37.45
402.97	70.22
403.17	46.81
403.36	9.36
403.55	46.81
403.74	42.13
403.93	0.00
404.13	67.88
404.32	88.94
404.51	72.56
404.70	112.35
404.89	39.79
405.09	18.72
405.28	42.13
405.47	60.85
405.66	102.98
405.85	53.83
406.05	53.83
406.24	7.02
406.43	0.00
406.62	0.00
406.81	0.00
407.00	65.54
407.20	30.43
407.39	23.41
407.58	49.15
407.77	37.45
407.96	7.02
408.15	67.88
408.34	72.56
408.54	53.83
408.73	28.09
408.92	72.56
409.11	25.75
409.30	53.83
409.49	9.36
409.68	58.51
409.87	53.83
410.07	65.54
410.26	9.36
410.45	2.34
410.64	65.54
410.83	42.13
411.02	86.60
411.21	39.79
411.40	70.22
411.59	58.51
411.78	9.36
411.98	49.15
412.17	21.06
412.36	35.11
412.55	0.00
412.74	18.72
412.93	65.54
413.12	0.00
413.31	0.00
413.50	0.00
413.69	0.00
413.88	60.85
414.07	60.85
414.26	16.38
414.45	91.28
414.64	58.51
414.83	28.09
415.02	23.41
415.22	63.19
415.41	58.51
415.60	77.24
415.79	65.54
415.98	70.22
416.17	86.60
416.36	65.54
416.55	77.24
416.74	72.56
416.93	4.68
417.12	51.49
417.31	84.26
417.50	74.90
417.69	56.17
417.88	28.09
418.07	32.77
418.26	28.09
418.45	79.58
418.64	119.37
418.83	91.28
419.02	77.24
419.21	77.24
419.39	25.75
419.58	25.75
419.77	14.04
419.96	100.64
420.15	23.41
420.34	98.30
420.53	0.00
420.72	49.15
420.91	16.38
421.10	0.00
421.29	77.24
421.48	37.45
421.67	39.79
421.86	7.02
422.05	74.90
422.24	0.00
422.43	0.00
422.61	51.49
422.80	44.47
422.99	46.81
423.18	23.41
423.37	58.51
423.56	0.00
423.75	14.04
423.94	46.81
424.13	18.72
424.32	53.83
424.50	14.04
424.69	58.51
424.88	70.22
425.07	14.04
425.26	49.15
425.45	7.02
425.64	30.43
425.83	77.24
426.01	49.15
426.20	95.96
426.39	23.41
426.58	91.28
426.77	25.75
426.96	74.90
427.15	9.36
427.33	39.79
427.52	58.51
427.71	88.94
427.90	79.58
428.09	51.49
428.28	133.41
428.46	39.79
428.65	100.64
428.84	65.54
429.03	21.06
429.22	65.54
429.40	135.75
429.59	46.81
429.78	30.43
429.97	25.75
430.16	0.00
430.34	39.79
430.53	49.15
430.72	0.00
430.91	102.98
431.10	30.43
431.28	65.54
431.47	81.92
431.66	147.45
431.85	0.00
432.03	11.70
432.22	42.13
432.41	65.54
432.60	84.26
432.79	32.77
432.97	32.77
433.16	63.19
433.35	98.30
433.54	95.96
433.72	63.19
433.91	16.38
434.10	60.85
434.28	46.81
434.47	28.09
434.66	14.04
434.85	88.94
435.03	42.13
435.22	133.41
435.41	4.68
435.59	60.85
435.78	42.13
435.97	49.15
436.16	63.19
436.34	39.79
436.53	37.45
436.72	93.62
436.90	44.47
437.09	51.49
437.28	23.41
437.46	46.81
437.65	21.06
437.84	18.72
438.02	95.96
438.21	60.85
438.40	102.98
438.58	30.43
438.77	18.72
438.96	51.49
439.14	46.81
439.33	4.68
439.52	67.88
439.70	32.77
439.89	140.43
440.08	11.70
440.26	0.00
440.45	0.00
440.63	23.41
440.82	91.28
441.01	79.58
441.19	23.41
441.38	112.35
441.57	110.01
441.75	91.28
441.94	58.51
442.12	11.70
442.31	28.09
442.50	18.72
442.68	16.38
442.87	74.90
443.05	86.60
443.24	70.22
443.43	14.04
443.61	56.17
443.80	0.00
443.98	70.22
444.17	128.73
444.35	117.03
444.54	46.81
444.73	37.45
444.91	28.09
445.10	2.34
445.28	56.17
445.47	0.00
445.65	88.94
445.84	58.51
446.02	56.17
446.21	91.28
446.39	60.85
446.58	25.75
446.77	39.79
446.95	102.98
447.14	35.11
447.32	0.00
447.51	81.92
447.69	56.17
447.88	84.26
448.06	21.06
448.25	0.00
448.43	60.85
448.62	79.58
448.80	84.26
448.99	72.56
449.17	14.04
449.36	63.19
449.54	18.72
449.73	46.81
449.91	18.72
450.10	30.43
450.28	65.54
450.46	110.01
450.65	93.62
450.83	46.81
451.02	37.45
451.20	105.32
451.39	25.75
451.57	72.56
451.76	30.43
451.94	100.64
452.13	121.71
452.31	39.79
452.49	74.90
452.68	14.04
452.86	56.17
453.05	79.58
453.23	28.09
453.42	100.64
453.60	67.88
453.78	35.11
453.97	58.51
454.15	2.34
454.34	53.83
454.52	58.51
454.70	56.17
454.89	91.28
455.07	30.43
455.26	74.90
455.44	51.49
455.62	58.51
455.81	23.41
455.99	30.43
456.17	25.75
456.36	23.41
456.54	46.81
456.73	30.43
456.91	51.49
457.09	9.36
457.28	79.58
457.46	21.06
457.64	44.47
457.83	14.04
458.01	65.54
458.19	88.94
458.38	28.09
458.56	79.58
458.74	60.85
458.93	51.49
459.11	105.32
459.29	65.54
459.48	74.90
459.66	23.41
459.84	32.77
460.03	65.54
460.21	112.35
460.39	65.54
460.57	9.36
460.76	44.47
460.94	91.28
461.12	72.56
461.31	86.60
461.49	0.00
461.67	0.00
461.85	53.83
462.04	42.13
462.22	110.01
462.40	102.98
462.59	114.69
462.77	86.60
462.95	18.72
463.13	11.70
463.32	4.68
463.50	28.09
463.68	30.43
463.86	32.77
464.05	131.07
464.23	18.72
464.41	74.90
464.59	63.19
464.78	70.22
464.96	100.64
465.14	65.54
465.32	65.54
465.50	56.17
465.69	39.79
465.87	91.28
466.05	86.60
466.23	56.17
466.41	95.96
466.60	102.98
466.78	65.54
466.96	67.88
467.14	9.36
467.32	0.00
467.51	25.75
467.69	117.03
467.87	79.58
468.05	23.41
468.23	95.96
468.41	63.19
468.60	58.51
468.78	32.77
468.96	81.92
469.14	74.90
469.32	4.68
469.50	51.49
469.69	7.02
469.87	117.03
470.05	72.56
470.23	65.54
470.41	49.15
470.59	32.77
470.77	51.49
470.95	74.90
471.14	39.79
471.32	0.00
471.50	135.75
471.68	23.41
471.86	117.03
472.04	25.75
472.22	32.77
472.40	0.00
472.58	30.43
472.77	21.06
472.95	60.85
473.13	32.77
473.31	81.92
473.49	112.35
473.67	93.62
473.85	60.85
474.03	42.13
474.21	131.07
474.39	53.83
474.57	53.83
474.75	53.83
474.93	42.13
475.12	95.96
475.30	58.51
475.48	79.58
475.66	58.51
475.84	107.66
476.02	112.35
476.20	70.22
476.38	60.85
476.56	72.56
476.74	0.00
476.92	74.90
477.10	86.60
477.28	77.24
477.46	112.35
477.64	114.69
477.82	0.00
478.00	79.58
478.18	30.43
478.36	95.96
478.54	56.17
478.72	46.81
478.90	102.98
479.08	42.13
479.26	63.19
479.44	0.00
479.62	35.11
479.80	51.49
479.98	81.92
480.16	67.88
480.34	72.56
480.52	7.02
480.70	21.06
480.88	49.15
481.06	28.09
481.24	65.54
481.41	28.09
481.59	72.56
481.77	107.66
481.95	63.19
482.13	63.19
482.31	112.35
482.49	95.96
482.67	11.70
482.85	51.49
483.03	25.75
483.21	142.77
483.39	81.92
483.57	110.01
483.74	74.90
483.92	21.06
484.10	49.15
484.28	114.69
484.46	53.83
484.64	58.51
484.82	32.77
485.00	133.41
485.18	4.68
485.35	131.07
485.53	81.92
485.71	98.30
485.89	53.83
486.07	39.79
486.25	138.09
486.43	107.66
486.61	72.56
486.78	42.13
486.96	49.15
487.14	0.00
487.32	53.83
487.50	91.28
487.68	51.49
487.85	9.36
488.03	44.47
488.21	98.30
488.39	65.54
488.57	70.22
488.75	56.17
488.92	126.39
489.10	86.60
489.28	121.71
489.46	56.17
489.64	46.81
489.81	39.79
489.99	60.85
490.17	79.58
490.35	44.47
490.53	56.17
490.70	23.41
490.88	168.52
491.06	117.03
491.24	44.47
491.41	21.06
491.59	79.58
491.77	67.88
491.95	58.51
492.13	81.92
492.30	79.58
492.48	105.32
492.66	93.62
492.84	60.85
493.01	138.09
493.19	37.45
493.37	16.38
493.54	67.88
493.72	79.58
493.90	98.30
494.08	126.39
494.25	135.75
494.43	53.83
494.61	42.13
494.79	88.94
494.96	98.30
495.14	56.17
495.32	86.60
495.49	56.17
495.67	28.09
495.85	37.45
496.02	117.03
496.20	39.79
496.38	105.32
496.55	102.98
496.73	42.13
496.91	9.36
497.09	135.75
497.26	67.88
497.44	60.85
497.62	16.38
497.79	25.75
497.97	37.45
498.14	51.49
498.32	74.90
498.50	4.68
498.67	84.26
498.85	0.00
499.03	32.77
499.20	56.17
499.38	117.03
499.56	67.88
499.73	51.49
499.91	67.88
500.08	58.51
500.26	60.85
500.44	51.49
500.61	84.26
500.79	56.17
500.97	112.35
501.14	65.54
501.32	72.56
501.49	21.06
501.67	100.64
501.84	117.03
502.02	91.28
502.20	65.54
502.37	46.81
502.55	88.94
502.72	63.19
502.90	49.15
503.07	91.28
503.25	84.26
503.43	105.32
503.60	112.35
503.78	77.24
503.95	81.92
504.13	91.28
504.30	154.48
504.48	58.51
504.65	37.45
504.83	138.09
505.01	124.05
505.18	95.96
505.36	84.26
505.53	30.43
505.71	98.30
505.88	105.32
506.06	91.28
506.23	100.64
506.41	37.45
506.58	98.30
506.76	98.30
506.93	135.75
507.11	30.43
507.28	35.11
507.46	63.19
507.63	7.02
507.81	4.68
507.98	133.41
508.16	35.11
508.33	53.83
508.50	79.58
508.68	49.15
508.85	11.70
509.03	74.90
509.20	51.49
509.38	79.58
509.55	74.90
509.73	117.03
509.90	91.28
510.08	70.22
510.25	138.09
510.42	79.58
510.60	142.77
510.77	112.35
510.95	86.60
511.12	173.20
511.30	95.96
511.47	16.38
511.64	77.24
511.82	74.90
511.99	28.09
512.17	107.66
512.34	98.30
512.51	77.24
512.69	138.09
512.86	88.94
513.04	65.54
513.21	110.01
513.38	91.28
513.56	86.60
513.73	37.45
513.90	46.81
514.08	60.85
514.25	63.19
514.43	28.09
514.60	95.96
514.77	98.30
514.95	65.54
515.12	39.79
515.29	74.90
515.47	58.51
515.64	88.94
515.81	70.22
515.99	77.24
516.16	60.85
516.33	0.00
516.51	56.17
516.68	79.58
516.85	37.45
517.03	21.06
517.20	0.00
517.37	77.24
517.54	114.69
517.72	44.47
517.89	44.47
518.06	79.58
518.24	95.96
518.41	98.30
518.58	93.62
518.75	79.58
518.93	147.45
519.10	128.73
519.27	63.19
519.45	163.84
519.62	138.09
519.79	119.37
519.96	114.69
520.14	112.35
520.31	102.98
520.48	60.85
520.65	44.47
520.83	100.64
521.00	88.94
521.17	42.13
521.34	161.50
521.52	88.94
521.69	18.72
521.86	65.54
522.03	60.85
522.20	140.43
522.38	84.26
522.55	60.85
522.72	58.51
522.89	140.43
523.07	145.11
523.24	93.62
523.41	37.45
523.58	42.13
523.75	102.98
523.92	0.00
524.10	107.66
524.27	74.90
524.44	77.24
524.61	105.32
524.78	60.85
524.96	91.28
525.13	131.07
525.30	138.09
525.47	39.79
525.64	77.24
525.81	72.56
525.98	110.01
526.16	53.83
526.33	114.69
526.50	39.79
526.67	140.43
526.84	44.47
527.01	28.09
527.18	98.30
527.36	98.30
527.53	37.45
527.70	74.90
527.87	84.26
528.04	88.94
528.21	35.11
528.38	126.39
528.55	114.69
528.72	63.19
528.89	88.94
529.07	74.90
529.24	126.39
529.41	124.05
529.58	72.56
529.75	119.37
529.92	86.60
530.09	107.66
530.26	88.94
530.43	102.98
530.60	72.56
530.77	88.94
530.94	42.13
531.11	140.43
531.28	21.06
531.46	133.41
531.63	95.96
531.80	110.01
531.97	77.24
532.14	145.11
532.31	56.17
532.48	65.54
532.65	121.71
532.82	37.45
532.99	133.41
533.16	46.81
533.33	30.43
533.50	105.32
533.67	161.50
533.84	79.58
534.01	168.52
534.18	46.81
534.35	128.73
534.52	138.09
534.69	77.24
534.86	100.64
535.03	152.13
535.20	58.51
535.37	49.15
535.54	140.43
535.71	124.05
535.88	58.51
536.05	107.66
536.22	77.24
536.38	44.47
536.55	110.01
536.72	86.60
536.89	81.92
537.06	72.56
537.23	51.49
537.40	53.83
537.57	44.47
537.74	86.60
537.91	65.54
538.08	86.60
538.25	107.66
538.42	102.98
538.59	126.39
538.75	70.22
538.92	65.54
539.09	63.19
539.26	49.15
539.43	72.56
539.60	138.09
539.77	30.43
539.94	74.90
540.11	100.64
540.28	110.01
540.44	79.58
540.61	170.86
540.78	161.50
540.95	74.90
541.12	145.11
541.29	7.02
541.46	117.03
541.62	140.43
541.79	93.62
541.96	49.15
542.13	67.88
542.30	86.60
542.47	65.54
542.63	70.22
542.80	0.00
542.97	131.07
543.14	95.96
543.31	102.98
543.48	170.86
543.64	156.82
543.81	93.62
543.98	95.96
544.15	58.51
544.32	14.04
544.48	112.35
544.65	112.35
544.82	25.75
544.99	60.85
545.16	58.51
545.32	152.13
545.49	16.38
545.66	86.60
545.83	93.62
546.00	131.07
546.16	58.51
546.33	56.17
546.50	49.15
546.67	67.88
546.83	63.19
547.00	7.02
547.17	95.96
547.34	18.72
547.50	56.17
547.67	107.66
547.84	175.54
548.00	107.66
548.17	121.71
548.34	65.54
548.51	105.32
548.67	88.94
548.84	74.90
549.01	65.54
549.18	112.35
549.34	84.26
549.51	112.35
549.68	86.60
549.84	65.54
550.01	42.13
550.18	88.94
550.34	152.13
550.51	35.11
550.68	117.03
550.84	175.54
551.01	114.69
551.18	119.37
551.34	135.75
551.51	81.92
551.68	105.32
551.84	114.69
552.01	58.51
552.18	0.00
552.34	102.98
552.51	77.24
552.68	154.48
552.84	63.19
553.01	121.71
553.18	42.13
553.34	74.90
553.51	44.47
553.67	102.98
553.84	117.03
554.01	79.58
554.17	100.64
554.34	166.18
554.51	124.05
554.67	126.39
554.84	112.35
555.00	112.35
555.17	72.56
555.33	65.54
555.50	152.13
555.67	102.98
555.83	112.35
556.00	84.26
556.16	81.92
556.33	110.01
556.50	79.58
556.66	114.69
556.83	95.96
556.99	145.11
557.16	53.83
557.32	86.60
557.49	110.01
557.65	126.39
557.82	72.56
557.98	84.26
558.15	133.41
558.32	91.28
558.48	72.56
558.65	72.56
558.81	102.98
558.98	58.51
559.14	11.70
559.31	119.37
559.47	7.02
559.64	51.49
559.80	154.48
559.97	93.62
560.13	142.77
560.30	77.24
560.46	4.68
560.63	84.26
560.79	65.54
560.96	175.54
561.12	145.11
561.29	70.22
561.45	81.92
561.61	86.60
561.78	100.64
561.94	114.69
562.11	18.72
562.27	84.26
562.44	95.96
562.60	63.19
562.77	161.50
562.93	126.39
563.10	93.62
563.26	72.56
563.42	107.66
563.59	70.22
563.75	72.56
563.92	37.45
564.08	74.90
564.24	124.05
564.41	98.30
564.57	53.83
564.74	100.64
564.90	51.49
565.07	135.75
565.23	166.18
565.39	23.41
565.56	53.83
565.72	105.32
565.88	110.01
566.05	102.98
566.21	84.26
566.38	138.09
566.54	149.79
566.70	110.01
566.87	95.96
567.03	72.56
567.19	60.85
567.36	0.00
567.52	42.13
567.68	63.19
567.85	117.03
568.01	117.03
568.17	117.03
568.34	23.41
568.50	81.92
568.66	77.24
568.83	100.64
568.99	42.13
569.15	30.43
569.32	117.03
569.48	105.32
569.64	65.54
569.81	23.41
569.97	140.43
570.13	124.05
570.30	140.43
570.46	42.13
570.62	70.22
570.78	95.96
570.95	77.24
571.11	79.58
571.27	100.64
571.43	88.94
571.60	110.01
571.76	152.13
571.92	67.88
572.09	39.79
572.25	95.96
572.41	60.85
572.57	91.28
572.74	56.17
572.90	91.28
573.06	67.88
573.22	65.54
573.38	81.92
573.55	51.49
573.71	58.51
573.87	72.56
574.03	102.98
574.20	53.83
574.36	46.81
574.52	77.24
574.68	156.82
574.84	79.58
575.01	121.71
575.17	84.26
575.33	67.88
575.49	51.49
575.65	30.43
575.82	30.43
575.98	140.43
576.14	79.58
576.30	74.90
576.46	98.30
576.62	74.90
576.79	39.79
576.95	2.34
577.11	77.24
577.27	133.41
577.43	81.92
577.59	72.56
577.75	93.62
577.92	16.38
578.08	112.35
578.24	0.00
578.40	91.28
578.56	107.66
578.72	98.30
578.88	65.54
579.04	53.83
579.21	56.17
579.37	0.00
579.53	81.92
579.69	58.51
579.85	128.73
580.01	107.66
580.17	98.30
580.33	95.96
580.49	126.39
580.65	11.70
580.82	114.69
580.98	67.88
581.14	102.98
581.30	30.43
581.46	74.90
581.62	107.66
581.78	28.09
581.94	88.94
582.10	0.00
582.26	133.41
582.42	126.39
582.58	93.62
582.74	107.66
582.90	91.28
583.06	81.92
583.22	100.64
583.38	77.24
583.54	86.60
583.70	49.15
583.86	100.64
584.02	0.00
584.18	63.19
584.34	79.58
584.50	42.13
584.66	39.79
584.82	88.94
584.98	81.92
585.14	74.90
585.30	145.11
585.46	100.64
585.62	154.48
585.78	9.36
585.94	67.88
586.10	81.92
586.26	56.17
586.42	21.06
586.58	107.66
586.74	49.15
586.90	79.58
587.06	91.28
587.22	63.19
587.38	51.49
587.54	114.69
587.70	25.75
587.86	79.58
588.02	86.60
588.18	81.92
588.34	102.98
588.49	88.94
588.65	11.70
588.81	91.28
588.97	98.30
589.13	0.00
589.29	100.64
589.45	18.72
589.61	46.81
589.77	37.45
589.93	21.06
590.08	107.66
590.24	74.90
590.40	35.11
590.56	0.00
590.72	53.83
590.88	135.75
591.04	23.41
591.20	35.11
591.35	117.03
591.51	16.38
591.67	58.51
591.83	67.88
591.99	4.68
592.15	105.32
592.31	152.13
592.46	74.90
592.62	44.47
592.78	102.98
592.94	86.60
593.10	65.54
593.26	112.35
593.41	121.71
593.57	102.98
593.73	77.24
593.89	79.58
594.05	51.49
594.20	51.49
594.36	74.90
594.52	128.73
594.68	86.60
594.84	107.66
594.99	44.47
595.15	51.49
595.31	121.71
595.47	56.17
595.62	88.94
595.78	88.94
595.94	58.51
596.10	140.43
596.25	21.06
596.41	128.73
596.57	91.28
596.73	30.43
596.88	91.28
597.04	86.60
597.20	32.77
597.36	117.03
597.51	138.09
597.67	98.30
597.83	14.04
597.99	95.96
598.14	102.98
598.30	102.98
598.46	70.22
598.61	126.39
598.77	88.94
598.93	56.17
599.09	25.75
599.24	119.37
599.40	39.79
599.56	67.88
599.71	84.26
599.87	42.13
600.03	145.11
600.18	77.24
600.34	67.88
600.50	63.19
600.65	25.75
600.81	60.85
600.97	37.45
601.12	110.01
601.28	56.17
601.44	0.00
601.59	81.92
601.75	30.43
601.91	28.09
602.06	74.90
602.22	112.35
602.37	91.28
602.53	110.01
602.69	142.77
602.84	53.83
603.00	77.24
603.16	117.03
603.31	70.22
603.47	131.07
603.62	37.45
603.78	100.64
603.94	86.60
604.09	51.49
604.25	44.47
604.40	88.94
604.56	77.24
604.71	93.62
604.87	60.85
605.03	51.49
605.18	81.92
605.34	91.28
605.49	79.58
605.65	0.00
605.80	84.26
605.96	16.38
606.12	60.85
606.27	79.58
606.43	51.49
606.58	11.70
606.74	145.11
606.89	9.36
607.05	51.49
607.20	42.13
607.36	74.90
607.51	16.38
607.67	18.72
607.82	28.09
607.98	121.71
608.13	14.04
608.29	46.81
608.44	131.07
608.60	2.34
608.75	126.39
608.91	81.92
609.06	56.17
609.22	0.00
609.37	0.00
609.53	21.06
609.68	84.26
609.84	21.06
609.99	114.69
610.15	95.96
610.30	79.58
610.46	98.30
610.61	9.36
610.76	65.54
610.92	147.45
611.07	93.62
611.23	0.00
611.38	79.58
611.54	32.77
611.69	88.94
611.84	56.17
612.00	49.15
612.15	39.79
612.31	30.43
612.46	37.45
612.62	56.17
612.77	121.71
612.92	175.54
613.08	100.64
613.23	100.64
613.39	81.92
613.54	63.19
613.69	39.79
613.85	58.51
614.00	42.13
614.15	53.83
614.31	74.90
614.46	84.26
614.62	63.19
614.77	77.24
614.92	72.56
615.08	65.54
615.23	56.17
615.38	65.54
615.54	88.94
615.69	37.45
615.84	84.26
616.00	77.24
616.15	77.24
616.30	16.38
616.46	102.98
616.61	0.00
616.76	42.13
616.92	23.41
617.07	0.00
617.22	91.28
617.37	53.83
617.53	140.43
617.68	84.26
617.83	25.75
617.99	124.05
618.14	100.64
618.29	72.56
618.45	63.19
618.60	28.09
618.75	49.15
618.90	79.58
619.06	42.13
619.21	65.54
619.36	65.54
619.51	14.04
619.67	46.81
619.82	14.04
619.97	37.45
620.12	0.00
620.28	114.69
620.43	100.64
620.58	30.43
620.73	70.22
620.89	2.34
621.04	53.83
621.19	53.83
621.34	100.64
621.49	63.19
621.65	56.17
621.80	16.38
621.95	70.22
622.10	58.51
622.25	49.15
622.41	107.66
622.56	70.22
622.71	37.45
622.86	21.06
623.01	56.17
623.16	100.64
623.32	39.79
623.47	35.11
623.62	65.54
623.77	79.58
623.92	25.75
624.07	23.41
624.23	58.51
624.38	18.72
624.53	39.79
624.68	102.98
624.83	23.41
624.98	0.00
625.13	44.47
625.29	53.83
625.44	0.00
625.59	91.28
625.74	110.01
625.89	70.22
626.04	58.51
626.19	124.05
626.34	81.92
626.49	107.66
626.65	63.19
626.80	49.15
626.95	81.92
627.10	49.15
627.25	0.00
627.40	23.41
627.55	23.41
627.70	32.77
627.85	37.45
628.00	105.32
628.15	79.58
628.30	72.56
628.45	2.34
628.60	84.26
628.76	67.88
628.91	49.15
629.06	70.22
629.21	163.84
629.36	65.54
629.51	105.32
629.66	67.88
629.81	7.02
629.96	58.51
630.11	79.58
630.26	145.11
630.41	91.28
630.56	9.36
630.71	51.49
630.86	53.83
631.01	63.19
631.16	58.51
631.31	58.51
631.46	58.51
631.61	93.62
631.76	117.03
631.91	39.79
632.06	138.09
632.21	44.47
632.36	32.77
632.51	51.49
632.66	25.75
632.81	70.22
632.96	16.38
633.10	72.56
633.25	65.54
633.40	88.94
633.55	140.43
633.70	79.58
633.85	67.88
634.00	84.26
634.15	58.51
634.30	102.98
634.45	88.94
634.60	56.17
634.75	18.72
634.90	0.00
635.05	128.73
635.19	23.41
635.34	117.03
635.49	28.09
635.64	60.85
635.79	0.00
635.94	100.64
636.09	74.90
636.24	100.64
636.39	16.38
636.53	58.51
636.68	79.58
636.83	56.17
636.98	70.22
637.13	39.79
637.28	88.94
637.43	95.96
637.57	128.73
637.72	23.41
637.87	7.02
638.02	84.26
638.17	0.00
638.32	0.00
638.46	18.72
638.61	53.83
638.76	63.19
638.91	4.68
639.06	63.19
639.20	86.60
639.35	37.45
639.50	37.45
639.65	32.77
639.80	81.92
639.94	98.30
640.09	39.79
640.24	117.03
640.39	0.00
640.54	44.47
640.68	11.70
640.83	58.51
640.98	49.15
641.13	88.94
641.27	110.01
641.42	18.72
641.57	124.05
641.72	124.05
641.86	84.26
642.01	110.01
642.16	65.54
642.31	72.56
642.45	79.58
642.60	30.43
642.75	95.96
642.90	46.81
643.04	32.77
643.19	65.54
643.34	107.66
643.48	0.00
643.63	63.19
643.78	91.28
643.93	126.39
644.07	154.48
644.22	0.00
644.37	9.36
644.51	133.41
644.66	21.06
644.81	138.09
644.95	65.54
645.10	0.00
645.25	2.34
645.39	23.41
645.54	72.56
645.69	56.17
645.83	86.60
645.98	44.47
646.13	88.94
646.27	0.00
646.42	0.00
646.57	117.03
646.71	67.88
646.86	0.00
647.00	100.64
647.15	72.56
647.30	70.22
647.44	70.22
647.59	102.98
647.74	86.60
647.88	58.51
648.03	63.19
648.17	65.54
648.32	18.72
648.47	53.83
648.61	35.11
648.76	49.15
648.90	70.22
649.05	102.98
649.20	74.90
649.34	112.35
649.49	88.94
649.63	42.13
649.78	46.81
649.92	46.81
650.07	32.77
650.21	98.30
650.36	70.22
650.51	65.54
650.65	65.54
650.80	65.54
650.94	135.75
651.09	88.94
651.23	81.92
651.38	25.75
651.52	102.98
651.67	88.94
651.81	58.51
651.96	25.75
652.10	23.41
652.25	74.90
652.39	0.00
652.54	60.85
652.68	156.82
652.83	49.15
652.97	30.43
653.12	100.64
653.26	7.02
653.41	88.94
653.55	49.15
653.70	37.45
653.84	49.15
653.99	2.34
654.13	86.60
654.27	93.62
654.42	84.26
654.56	35.11
654.71	56.17
654.85	100.64
655.00	65.54
655.14	28.09
655.29	32.77
655.43	14.04
655.57	74.90
655.72	95.96
655.86	79.58
656.01	161.50
656.15	0.00
656.30	2.34
656.44	11.70
656.58	65.54
656.73	67.88
656.87	91.28
657.01	58.51
657.16	86.60
657.30	14.04
657.45	86.60
657.59	25.75
657.73	42.13
657.88	46.81
658.02	107.66
658.16	30.43
658.31	46.81
658.45	53.83
658.60	88.94
658.74	88.94
658.88	72.56
659.03	63.19
659.17	42.13
659.31	0.00
659.46	51.49
659.60	23.41
659.74	37.45
659.89	11.70
660.03	95.96
660.17	9.36
660.32	88.94
660.46	39.79
660.60	72.56
660.74	28.09
660.89	0.00
661.03	23.41
661.17	23.41
661.32	110.01
661.46	63.19
661.60	42.13
661.74	51.49
661.89	23.41
662.03	60.85
662.17	39.79
662.31	81.92
662.46	72.56
662.60	53.83
662.74	114.69
662.88	56.17
663.03	84.26
663.17	37.45
663.31	63.19
663.45	0.00
663.60	65.54
663.74	95.96
663.88	49.15
664.02	39.79
664.17	105.32
664.31	56.17
664.45	56.17
664.59	32.77
664.73	51.49
664.88	58.51
665.02	46.81
665.16	16.38
665.30	42.13
665.44	14.04
665.59	65.54
665.73	44.47
665.87	168.52
666.01	18.72
666.15	0.00
666.29	72.56
666.44	51.49
666.58	77.24
666.72	67.88
666.86	67.88
667.00	53.83
667.14	93.62
667.28	77.24
667.43	0.00
667.57	53.83
667.71	60.85
667.85	84.26
667.99	63.19
668.13	23.41
668.27	93.62
668.41	39.79
668.56	100.64
668.70	60.85
668.84	11.70
668.98	14.04
669.12	56.17
669.26	58.51
669.40	110.01
669.54	74.90
669.68	56.17
669.82	53.83
669.96	63.19
670.10	14.04
670.25	74.90
670.39	32.77
670.53	72.56
670.67	142.77
670.81	81.92
670.95	2.34
671.09	98.30
671.23	58.51
671.37	74.90
671.51	72.56
671.65	70.22
671.79	84.26
671.93	67.88
672.07	65.54
672.21	86.60
672.35	112.35
672.49	88.94
672.63	67.88
672.77	44.47
672.91	37.45
673.05	72.56
673.19	4.68
673.33	32.77
673.47	0.00
673.61	84.26
673.75	79.58
673.89	63.19
674.03	18.72
674.17	42.13
674.31	65.54
674.45	77.24
674.59	102.98
674.73	98.30
674.87	0.00
675.01	65.54
675.15	11.70
675.29	51.49
675.43	21.06
675.56	84.26
675.70	23.41
675.84	58.51
675.98	58.51
676.12	63.19
676.26	11.70
676.40	46.81
676.54	58.51
676.68	77.24
676.82	28.09
676.96	79.58
677.10	51.49
677.23	60.85
677.37	42.13
677.51	67.88
677.65	7.02
677.79	74.90
677.93	44.47
678.07	2.34
678.21	44.47
678.34	77.24
678.48	0.00
678.62	21.06
678.76	0.00
678.90	16.38
679.04	53.83
679.18	0.00
679.31	18.72
679.45	84.26
679.59	9.36
679.73	0.00
679.87	60.85
680.00	0.00
680.14	53.83
680.28	72.56
680.42	74.90
680.56	63.19
680.70	72.56
680.83	0.00
680.97	0.00
681.11	35.11
681.25	28.09
681.39	37.45
681.52	63.19
681.66	88.94
681.80	70.22
681.94	46.81
682.07	32.77
682.21	86.60
682.35	18.72
682.49	53.83
682.62	63.19
682.76	35.11
682.90	9.36
683.04	37.45
683.17	28.09
683.31	7.02
683.45	23.41
683.59	35.11
683.72	98.30
683.86	46.81
684.00	30.43
684.13	56.17
684.27	86.60
684.41	65.54
684.55	4.68
684.68	35.11
684.82	30.43
684.96	84.26
685.09	0.00
685.23	23.41
685.37	44.47
685.50	95.96
685.64	0.00
685.78	0.00
685.91	32.77
686.05	107.66
686.19	2.34
686.32	18.72
686.46	7.02
686.60	105.32
686.73	35.11
686.87	37.45
687.01	110.01
687.14	4.68
687.28	42.13
687.42	100.64
687.55	53.83
687.69	65.54
687.82	53.83
687.96	18.72
688.10	79.58
688.23	18.72
688.37	88.94
688.50	72.56
688.64	11.70
688.78	0.00
688.91	18.72
689.05	42.13
689.18	23.41
689.32	0.00
689.46	9.36
689.59	84.26
689.73	42.13
689.86	35.11
690.00	84.26
690.13	30.43
690.27	18.72
690.41	11.70
690.54	72.56
690.68	18.72
690.81	39.79
690.95	74.90
691.08	49.15
691.22	4.68
691.35	28.09
691.49	35.11
691.62	0.00
691.76	32.77
691.89	65.54
692.03	51.49
692.16	28.09
692.30	2.34
692.43	25.75
692.57	72.56
692.70	42.13
692.84	49.15
692.97	105.32
693.11	74.90
693.24	30.43
693.38	0.00
693.51	121.71
693.65	4.68
693.78	44.47
693.92	86.60
694.05	21.06
694.19	46.81
694.32	28.09
694.45	35.11
694.59	42.13
694.72	14.04
694.86	39.79
694.99	0.00
695.13	14.04
695.26	84.26
695.39	39.79
695.53	9.36
695.66	30.43
695.80	86.60
695.93	14.04
696.07	0.00
696.20	72.56
696.33	67.88
696.47	0.00
696.60	51.49
696.73	0.00
696.87	56.17
697.00	0.00
697.14	11.70
697.27	53.83
697.40	16.38
697.54	23.41
697.67	35.11
697.80	67.88
697.94	67.88
698.07	84.26
698.21	0.00
698.34	88.94
698.47	14.04
698.61	51.49
698.74	168.52
698.87	11.70
699.01	0.00
699.14	44.47
699.27	9.36
699.40	74.90
699.54	72.56
699.67	65.54
699.80	51.49
699.94	2.34
700.07	79.58
700.20	0.00
700.34	9.36
700.47	4.68
700.60	0.00
700.73	53.83
700.87	0.00
701.00	79.58
701.13	28.09
701.26	51.49
701.40	9.36
701.53	14.04
701.66	0.00
701.79	9.36
701.93	7.02
702.06	7.02
702.19	11.70
702.32	2.34
702.46	30.43
702.59	28.09
702.72	14.04
702.85	37.45
702.99	0.00
703.12	14.04
703.25	28.09
703.38	60.85
703.51	91.28
703.65	117.03
703.78	74.90
703.91	60.85
704.04	42.13
704.17	9.36
704.31	42.13
704.44	4.68
704.57	74.90
704.70	98.30
704.83	53.83
704.96	95.96
705.10	74.90
705.23	42.13
>>>>>End Processed Spectral Data<<<<<
