SpectraSuite Data File
++++++++++++++++++++++++++++++++++++
Date: Fri Oct 04 12:13:44 GMT-05:00 2013
User: price-jones
Dark Spectrum Present: No
Reference Spectrum Present: No
Number of Sampled Component Spectra: 1
Spectrometers: USB2+H05261
Integration Time (usec): 10000 (USB2+H05261)
Spectra Averaged: 1 (USB2+H05261)
Boxcar Smoothing: 0 (USB2+H05261)
Correct for Electrical Dark: No (USB2+H05261)
Strobe/Lamp Enabled: No (USB2+H05261)
Correct for Detector Non-linearity: No (USB2+H05261)
Correct for Stray Light: No (USB2+H05261)
Number of Pixels in Processed Spectrum: 2048
>>>>>Begin Processed Spectral Data<<<<<
365.73	46.81
365.92	46.81
366.12	46.81
366.32	0.00
366.52	0.00
366.72	0.00
366.91	0.00
367.11	0.00
367.31	0.00
367.51	0.00
367.70	0.00
367.90	0.00
368.10	0.00
368.30	0.00
368.49	0.00
368.69	0.00
368.89	0.00
369.09	0.00
369.28	0.00
369.48	0.00
369.68	0.00
369.87	0.00
370.07	0.00
370.27	0.00
370.47	0.00
370.66	0.00
370.86	0.00
371.06	0.00
371.25	0.00
371.45	0.00
371.65	0.00
371.84	0.00
372.04	0.00
372.24	0.00
372.44	7.02
372.63	0.00
372.83	0.00
373.03	74.90
373.22	0.00
373.42	4.68
373.62	0.00
373.81	18.72
374.01	65.54
374.21	0.00
374.40	74.90
374.60	16.38
374.79	0.00
374.99	51.49
375.19	65.54
375.38	100.64
375.58	91.28
375.78	58.51
375.97	42.13
376.17	44.47
376.37	21.06
376.56	84.26
376.76	39.79
376.95	28.09
377.15	67.88
377.35	0.00
377.54	18.72
377.74	25.75
377.93	51.49
378.13	4.68
378.33	88.94
378.52	0.00
378.72	46.81
378.91	0.00
379.11	18.72
379.31	98.30
379.50	16.38
379.70	42.13
379.89	0.00
380.09	0.00
380.28	37.45
380.48	25.75
380.68	67.88
380.87	9.36
381.07	0.00
381.26	28.09
381.46	46.81
381.65	95.96
381.85	60.85
382.04	35.11
382.24	51.49
382.43	11.70
382.63	44.47
382.83	0.00
383.02	0.00
383.22	39.79
383.41	0.00
383.61	0.00
383.80	28.09
384.00	0.00
384.19	28.09
384.39	35.11
384.58	2.34
384.78	0.00
384.97	0.00
385.17	32.77
385.36	126.39
385.56	16.38
385.75	0.00
385.95	16.38
386.14	35.11
386.34	0.00
386.53	65.54
386.72	51.49
386.92	4.68
387.11	0.00
387.31	23.41
387.50	0.00
387.70	14.04
387.89	0.00
388.09	23.41
388.28	0.00
388.48	56.17
388.67	74.90
388.86	0.00
389.06	7.02
389.25	35.11
389.45	21.06
389.64	0.00
389.84	4.68
390.03	25.75
390.22	0.00
390.42	18.72
390.61	58.51
390.81	42.13
391.00	37.45
391.19	32.77
391.39	16.38
391.58	16.38
391.78	0.00
391.97	23.41
392.16	0.00
392.36	0.00
392.55	2.34
392.75	84.26
392.94	4.68
393.13	93.62
393.33	25.75
393.52	0.00
393.71	7.02
393.91	0.00
394.10	28.09
394.29	14.04
394.49	2.34
394.68	35.11
394.88	49.15
395.07	0.00
395.26	0.00
395.46	53.83
395.65	88.94
395.84	25.75
396.04	0.00
396.23	0.00
396.42	70.22
396.62	16.38
396.81	0.00
397.00	39.79
397.19	46.81
397.39	0.00
397.58	11.70
397.77	74.90
397.97	0.00
398.16	51.49
398.35	0.00
398.55	35.11
398.74	0.00
398.93	49.15
399.12	0.00
399.32	58.51
399.51	16.38
399.70	51.49
399.90	102.98
400.09	84.26
400.28	0.00
400.47	0.00
400.67	60.85
400.86	21.06
401.05	21.06
401.24	77.24
401.44	16.38
401.63	0.00
401.82	86.60
402.01	23.41
402.21	0.00
402.40	53.83
402.59	32.77
402.78	51.49
402.97	28.09
403.17	44.47
403.36	39.79
403.55	44.47
403.74	42.13
403.93	32.77
404.13	35.11
404.32	9.36
404.51	63.19
404.70	65.54
404.89	0.00
405.09	0.00
405.28	2.34
405.47	4.68
405.66	0.00
405.85	0.00
406.05	0.00
406.24	21.06
406.43	0.00
406.62	0.00
406.81	0.00
407.00	51.49
407.20	39.79
407.39	35.11
407.58	18.72
407.77	98.30
407.96	46.81
408.15	114.69
408.34	65.54
408.54	133.41
408.73	0.00
408.92	9.36
409.11	0.00
409.30	0.00
409.49	65.54
409.68	21.06
409.87	77.24
410.07	18.72
410.26	25.75
410.45	110.01
410.64	9.36
410.83	79.58
411.02	21.06
411.21	9.36
411.40	72.56
411.59	21.06
411.78	0.00
411.98	30.43
412.17	14.04
412.36	35.11
412.55	91.28
412.74	70.22
412.93	100.64
413.12	65.54
413.31	30.43
413.50	67.88
413.69	21.06
413.88	88.94
414.07	49.15
414.26	16.38
414.45	77.24
414.64	49.15
414.83	14.04
415.02	9.36
415.22	0.00
415.41	79.58
415.60	72.56
415.79	28.09
415.98	0.00
416.17	112.35
416.36	42.13
416.55	2.34
416.74	16.38
416.93	32.77
417.12	32.77
417.31	53.83
417.50	51.49
417.69	58.51
417.88	0.00
418.07	0.00
418.26	39.79
418.45	114.69
418.64	0.00
418.83	0.00
419.02	9.36
419.21	77.24
419.39	63.19
419.58	25.75
419.77	21.06
419.96	58.51
420.15	58.51
420.34	72.56
420.53	23.41
420.72	70.22
420.91	0.00
421.10	42.13
421.29	4.68
421.48	128.73
421.67	70.22
421.86	0.00
422.05	51.49
422.24	30.43
422.43	23.41
422.61	0.00
422.80	93.62
422.99	23.41
423.18	0.00
423.37	0.00
423.56	14.04
423.75	39.79
423.94	102.98
424.13	32.77
424.32	88.94
424.50	63.19
424.69	79.58
424.88	28.09
425.07	0.00
425.26	67.88
425.45	58.51
425.64	25.75
425.83	95.96
426.01	0.00
426.20	0.00
426.39	21.06
426.58	23.41
426.77	11.70
426.96	25.75
427.15	14.04
427.33	49.15
427.52	0.00
427.71	0.00
427.90	49.15
428.09	21.06
428.28	126.39
428.46	135.75
428.65	46.81
428.84	42.13
429.03	46.81
429.22	16.38
429.40	28.09
429.59	21.06
429.78	35.11
429.97	9.36
430.16	39.79
430.34	0.00
430.53	32.77
430.72	84.26
430.91	4.68
431.10	25.75
431.28	28.09
431.47	65.54
431.66	32.77
431.85	32.77
432.03	105.32
432.22	58.51
432.41	16.38
432.60	42.13
432.79	91.28
432.97	0.00
433.16	42.13
433.35	95.96
433.54	65.54
433.72	37.45
433.91	0.00
434.10	7.02
434.28	77.24
434.47	67.88
434.66	95.96
434.85	0.00
435.03	23.41
435.22	60.85
435.41	81.92
435.59	77.24
435.78	74.90
435.97	51.49
436.16	46.81
436.34	30.43
436.53	112.35
436.72	28.09
436.90	11.70
437.09	39.79
437.28	107.66
437.46	42.13
437.65	16.38
437.84	9.36
438.02	65.54
438.21	53.83
438.40	0.00
438.58	53.83
438.77	9.36
438.96	0.00
439.14	79.58
439.33	74.90
439.52	39.79
439.70	46.81
439.89	51.49
440.08	91.28
440.26	102.98
440.45	79.58
440.63	16.38
440.82	91.28
441.01	0.00
441.19	0.00
441.38	72.56
441.57	44.47
441.75	72.56
441.94	7.02
442.12	0.00
442.31	56.17
442.50	79.58
442.68	42.13
442.87	28.09
443.05	0.00
443.24	35.11
443.43	110.01
443.61	51.49
443.80	0.00
443.98	74.90
444.17	77.24
444.35	53.83
444.54	100.64
444.73	21.06
444.91	0.00
445.10	121.71
445.28	77.24
445.47	114.69
445.65	81.92
445.84	65.54
446.02	2.34
446.21	107.66
446.39	0.00
446.58	74.90
446.77	72.56
446.95	60.85
447.14	93.62
447.32	30.43
447.51	0.00
447.69	51.49
447.88	21.06
448.06	0.00
448.25	37.45
448.43	7.02
448.62	65.54
448.80	117.03
448.99	0.00
449.17	30.43
449.36	74.90
449.54	107.66
449.73	21.06
449.91	72.56
450.10	42.13
450.28	93.62
450.46	72.56
450.65	88.94
450.83	11.70
451.02	84.26
451.20	9.36
451.39	124.05
451.57	0.00
451.76	72.56
451.94	112.35
452.13	7.02
452.31	35.11
452.49	60.85
452.68	39.79
452.86	18.72
453.05	124.05
453.23	7.02
453.42	58.51
453.60	21.06
453.78	49.15
453.97	51.49
454.15	63.19
454.34	53.83
454.52	2.34
454.70	70.22
454.89	56.17
455.07	11.70
455.26	0.00
455.44	42.13
455.62	44.47
455.81	0.00
455.99	46.81
456.17	110.01
456.36	79.58
456.54	74.90
456.73	51.49
456.91	44.47
457.09	70.22
457.28	0.00
457.46	9.36
457.64	0.00
457.83	14.04
458.01	0.00
458.19	2.34
458.38	49.15
458.56	110.01
458.74	11.70
458.93	102.98
459.11	0.00
459.29	28.09
459.48	98.30
459.66	65.54
459.84	39.79
460.03	70.22
460.21	0.00
460.39	35.11
460.57	121.71
460.76	44.47
460.94	21.06
461.12	23.41
461.31	79.58
461.49	0.00
461.67	58.51
461.85	56.17
462.04	63.19
462.22	152.13
462.40	81.92
462.59	14.04
462.77	32.77
462.95	67.88
463.13	0.00
463.32	100.64
463.50	114.69
463.68	79.58
463.86	60.85
464.05	46.81
464.23	65.54
464.41	63.19
464.59	49.15
464.78	58.51
464.96	11.70
465.14	147.45
465.32	32.77
465.50	100.64
465.69	93.62
465.87	119.37
466.05	60.85
466.23	0.00
466.41	35.11
466.60	39.79
466.78	65.54
466.96	44.47
467.14	60.85
467.32	58.51
467.51	58.51
467.69	110.01
467.87	39.79
468.05	70.22
468.23	0.00
468.41	44.47
468.60	23.41
468.78	79.58
468.96	105.32
469.14	14.04
469.32	67.88
469.50	53.83
469.69	88.94
469.87	44.47
470.05	77.24
470.23	65.54
470.41	72.56
470.59	42.13
470.77	39.79
470.95	81.92
471.14	119.37
471.32	0.00
471.50	46.81
471.68	128.73
471.86	100.64
472.04	9.36
472.22	58.51
472.40	51.49
472.58	72.56
472.77	42.13
472.95	14.04
473.13	84.26
473.31	37.45
473.49	51.49
473.67	39.79
473.85	117.03
474.03	114.69
474.21	88.94
474.39	91.28
474.57	74.90
474.75	72.56
474.93	9.36
475.12	11.70
475.30	79.58
475.48	0.00
475.66	60.85
475.84	32.77
476.02	30.43
476.20	81.92
476.38	100.64
476.56	79.58
476.74	107.66
476.92	133.41
477.10	81.92
477.28	86.60
477.46	58.51
477.64	74.90
477.82	72.56
478.00	140.43
478.18	105.32
478.36	79.58
478.54	49.15
478.72	30.43
478.90	86.60
479.08	37.45
479.26	84.26
479.44	18.72
479.62	28.09
479.80	65.54
479.98	58.51
480.16	42.13
480.34	56.17
480.52	86.60
480.70	32.77
480.88	42.13
481.06	0.00
481.24	67.88
481.41	0.00
481.59	65.54
481.77	81.92
481.95	88.94
482.13	60.85
482.31	98.30
482.49	65.54
482.67	95.96
482.85	86.60
483.03	84.26
483.21	4.68
483.39	28.09
483.57	4.68
483.74	142.77
483.92	42.13
484.10	67.88
484.28	67.88
484.46	51.49
484.64	32.77
484.82	51.49
485.00	121.71
485.18	77.24
485.35	0.00
485.53	11.70
485.71	63.19
485.89	58.51
486.07	51.49
486.25	28.09
486.43	88.94
486.61	84.26
486.78	46.81
486.96	93.62
487.14	93.62
487.32	79.58
487.50	14.04
487.68	112.35
487.85	117.03
488.03	21.06
488.21	72.56
488.39	91.28
488.57	79.58
488.75	100.64
488.92	37.45
489.10	93.62
489.28	53.83
489.46	28.09
489.64	84.26
489.81	95.96
489.99	93.62
490.17	4.68
490.35	35.11
490.53	88.94
490.70	11.70
490.88	56.17
491.06	39.79
491.24	88.94
491.41	138.09
491.59	138.09
491.77	70.22
491.95	149.79
492.13	91.28
492.30	46.81
492.48	79.58
492.66	28.09
492.84	98.30
493.01	145.11
493.19	86.60
493.37	100.64
493.54	88.94
493.72	0.00
493.90	72.56
494.08	88.94
494.25	142.77
494.43	119.37
494.61	84.26
494.79	56.17
494.96	93.62
495.14	93.62
495.32	110.01
495.49	42.13
495.67	37.45
495.85	51.49
496.02	114.69
496.20	72.56
496.38	98.30
496.55	114.69
496.73	124.05
496.91	110.01
497.09	67.88
497.26	72.56
497.44	84.26
497.62	46.81
497.79	105.32
497.97	98.30
498.14	88.94
498.32	135.75
498.50	77.24
498.67	147.45
498.85	18.72
499.03	81.92
499.20	98.30
499.38	110.01
499.56	70.22
499.73	79.58
499.91	9.36
500.08	93.62
500.26	102.98
500.44	102.98
500.61	79.58
500.79	86.60
500.97	60.85
501.14	105.32
501.32	95.96
501.49	121.71
501.67	93.62
501.84	93.62
502.02	37.45
502.20	88.94
502.37	84.26
502.55	117.03
502.72	56.17
502.90	114.69
503.07	128.73
503.25	72.56
503.43	93.62
503.60	39.79
503.78	67.88
503.95	119.37
504.13	152.13
504.30	53.83
504.48	128.73
504.65	84.26
504.83	37.45
505.01	65.54
505.18	102.98
505.36	67.88
505.53	81.92
505.71	86.60
505.88	105.32
506.06	44.47
506.23	84.26
506.41	117.03
506.58	37.45
506.76	81.92
506.93	60.85
507.11	110.01
507.28	72.56
507.46	37.45
507.63	49.15
507.81	86.60
507.98	72.56
508.16	86.60
508.33	51.49
508.50	70.22
508.68	74.90
508.85	140.43
509.03	46.81
509.20	65.54
509.38	88.94
509.55	70.22
509.73	86.60
509.90	0.00
510.08	112.35
510.25	23.41
510.42	65.54
510.60	23.41
510.77	67.88
510.95	147.45
511.12	65.54
511.30	117.03
511.47	102.98
511.64	112.35
511.82	86.60
511.99	121.71
512.17	88.94
512.34	53.83
512.51	77.24
512.69	121.71
512.86	140.43
513.04	86.60
513.21	60.85
513.38	46.81
513.56	72.56
513.73	93.62
513.90	72.56
514.08	60.85
514.25	100.64
514.43	91.28
514.60	117.03
514.77	86.60
514.95	102.98
515.12	72.56
515.29	138.09
515.47	112.35
515.64	44.47
515.81	117.03
515.99	107.66
516.16	32.77
516.33	110.01
516.51	72.56
516.68	44.47
516.85	100.64
517.03	39.79
517.20	37.45
517.37	60.85
517.54	161.50
517.72	84.26
517.89	79.58
518.06	53.83
518.24	74.90
518.41	194.26
518.58	77.24
518.75	112.35
518.93	98.30
519.10	65.54
519.27	93.62
519.45	110.01
519.62	81.92
519.79	70.22
519.96	21.06
520.14	84.26
520.31	100.64
520.48	110.01
520.65	91.28
520.83	72.56
521.00	105.32
521.17	135.75
521.34	67.88
521.52	93.62
521.69	44.47
521.86	53.83
522.03	53.83
522.20	63.19
522.38	79.58
522.55	124.05
522.72	77.24
522.89	79.58
523.07	107.66
523.24	100.64
523.41	135.75
523.58	102.98
523.75	79.58
523.92	81.92
524.10	77.24
524.27	93.62
524.44	58.51
524.61	63.19
524.78	18.72
524.96	81.92
525.13	28.09
525.30	163.84
525.47	79.58
525.64	72.56
525.81	159.16
525.98	70.22
526.16	37.45
526.33	84.26
526.50	49.15
526.67	67.88
526.84	117.03
527.01	84.26
527.18	149.79
527.36	149.79
527.53	117.03
527.70	93.62
527.87	81.92
528.04	112.35
528.21	67.88
528.38	63.19
528.55	63.19
528.72	60.85
528.89	145.11
529.07	142.77
529.24	119.37
529.41	77.24
529.58	98.30
529.75	100.64
529.92	81.92
530.09	72.56
530.26	107.66
530.43	14.04
530.60	70.22
530.77	105.32
530.94	63.19
531.11	88.94
531.28	14.04
531.46	63.19
531.63	51.49
531.80	91.28
531.97	135.75
532.14	67.88
532.31	105.32
532.48	84.26
532.65	35.11
532.82	110.01
532.99	56.17
533.16	56.17
533.33	131.07
533.50	86.60
533.67	168.52
533.84	110.01
534.01	79.58
534.18	28.09
534.35	95.96
534.52	70.22
534.69	154.48
534.86	58.51
535.03	98.30
535.20	107.66
535.37	138.09
535.54	81.92
535.71	91.28
535.88	107.66
536.05	105.32
536.22	46.81
536.38	88.94
536.55	93.62
536.72	53.83
536.89	51.49
537.06	84.26
537.23	133.41
537.40	149.79
537.57	86.60
537.74	84.26
537.91	51.49
538.08	138.09
538.25	114.69
538.42	98.30
538.59	81.92
538.75	121.71
538.92	58.51
539.09	63.19
539.26	65.54
539.43	56.17
539.60	51.49
539.77	102.98
539.94	30.43
540.11	16.38
540.28	32.77
540.44	88.94
540.61	81.92
540.78	79.58
540.95	117.03
541.12	126.39
541.29	98.30
541.46	77.24
541.62	70.22
541.79	84.26
541.96	0.00
542.13	100.64
542.30	126.39
542.47	105.32
542.63	126.39
542.80	124.05
542.97	39.79
543.14	65.54
543.31	72.56
543.48	70.22
543.64	114.69
543.81	35.11
543.98	65.54
544.15	74.90
544.32	159.16
544.48	81.92
544.65	0.00
544.82	100.64
544.99	91.28
545.16	53.83
545.32	30.43
545.49	79.58
545.66	105.32
545.83	70.22
546.00	60.85
546.16	72.56
546.33	102.98
546.50	163.84
546.67	159.16
546.83	81.92
547.00	182.56
547.17	84.26
547.34	63.19
547.50	126.39
547.67	154.48
547.84	65.54
548.00	72.56
548.17	107.66
548.34	128.73
548.51	58.51
548.67	135.75
548.84	67.88
549.01	65.54
549.18	9.36
549.34	102.98
549.51	25.75
549.68	112.35
549.84	74.90
550.01	102.98
550.18	131.07
550.34	49.15
550.51	46.81
550.68	42.13
550.84	51.49
551.01	32.77
551.18	142.77
551.34	84.26
551.51	86.60
551.68	86.60
551.84	114.69
552.01	107.66
552.18	95.96
552.34	84.26
552.51	53.83
552.68	154.48
552.84	110.01
553.01	58.51
553.18	161.50
553.34	98.30
553.51	124.05
553.67	95.96
553.84	81.92
554.01	42.13
554.17	105.32
554.34	91.28
554.51	126.39
554.67	32.77
554.84	105.32
555.00	88.94
555.17	30.43
555.33	72.56
555.50	56.17
555.67	42.13
555.83	140.43
556.00	58.51
556.16	105.32
556.33	81.92
556.50	49.15
556.66	72.56
556.83	98.30
556.99	93.62
557.16	56.17
557.32	74.90
557.49	67.88
557.65	93.62
557.82	63.19
557.98	140.43
558.15	56.17
558.32	88.94
558.48	93.62
558.65	168.52
558.81	131.07
558.98	9.36
559.14	121.71
559.31	147.45
559.47	81.92
559.64	131.07
559.80	79.58
559.97	95.96
560.13	159.16
560.30	95.96
560.46	145.11
560.63	131.07
560.79	121.71
560.96	81.92
561.12	60.85
561.29	44.47
561.45	149.79
561.61	133.41
561.78	65.54
561.94	63.19
562.11	9.36
562.27	77.24
562.44	140.43
562.60	100.64
562.77	131.07
562.93	63.19
563.10	105.32
563.26	91.28
563.42	84.26
563.59	107.66
563.75	37.45
563.92	51.49
564.08	60.85
564.24	142.77
564.41	84.26
564.57	28.09
564.74	67.88
564.90	156.82
565.07	84.26
565.23	51.49
565.39	91.28
565.56	60.85
565.72	102.98
565.88	65.54
566.05	173.20
566.21	142.77
566.38	67.88
566.54	81.92
566.70	18.72
566.87	95.96
567.03	63.19
567.19	79.58
567.36	39.79
567.52	102.98
567.68	58.51
567.85	65.54
568.01	46.81
568.17	79.58
568.34	39.79
568.50	23.41
568.66	84.26
568.83	100.64
568.99	74.90
569.15	117.03
569.32	67.88
569.48	49.15
569.64	105.32
569.81	53.83
569.97	42.13
570.13	70.22
570.30	114.69
570.46	39.79
570.62	51.49
570.78	46.81
570.95	72.56
571.11	58.51
571.27	46.81
571.43	79.58
571.60	72.56
571.76	152.13
571.92	124.05
572.09	93.62
572.25	100.64
572.41	63.19
572.57	112.35
572.74	135.75
572.90	37.45
573.06	72.56
573.22	100.64
573.38	53.83
573.55	44.47
573.71	65.54
573.87	98.30
574.03	67.88
574.20	79.58
574.36	58.51
574.52	119.37
574.68	56.17
574.84	91.28
575.01	112.35
575.17	117.03
575.33	58.51
575.49	124.05
575.65	65.54
575.82	35.11
575.98	74.90
576.14	72.56
576.30	51.49
576.46	30.43
576.62	112.35
576.79	102.98
576.95	37.45
577.11	49.15
577.27	56.17
577.43	107.66
577.59	81.92
577.75	44.47
577.92	95.96
578.08	88.94
578.24	16.38
578.40	77.24
578.56	58.51
578.72	79.58
578.88	49.15
579.04	98.30
579.21	93.62
579.37	42.13
579.53	102.98
579.69	112.35
579.85	9.36
580.01	100.64
580.17	114.69
580.33	67.88
580.49	86.60
580.65	98.30
580.82	14.04
580.98	100.64
581.14	102.98
581.30	140.43
581.46	119.37
581.62	56.17
581.78	39.79
581.94	0.00
582.10	72.56
582.26	133.41
582.42	7.02
582.58	28.09
582.74	154.48
582.90	86.60
583.06	93.62
583.22	100.64
583.38	9.36
583.54	91.28
583.70	81.92
583.86	53.83
584.02	128.73
584.18	81.92
584.34	70.22
584.50	133.41
584.66	30.43
584.82	86.60
584.98	93.62
585.14	114.69
585.30	88.94
585.46	110.01
585.62	77.24
585.78	60.85
585.94	133.41
586.10	58.51
586.26	65.54
586.42	0.00
586.58	70.22
586.74	93.62
586.90	72.56
587.06	18.72
587.22	88.94
587.38	58.51
587.54	112.35
587.70	102.98
587.86	42.13
588.02	93.62
588.18	53.83
588.34	2.34
588.49	102.98
588.65	86.60
588.81	53.83
588.97	39.79
589.13	72.56
589.29	0.00
589.45	95.96
589.61	81.92
589.77	0.00
589.93	16.38
590.08	72.56
590.24	63.19
590.40	112.35
590.56	72.56
590.72	25.75
590.88	128.73
591.04	51.49
591.20	60.85
591.35	79.58
591.51	42.13
591.67	42.13
591.83	81.92
591.99	110.01
592.15	39.79
592.31	93.62
592.46	84.26
592.62	128.73
592.78	28.09
592.94	51.49
593.10	53.83
593.26	21.06
593.41	79.58
593.57	126.39
593.73	42.13
593.89	39.79
594.05	81.92
594.20	79.58
594.36	135.75
594.52	88.94
594.68	46.81
594.84	86.60
594.99	70.22
595.15	107.66
595.31	74.90
595.47	65.54
595.62	7.02
595.78	79.58
595.94	131.07
596.10	42.13
596.25	88.94
596.41	51.49
596.57	56.17
596.73	39.79
596.88	81.92
597.04	53.83
597.20	70.22
597.36	91.28
597.51	100.64
597.67	147.45
597.83	112.35
597.99	21.06
598.14	81.92
598.30	105.32
598.46	95.96
598.61	88.94
598.77	112.35
598.93	133.41
599.09	77.24
599.24	49.15
599.40	86.60
599.56	142.77
599.71	74.90
599.87	107.66
600.03	72.56
600.18	35.11
600.34	102.98
600.50	53.83
600.65	88.94
600.81	152.13
600.97	37.45
601.12	126.39
601.28	121.71
601.44	58.51
601.59	88.94
601.75	140.43
601.91	124.05
602.06	124.05
602.22	124.05
602.37	2.34
602.53	32.77
602.69	81.92
602.84	21.06
603.00	93.62
603.16	98.30
603.31	98.30
603.47	79.58
603.62	93.62
603.78	91.28
603.94	119.37
604.09	63.19
604.25	70.22
604.40	114.69
604.56	67.88
604.71	18.72
604.87	79.58
605.03	58.51
605.18	86.60
605.34	58.51
605.49	0.00
605.65	93.62
605.80	124.05
605.96	51.49
606.12	0.00
606.27	100.64
606.43	60.85
606.58	100.64
606.74	91.28
606.89	88.94
607.05	124.05
607.20	79.58
607.36	88.94
607.51	112.35
607.67	28.09
607.82	140.43
607.98	126.39
608.13	81.92
608.29	70.22
608.44	53.83
608.60	72.56
608.75	56.17
608.91	60.85
609.06	46.81
609.22	84.26
609.37	93.62
609.53	114.69
609.68	159.16
609.84	35.11
609.99	60.85
610.15	91.28
610.30	74.90
610.46	46.81
610.61	72.56
610.76	84.26
610.92	11.70
611.07	60.85
611.23	95.96
611.38	133.41
611.54	79.58
611.69	56.17
611.84	51.49
612.00	88.94
612.15	79.58
612.31	35.11
612.46	107.66
612.62	124.05
612.77	23.41
612.92	23.41
613.08	65.54
613.23	44.47
613.39	91.28
613.54	63.19
613.69	72.56
613.85	9.36
614.00	140.43
614.15	81.92
614.31	46.81
614.46	56.17
614.62	56.17
614.77	58.51
614.92	14.04
615.08	28.09
615.23	49.15
615.38	79.58
615.54	37.45
615.69	0.00
615.84	142.77
616.00	63.19
616.15	93.62
616.30	95.96
616.46	21.06
616.61	56.17
616.76	102.98
616.92	86.60
617.07	95.96
617.22	49.15
617.37	154.48
617.53	11.70
617.68	51.49
617.83	65.54
617.99	93.62
618.14	63.19
618.29	84.26
618.45	0.00
618.60	30.43
618.75	25.75
618.90	56.17
619.06	28.09
619.21	77.24
619.36	100.64
619.51	133.41
619.67	39.79
619.82	60.85
619.97	42.13
620.12	102.98
620.28	105.32
620.43	79.58
620.58	42.13
620.73	49.15
620.89	58.51
621.04	53.83
621.19	0.00
621.34	86.60
621.49	112.35
621.65	35.11
621.80	114.69
621.95	102.98
622.10	79.58
622.25	23.41
622.41	49.15
622.56	37.45
622.71	9.36
622.86	100.64
623.01	93.62
623.16	4.68
623.32	21.06
623.47	119.37
623.62	124.05
623.77	91.28
623.92	44.47
624.07	35.11
624.23	81.92
624.38	65.54
624.53	88.94
624.68	39.79
624.83	135.75
624.98	18.72
625.13	107.66
625.29	44.47
625.44	0.00
625.59	98.30
625.74	175.54
625.89	11.70
626.04	30.43
626.19	74.90
626.34	107.66
626.49	46.81
626.65	147.45
626.80	65.54
626.95	67.88
627.10	51.49
627.25	65.54
627.40	23.41
627.55	35.11
627.70	0.00
627.85	14.04
628.00	23.41
628.15	133.41
628.30	149.79
628.45	0.00
628.60	46.81
628.76	138.09
628.91	23.41
629.06	46.81
629.21	37.45
629.36	44.47
629.51	105.32
629.66	114.69
629.81	79.58
629.96	95.96
630.11	91.28
630.26	70.22
630.41	42.13
630.56	56.17
630.71	42.13
630.86	25.75
631.01	23.41
631.16	91.28
631.31	58.51
631.46	84.26
631.61	95.96
631.76	28.09
631.91	0.00
632.06	44.47
632.21	37.45
632.36	11.70
632.51	21.06
632.66	53.83
632.81	86.60
632.96	91.28
633.10	110.01
633.25	23.41
633.40	91.28
633.55	131.07
633.70	0.00
633.85	16.38
634.00	14.04
634.15	0.00
634.30	58.51
634.45	77.24
634.60	74.90
634.75	53.83
634.90	18.72
635.05	145.11
635.19	4.68
635.34	110.01
635.49	0.00
635.64	53.83
635.79	107.66
635.94	95.96
636.09	53.83
636.24	128.73
636.39	56.17
636.53	126.39
636.68	74.90
636.83	21.06
636.98	42.13
637.13	65.54
637.28	25.75
637.43	74.90
637.57	102.98
637.72	30.43
637.87	49.15
638.02	91.28
638.17	0.00
638.32	18.72
638.46	0.00
638.61	65.54
638.76	105.32
638.91	79.58
639.06	37.45
639.20	81.92
639.35	37.45
639.50	53.83
639.65	0.00
639.80	70.22
639.94	128.73
640.09	77.24
640.24	105.32
640.39	53.83
640.54	84.26
640.68	46.81
640.83	53.83
640.98	63.19
641.13	25.75
641.27	98.30
641.42	42.13
641.57	100.64
641.72	86.60
641.86	23.41
642.01	98.30
642.16	37.45
642.31	11.70
642.45	110.01
642.60	21.06
642.75	65.54
642.90	105.32
643.04	128.73
643.19	49.15
643.34	46.81
643.48	28.09
643.63	11.70
643.78	60.85
643.93	86.60
644.07	25.75
644.22	105.32
644.37	95.96
644.51	58.51
644.66	67.88
644.81	32.77
644.95	74.90
645.10	128.73
645.25	93.62
645.39	37.45
645.54	84.26
645.69	133.41
645.83	0.00
645.98	35.11
646.13	74.90
646.27	105.32
646.42	53.83
646.57	14.04
646.71	65.54
646.86	46.81
647.00	100.64
647.15	79.58
647.30	37.45
647.44	44.47
647.59	39.79
647.74	35.11
647.88	81.92
648.03	39.79
648.17	117.03
648.32	11.70
648.47	53.83
648.61	65.54
648.76	42.13
648.90	63.19
649.05	70.22
649.20	100.64
649.34	51.49
649.49	11.70
649.63	72.56
649.78	63.19
649.92	93.62
650.07	100.64
650.21	79.58
650.36	2.34
650.51	70.22
650.65	35.11
650.80	93.62
650.94	37.45
651.09	72.56
651.23	30.43
651.38	74.90
651.52	77.24
651.67	9.36
651.81	60.85
651.96	84.26
652.10	14.04
652.25	56.17
652.39	0.00
652.54	81.92
652.68	37.45
652.83	56.17
652.97	60.85
653.12	95.96
653.26	51.49
653.41	18.72
653.55	105.32
653.70	42.13
653.84	100.64
653.99	46.81
654.13	105.32
654.27	70.22
654.42	44.47
654.56	56.17
654.71	67.88
654.85	0.00
655.00	77.24
655.14	63.19
655.29	95.96
655.43	65.54
655.57	51.49
655.72	39.79
655.86	63.19
656.01	2.34
656.15	72.56
656.30	44.47
656.44	0.00
656.58	105.32
656.73	39.79
656.87	0.00
657.01	49.15
657.16	53.83
657.30	42.13
657.45	84.26
657.59	0.00
657.73	79.58
657.88	18.72
658.02	79.58
658.16	0.00
658.31	88.94
658.45	84.26
658.60	63.19
658.74	70.22
658.88	56.17
659.03	67.88
659.17	95.96
659.31	4.68
659.46	53.83
659.60	18.72
659.74	98.30
659.89	53.83
660.03	4.68
660.17	86.60
660.32	93.62
660.46	32.77
660.60	91.28
660.74	32.77
660.89	32.77
661.03	58.51
661.17	0.00
661.32	70.22
661.46	53.83
661.60	0.00
661.74	0.00
661.89	88.94
662.03	32.77
662.17	56.17
662.31	74.90
662.46	84.26
662.60	53.83
662.74	28.09
662.88	53.83
663.03	95.96
663.17	25.75
663.31	124.05
663.45	0.00
663.60	98.30
663.74	16.38
663.88	42.13
664.02	14.04
664.17	0.00
664.31	23.41
664.45	39.79
664.59	81.92
664.73	81.92
664.88	121.71
665.02	93.62
665.16	60.85
665.30	77.24
665.44	128.73
665.59	46.81
665.73	9.36
665.87	63.19
666.01	65.54
666.15	46.81
666.29	102.98
666.44	44.47
666.58	135.75
666.72	11.70
666.86	35.11
667.00	142.77
667.14	49.15
667.28	77.24
667.43	35.11
667.57	72.56
667.71	14.04
667.85	56.17
667.99	28.09
668.13	7.02
668.27	51.49
668.41	0.00
668.56	105.32
668.70	49.15
668.84	42.13
668.98	53.83
669.12	72.56
669.26	28.09
669.40	30.43
669.54	77.24
669.68	46.81
669.82	42.13
669.96	0.00
670.10	42.13
670.25	18.72
670.39	7.02
670.53	16.38
670.67	51.49
670.81	23.41
670.95	67.88
671.09	67.88
671.23	21.06
671.37	42.13
671.51	100.64
671.65	28.09
671.79	44.47
671.93	77.24
672.07	35.11
672.21	72.56
672.35	60.85
672.49	44.47
672.63	72.56
672.77	56.17
672.91	77.24
673.05	93.62
673.19	42.13
673.33	4.68
673.47	86.60
673.61	35.11
673.75	39.79
673.89	4.68
674.03	25.75
674.17	102.98
674.31	51.49
674.45	46.81
674.59	39.79
674.73	65.54
674.87	30.43
675.01	9.36
675.15	44.47
675.29	72.56
675.43	46.81
675.56	84.26
675.70	49.15
675.84	51.49
675.98	65.54
676.12	77.24
676.26	9.36
676.40	23.41
676.54	32.77
676.68	30.43
676.82	28.09
676.96	79.58
677.10	81.92
677.23	35.11
677.37	30.43
677.51	65.54
677.65	58.51
677.79	16.38
677.93	72.56
678.07	95.96
678.21	53.83
678.34	25.75
678.48	21.06
678.62	93.62
678.76	39.79
678.90	0.00
679.04	53.83
679.18	28.09
679.31	114.69
679.45	21.06
679.59	42.13
679.73	70.22
679.87	23.41
680.00	44.47
680.14	35.11
680.28	56.17
680.42	4.68
680.56	95.96
680.70	35.11
680.83	79.58
680.97	84.26
681.11	7.02
681.25	0.00
681.39	23.41
681.52	39.79
681.66	77.24
681.80	30.43
681.94	46.81
682.07	9.36
682.21	32.77
682.35	56.17
682.49	14.04
682.62	44.47
682.76	32.77
682.90	67.88
683.04	0.00
683.17	4.68
683.31	0.00
683.45	35.11
683.59	63.19
683.72	35.11
683.86	0.00
684.00	14.04
684.13	65.54
684.27	0.00
684.41	46.81
684.55	63.19
684.68	126.39
684.82	9.36
684.96	70.22
685.09	18.72
685.23	74.90
685.37	9.36
685.50	25.75
685.64	23.41
685.78	0.00
685.91	11.70
686.05	70.22
686.19	28.09
686.32	21.06
686.46	4.68
686.60	25.75
686.73	63.19
686.87	72.56
687.01	70.22
687.14	63.19
687.28	42.13
687.42	9.36
687.55	67.88
687.69	16.38
687.82	4.68
687.96	63.19
688.10	51.49
688.23	67.88
688.37	39.79
688.50	23.41
688.64	79.58
688.78	21.06
688.91	77.24
689.05	32.77
689.18	77.24
689.32	14.04
689.46	51.49
689.59	56.17
689.73	60.85
689.86	42.13
690.00	84.26
690.13	91.28
690.27	35.11
690.41	39.79
690.54	35.11
690.68	44.47
690.81	53.83
690.95	60.85
691.08	79.58
691.22	79.58
691.35	4.68
691.49	58.51
691.62	84.26
691.76	0.00
691.89	88.94
692.03	107.66
692.16	30.43
692.30	0.00
692.43	72.56
692.57	16.38
692.70	18.72
692.84	86.60
692.97	35.11
693.11	102.98
693.24	14.04
693.38	58.51
693.51	16.38
693.65	37.45
693.78	16.38
693.92	4.68
694.05	67.88
694.19	28.09
694.32	102.98
694.45	0.00
694.59	39.79
694.72	0.00
694.86	63.19
694.99	18.72
695.13	44.47
695.26	0.00
695.39	63.19
695.53	49.15
695.66	95.96
695.80	95.96
695.93	30.43
696.07	46.81
696.20	0.00
696.33	51.49
696.47	30.43
696.60	2.34
696.73	18.72
696.87	0.00
697.00	58.51
697.14	51.49
697.27	28.09
697.40	46.81
697.54	37.45
697.67	7.02
697.80	67.88
697.94	56.17
698.07	2.34
698.21	60.85
698.34	28.09
698.47	39.79
698.61	112.35
698.74	51.49
698.87	14.04
699.01	72.56
699.14	51.49
699.27	77.24
699.40	49.15
699.54	0.00
699.67	35.11
699.80	39.79
699.94	0.00
700.07	0.00
700.20	4.68
700.34	39.79
700.47	37.45
700.60	4.68
700.73	4.68
700.87	42.13
701.00	77.24
701.13	32.77
701.26	4.68
701.40	93.62
701.53	28.09
701.66	84.26
701.79	7.02
701.93	0.00
702.06	67.88
702.19	0.00
702.32	72.56
702.46	81.92
702.59	16.38
702.72	21.06
702.85	0.00
702.99	135.75
703.12	67.88
703.25	74.90
703.38	4.68
703.51	77.24
703.65	35.11
703.78	0.00
703.91	30.43
704.04	56.17
704.17	32.77
704.31	51.49
704.44	23.41
704.57	2.34
704.70	72.56
704.83	14.04
704.96	4.68
705.10	4.68
705.23	72.56
>>>>>End Processed Spectral Data<<<<<
