SpectraSuite Data File
++++++++++++++++++++++++++++++++++++
Date: Fri Oct 04 12:13:44 GMT-05:00 2013
User: price-jones
Dark Spectrum Present: No
Reference Spectrum Present: No
Number of Sampled Component Spectra: 1
Spectrometers: USB2+H05261
Integration Time (usec): 10000 (USB2+H05261)
Spectra Averaged: 1 (USB2+H05261)
Boxcar Smoothing: 0 (USB2+H05261)
Correct for Electrical Dark: No (USB2+H05261)
Strobe/Lamp Enabled: No (USB2+H05261)
Correct for Detector Non-linearity: No (USB2+H05261)
Correct for Stray Light: No (USB2+H05261)
Number of Pixels in Processed Spectrum: 2048
>>>>>Begin Processed Spectral Data<<<<<
365.73	39.79
365.92	39.79
366.12	39.79
366.32	0.00
366.52	0.00
366.72	0.00
366.91	0.00
367.11	0.00
367.31	0.00
367.51	0.00
367.70	0.00
367.90	0.00
368.10	0.00
368.30	0.00
368.49	0.00
368.69	0.00
368.89	0.00
369.09	0.00
369.28	0.00
369.48	0.00
369.68	0.00
369.87	0.00
370.07	0.00
370.27	0.00
370.47	0.00
370.66	0.00
370.86	0.00
371.06	0.00
371.25	0.00
371.45	25.75
371.65	0.00
371.84	0.00
372.04	0.00
372.24	14.04
372.44	42.13
372.63	46.81
372.83	72.56
373.03	14.04
373.22	16.38
373.42	91.28
373.62	60.85
373.81	11.70
374.01	72.56
374.21	18.72
374.40	9.36
374.60	46.81
374.79	67.88
374.99	51.49
375.19	93.62
375.38	23.41
375.58	77.24
375.78	84.26
375.97	16.38
376.17	0.00
376.37	25.75
376.56	46.81
376.76	63.19
376.95	58.51
377.15	161.50
377.35	4.68
377.54	25.75
377.74	0.00
377.93	124.05
378.13	70.22
378.33	42.13
378.52	11.70
378.72	28.09
378.91	0.00
379.11	0.00
379.31	91.28
379.50	28.09
379.70	0.00
379.89	56.17
380.09	0.00
380.28	42.13
380.48	32.77
380.68	4.68
380.87	65.54
381.07	39.79
381.26	70.22
381.46	0.00
381.65	7.02
381.85	44.47
382.04	0.00
382.24	23.41
382.43	16.38
382.63	4.68
382.83	35.11
383.02	67.88
383.22	9.36
383.41	39.79
383.61	14.04
383.80	72.56
384.00	88.94
384.19	0.00
384.39	0.00
384.58	11.70
384.78	0.00
384.97	88.94
385.17	74.90
385.36	93.62
385.56	0.00
385.75	84.26
385.95	0.00
386.14	0.00
386.34	21.06
386.53	63.19
386.72	0.00
386.92	56.17
387.11	35.11
387.31	74.90
387.50	42.13
387.70	11.70
387.89	72.56
388.09	77.24
388.28	0.00
388.48	0.00
388.67	35.11
388.86	32.77
389.06	46.81
389.25	39.79
389.45	7.02
389.64	84.26
389.84	28.09
390.03	60.85
390.22	0.00
390.42	0.00
390.61	0.00
390.81	86.60
391.00	56.17
391.19	9.36
391.39	56.17
391.58	98.30
391.78	35.11
391.97	0.00
392.16	88.94
392.36	65.54
392.55	25.75
392.75	0.00
392.94	39.79
393.13	23.41
393.33	65.54
393.52	58.51
393.71	70.22
393.91	0.00
394.10	11.70
394.29	39.79
394.49	0.00
394.68	0.00
394.88	49.15
395.07	79.58
395.26	32.77
395.46	16.38
395.65	63.19
395.84	46.81
396.04	58.51
396.23	0.00
396.42	0.00
396.62	67.88
396.81	67.88
397.00	51.49
397.19	7.02
397.39	60.85
397.58	37.45
397.77	46.81
397.97	70.22
398.16	46.81
398.35	9.36
398.55	35.11
398.74	0.00
398.93	53.83
399.12	39.79
399.32	30.43
399.51	86.60
399.70	23.41
399.90	65.54
400.09	0.00
400.28	35.11
400.47	9.36
400.67	53.83
400.86	49.15
401.05	28.09
401.24	110.01
401.44	100.64
401.63	67.88
401.82	30.43
402.01	79.58
402.21	37.45
402.40	25.75
402.59	25.75
402.78	49.15
402.97	0.00
403.17	46.81
403.36	42.13
403.55	49.15
403.74	0.00
403.93	14.04
404.13	102.98
404.32	2.34
404.51	117.03
404.70	39.79
404.89	72.56
405.09	60.85
405.28	0.00
405.47	58.51
405.66	46.81
405.85	14.04
406.05	0.00
406.24	81.92
406.43	0.00
406.62	46.81
406.81	79.58
407.00	72.56
407.20	60.85
407.39	4.68
407.58	18.72
407.77	49.15
407.96	35.11
408.15	16.38
408.34	58.51
408.54	51.49
408.73	0.00
408.92	131.07
409.11	7.02
409.30	0.00
409.49	0.00
409.68	11.70
409.87	63.19
410.07	46.81
410.26	14.04
410.45	0.00
410.64	35.11
410.83	18.72
411.02	7.02
411.21	35.11
411.40	84.26
411.59	95.96
411.78	102.98
411.98	67.88
412.17	60.85
412.36	46.81
412.55	28.09
412.74	72.56
412.93	93.62
413.12	100.64
413.31	7.02
413.50	81.92
413.69	25.75
413.88	60.85
414.07	84.26
414.26	131.07
414.45	44.47
414.64	32.77
414.83	65.54
415.02	81.92
415.22	16.38
415.41	77.24
415.60	77.24
415.79	25.75
415.98	77.24
416.17	51.49
416.36	0.00
416.55	37.45
416.74	88.94
416.93	72.56
417.12	51.49
417.31	74.90
417.50	72.56
417.69	60.85
417.88	37.45
418.07	25.75
418.26	81.92
418.45	72.56
418.64	42.13
418.83	51.49
419.02	91.28
419.21	81.92
419.39	58.51
419.58	74.90
419.77	21.06
419.96	72.56
420.15	4.68
420.34	42.13
420.53	84.26
420.72	37.45
420.91	117.03
421.10	77.24
421.29	72.56
421.48	114.69
421.67	30.43
421.86	25.75
422.05	0.00
422.24	56.17
422.43	7.02
422.61	79.58
422.80	51.49
422.99	72.56
423.18	42.13
423.37	124.05
423.56	67.88
423.75	98.30
423.94	58.51
424.13	32.77
424.32	32.77
424.50	74.90
424.69	117.03
424.88	28.09
425.07	14.04
425.26	30.43
425.45	2.34
425.64	0.00
425.83	72.56
426.01	0.00
426.20	79.58
426.39	49.15
426.58	2.34
426.77	70.22
426.96	51.49
427.15	72.56
427.33	84.26
427.52	65.54
427.71	35.11
427.90	67.88
428.09	117.03
428.28	21.06
428.46	81.92
428.65	74.90
428.84	4.68
429.03	14.04
429.22	93.62
429.40	2.34
429.59	77.24
429.78	84.26
429.97	0.00
430.16	70.22
430.34	49.15
430.53	0.00
430.72	53.83
430.91	35.11
431.10	42.13
431.28	110.01
431.47	16.38
431.66	79.58
431.85	84.26
432.03	102.98
432.22	16.38
432.41	110.01
432.60	21.06
432.79	51.49
432.97	0.00
433.16	32.77
433.35	23.41
433.54	67.88
433.72	67.88
433.91	70.22
434.10	46.81
434.28	91.28
434.47	39.79
434.66	49.15
434.85	46.81
435.03	58.51
435.22	51.49
435.41	84.26
435.59	53.83
435.78	23.41
435.97	102.98
436.16	35.11
436.34	86.60
436.53	84.26
436.72	58.51
436.90	95.96
437.09	28.09
437.28	79.58
437.46	51.49
437.65	84.26
437.84	37.45
438.02	93.62
438.21	0.00
438.40	44.47
438.58	91.28
438.77	81.92
438.96	0.00
439.14	44.47
439.33	121.71
439.52	107.66
439.70	112.35
439.89	147.45
440.08	16.38
440.26	60.85
440.45	95.96
440.63	51.49
440.82	84.26
441.01	35.11
441.19	35.11
441.38	65.54
441.57	23.41
441.75	74.90
441.94	84.26
442.12	105.32
442.31	49.15
442.50	21.06
442.68	58.51
442.87	39.79
443.05	70.22
443.24	105.32
443.43	98.30
443.61	131.07
443.80	84.26
443.98	184.90
444.17	0.00
444.35	42.13
444.54	140.43
444.73	21.06
444.91	77.24
445.10	126.39
445.28	39.79
445.47	56.17
445.65	42.13
445.84	49.15
446.02	53.83
446.21	180.22
446.39	37.45
446.58	105.32
446.77	49.15
446.95	56.17
447.14	56.17
447.32	91.28
447.51	79.58
447.69	70.22
447.88	142.77
448.06	84.26
448.25	63.19
448.43	72.56
448.62	98.30
448.80	107.66
448.99	77.24
449.17	107.66
449.36	98.30
449.54	93.62
449.73	95.96
449.91	70.22
450.10	100.64
450.28	79.58
450.46	44.47
450.65	39.79
450.83	110.01
451.02	105.32
451.20	128.73
451.39	72.56
451.57	63.19
451.76	117.03
451.94	84.26
452.13	100.64
452.31	147.45
452.49	135.75
452.68	0.00
452.86	39.79
453.05	138.09
453.23	159.16
453.42	35.11
453.60	70.22
453.78	154.48
453.97	67.88
454.15	56.17
454.34	32.77
454.52	93.62
454.70	72.56
454.89	63.19
455.07	51.49
455.26	114.69
455.44	105.32
455.62	58.51
455.81	51.49
455.99	74.90
456.17	30.43
456.36	93.62
456.54	102.98
456.73	126.39
456.91	110.01
457.09	81.92
457.28	93.62
457.46	93.62
457.64	102.98
457.83	53.83
458.01	107.66
458.19	65.54
458.38	53.83
458.56	63.19
458.74	60.85
458.93	42.13
459.11	145.11
459.29	63.19
459.48	56.17
459.66	0.00
459.84	117.03
460.03	53.83
460.21	142.77
460.39	112.35
460.57	98.30
460.76	58.51
460.94	112.35
461.12	72.56
461.31	147.45
461.49	128.73
461.67	35.11
461.85	39.79
462.04	16.38
462.22	152.13
462.40	81.92
462.59	60.85
462.77	114.69
462.95	114.69
463.13	39.79
463.32	58.51
463.50	86.60
463.68	14.04
463.86	114.69
464.05	93.62
464.23	79.58
464.41	124.05
464.59	95.96
464.78	46.81
464.96	51.49
465.14	100.64
465.32	74.90
465.50	102.98
465.69	70.22
465.87	152.13
466.05	60.85
466.23	72.56
466.41	77.24
466.60	102.98
466.78	91.28
466.96	124.05
467.14	56.17
467.32	105.32
467.51	147.45
467.69	128.73
467.87	51.49
468.05	86.60
468.23	107.66
468.41	72.56
468.60	0.00
468.78	46.81
468.96	0.00
469.14	102.98
469.32	91.28
469.50	121.71
469.69	102.98
469.87	70.22
470.05	67.88
470.23	46.81
470.41	88.94
470.59	77.24
470.77	14.04
470.95	74.90
471.14	72.56
471.32	152.13
471.50	84.26
471.68	58.51
471.86	35.11
472.04	37.45
472.22	16.38
472.40	100.64
472.58	67.88
472.77	65.54
472.95	74.90
473.13	93.62
473.31	138.09
473.49	133.41
473.67	110.01
473.85	70.22
474.03	149.79
474.21	147.45
474.39	128.73
474.57	60.85
474.75	53.83
474.93	138.09
475.12	135.75
475.30	39.79
475.48	37.45
475.66	67.88
475.84	74.90
476.02	88.94
476.20	124.05
476.38	79.58
476.56	131.07
476.74	77.24
476.92	105.32
477.10	72.56
477.28	77.24
477.46	121.71
477.64	91.28
477.82	56.17
478.00	30.43
478.18	135.75
478.36	21.06
478.54	70.22
478.72	84.26
478.90	60.85
479.08	81.92
479.26	140.43
479.44	53.83
479.62	39.79
479.80	93.62
479.98	65.54
480.16	145.11
480.34	46.81
480.52	138.09
480.70	93.62
480.88	53.83
481.06	128.73
481.24	98.30
481.41	156.82
481.59	58.51
481.77	65.54
481.95	170.86
482.13	121.71
482.31	95.96
482.49	135.75
482.67	67.88
482.85	152.13
483.03	107.66
483.21	135.75
483.39	93.62
483.57	131.07
483.74	128.73
483.92	74.90
484.10	46.81
484.28	147.45
484.46	177.88
484.64	140.43
484.82	95.96
485.00	117.03
485.18	60.85
485.35	67.88
485.53	63.19
485.71	70.22
485.89	88.94
486.07	161.50
486.25	53.83
486.43	114.69
486.61	126.39
486.78	142.77
486.96	81.92
487.14	124.05
487.32	102.98
487.50	114.69
487.68	79.58
487.85	91.28
488.03	147.45
488.21	124.05
488.39	117.03
488.57	81.92
488.75	95.96
488.92	166.18
489.10	95.96
489.28	65.54
489.46	142.77
489.64	126.39
489.81	70.22
489.99	133.41
490.17	112.35
490.35	142.77
490.53	163.84
490.70	159.16
490.88	119.37
491.06	79.58
491.24	163.84
491.41	145.11
491.59	107.66
491.77	117.03
491.95	79.58
492.13	70.22
492.30	163.84
492.48	173.20
492.66	114.69
492.84	79.58
493.01	117.03
493.19	138.09
493.37	166.18
493.54	114.69
493.72	159.16
493.90	98.30
494.08	110.01
494.25	138.09
494.43	91.28
494.61	133.41
494.79	84.26
494.96	173.20
495.14	95.96
495.32	114.69
495.49	86.60
495.67	142.77
495.85	91.28
496.02	91.28
496.20	102.98
496.38	117.03
496.55	98.30
496.73	196.60
496.91	177.88
497.09	79.58
497.26	138.09
497.44	138.09
497.62	135.75
497.79	84.26
497.97	177.88
498.14	184.90
498.32	145.11
498.50	93.62
498.67	142.77
498.85	177.88
499.03	126.39
499.20	112.35
499.38	163.84
499.56	114.69
499.73	133.41
499.91	98.30
500.08	93.62
500.26	72.56
500.44	95.96
500.61	58.51
500.79	121.71
500.97	126.39
501.14	107.66
501.32	107.66
501.49	100.64
501.67	180.22
501.84	159.16
502.02	121.71
502.20	84.26
502.37	128.73
502.55	161.50
502.72	168.52
502.90	138.09
503.07	105.32
503.25	124.05
503.43	196.60
503.60	182.56
503.78	114.69
503.95	119.37
504.13	126.39
504.30	182.56
504.48	168.52
504.65	91.28
504.83	173.20
505.01	184.90
505.18	161.50
505.36	168.52
505.53	102.98
505.71	81.92
505.88	147.45
506.06	175.54
506.23	18.72
506.41	124.05
506.58	154.48
506.76	84.26
506.93	133.41
507.11	138.09
507.28	168.52
507.46	77.24
507.63	112.35
507.81	229.37
507.98	74.90
508.16	98.30
508.33	177.88
508.50	102.98
508.68	180.22
508.85	107.66
509.03	128.73
509.20	138.09
509.38	81.92
509.55	77.24
509.73	147.45
509.90	124.05
510.08	175.54
510.25	67.88
510.42	168.52
510.60	126.39
510.77	140.43
510.95	154.48
511.12	124.05
511.30	124.05
511.47	140.43
511.64	124.05
511.82	138.09
511.99	140.43
512.17	133.41
512.34	124.05
512.51	77.24
512.69	70.22
512.86	170.86
513.04	245.76
513.21	105.32
513.38	203.63
513.56	81.92
513.73	119.37
513.90	147.45
514.08	166.18
514.25	234.05
514.43	161.50
514.60	65.54
514.77	110.01
514.95	147.45
515.12	208.31
515.29	149.79
515.47	131.07
515.64	149.79
515.81	170.86
515.99	142.77
516.16	135.75
516.33	107.66
516.51	63.19
516.68	114.69
516.85	110.01
517.03	142.77
517.20	79.58
517.37	238.73
517.54	187.24
517.72	170.86
517.89	191.92
518.06	124.05
518.24	102.98
518.41	170.86
518.58	173.20
518.75	119.37
518.93	149.79
519.10	142.77
519.27	159.16
519.45	210.65
519.62	131.07
519.79	191.92
519.96	177.88
520.14	138.09
520.31	126.39
520.48	105.32
520.65	166.18
520.83	154.48
521.00	126.39
521.17	79.58
521.34	163.84
521.52	152.13
521.69	152.13
521.86	133.41
522.03	147.45
522.20	180.22
522.38	166.18
522.55	152.13
522.72	168.52
522.89	220.01
523.07	196.60
523.24	194.26
523.41	149.79
523.58	60.85
523.75	138.09
523.92	67.88
524.10	131.07
524.27	124.05
524.44	170.86
524.61	102.98
524.78	217.67
524.96	114.69
525.13	93.62
525.30	131.07
525.47	105.32
525.64	161.50
525.81	154.48
525.98	91.28
526.16	182.56
526.33	212.99
526.50	131.07
526.67	126.39
526.84	166.18
527.01	168.52
527.18	145.11
527.36	124.05
527.53	173.20
527.70	163.84
527.87	194.26
528.04	147.45
528.21	159.16
528.38	205.97
528.55	161.50
528.72	187.24
528.89	152.13
529.07	173.20
529.24	184.90
529.41	163.84
529.58	166.18
529.75	124.05
529.92	91.28
530.09	110.01
530.26	154.48
530.43	175.54
530.60	119.37
530.77	180.22
530.94	191.92
531.11	203.63
531.28	56.17
531.46	138.09
531.63	201.29
531.80	170.86
531.97	70.22
532.14	110.01
532.31	159.16
532.48	159.16
532.65	145.11
532.82	117.03
532.99	147.45
533.16	168.52
533.33	105.32
533.50	177.88
533.67	191.92
533.84	138.09
534.01	154.48
534.18	91.28
534.35	133.41
534.52	175.54
534.69	124.05
534.86	149.79
535.03	149.79
535.20	173.20
535.37	156.82
535.54	138.09
535.71	124.05
535.88	95.96
536.05	112.35
536.22	126.39
536.38	142.77
536.55	42.13
536.72	194.26
536.89	95.96
537.06	126.39
537.23	126.39
537.40	198.95
537.57	203.63
537.74	182.56
537.91	159.16
538.08	114.69
538.25	184.90
538.42	128.73
538.59	177.88
538.75	100.64
538.92	194.26
539.09	138.09
539.26	170.86
539.43	145.11
539.60	156.82
539.77	142.77
539.94	112.35
540.11	161.50
540.28	175.54
540.44	95.96
540.61	156.82
540.78	154.48
540.95	163.84
541.12	194.26
541.29	182.56
541.46	205.97
541.62	138.09
541.79	107.66
541.96	149.79
542.13	124.05
542.30	168.52
542.47	147.45
542.63	142.77
542.80	117.03
542.97	95.96
543.14	135.75
543.31	117.03
543.48	180.22
543.64	177.88
543.81	175.54
543.98	163.84
544.15	187.24
544.32	46.81
544.48	149.79
544.65	159.16
544.82	191.92
544.99	121.71
545.16	149.79
545.32	175.54
545.49	177.88
545.66	159.16
545.83	105.32
546.00	105.32
546.16	149.79
546.33	105.32
546.50	210.65
546.67	107.66
546.83	124.05
547.00	93.62
547.17	119.37
547.34	91.28
547.50	149.79
547.67	81.92
547.84	74.90
548.00	95.96
548.17	110.01
548.34	128.73
548.51	110.01
548.67	135.75
548.84	102.98
549.01	138.09
549.18	154.48
549.34	86.60
549.51	131.07
549.68	149.79
549.84	159.16
550.01	187.24
550.18	194.26
550.34	112.35
550.51	93.62
550.68	138.09
550.84	154.48
551.01	79.58
551.18	126.39
551.34	93.62
551.51	161.50
551.68	175.54
551.84	124.05
552.01	152.13
552.18	149.79
552.34	95.96
552.51	156.82
552.68	149.79
552.84	124.05
553.01	131.07
553.18	128.73
553.34	138.09
553.51	119.37
553.67	121.71
553.84	154.48
554.01	140.43
554.17	262.14
554.34	107.66
554.51	128.73
554.67	100.64
554.84	159.16
555.00	154.48
555.17	194.26
555.33	194.26
555.50	175.54
555.67	231.71
555.83	175.54
556.00	177.88
556.16	145.11
556.33	138.09
556.50	135.75
556.66	152.13
556.83	81.92
556.99	149.79
557.16	84.26
557.32	98.30
557.49	112.35
557.65	110.01
557.82	140.43
557.98	51.49
558.15	128.73
558.32	140.43
558.48	142.77
558.65	168.52
558.81	187.24
558.98	98.30
559.14	79.58
559.31	86.60
559.47	124.05
559.64	154.48
559.80	121.71
559.97	154.48
560.13	180.22
560.30	107.66
560.46	175.54
560.63	119.37
560.79	149.79
560.96	205.97
561.12	114.69
561.29	112.35
561.45	177.88
561.61	149.79
561.78	170.86
561.94	152.13
562.11	107.66
562.27	175.54
562.44	187.24
562.60	114.69
562.77	168.52
562.93	173.20
563.10	161.50
563.26	138.09
563.42	168.52
563.59	222.35
563.75	166.18
563.92	180.22
564.08	79.58
564.24	173.20
564.41	142.77
564.57	166.18
564.74	145.11
564.90	84.26
565.07	91.28
565.23	112.35
565.39	140.43
565.56	203.63
565.72	107.66
565.88	163.84
566.05	133.41
566.21	107.66
566.38	98.30
566.54	182.56
566.70	121.71
566.87	102.98
567.03	191.92
567.19	156.82
567.36	145.11
567.52	168.52
567.68	74.90
567.85	175.54
568.01	93.62
568.17	154.48
568.34	161.50
568.50	145.11
568.66	121.71
568.83	133.41
568.99	140.43
569.15	37.45
569.32	147.45
569.48	124.05
569.64	184.90
569.81	138.09
569.97	119.37
570.13	180.22
570.30	98.30
570.46	88.94
570.62	102.98
570.78	145.11
570.95	133.41
571.11	81.92
571.27	124.05
571.43	210.65
571.60	142.77
571.76	74.90
571.92	198.95
572.09	98.30
572.25	126.39
572.41	88.94
572.57	98.30
572.74	63.19
572.90	91.28
573.06	100.64
573.22	60.85
573.38	133.41
573.55	84.26
573.71	72.56
573.87	145.11
574.03	98.30
574.20	95.96
574.36	117.03
574.52	138.09
574.68	105.32
574.84	91.28
575.01	91.28
575.17	227.03
575.33	166.18
575.49	133.41
575.65	145.11
575.82	175.54
575.98	189.58
576.14	187.24
576.30	145.11
576.46	173.20
576.62	124.05
576.79	117.03
576.95	194.26
577.11	124.05
577.27	145.11
577.43	77.24
577.59	175.54
577.75	72.56
577.92	131.07
578.08	203.63
578.24	91.28
578.40	100.64
578.56	175.54
578.72	142.77
578.88	149.79
579.04	187.24
579.21	67.88
579.37	110.01
579.53	60.85
579.69	67.88
579.85	145.11
580.01	133.41
580.17	74.90
580.33	102.98
580.49	100.64
580.65	131.07
580.82	152.13
580.98	93.62
581.14	140.43
581.30	149.79
581.46	124.05
581.62	189.58
581.78	131.07
581.94	138.09
582.10	119.37
582.26	110.01
582.42	81.92
582.58	72.56
582.74	105.32
582.90	147.45
583.06	152.13
583.22	60.85
583.38	128.73
583.54	196.60
583.70	98.30
583.86	135.75
584.02	98.30
584.18	112.35
584.34	121.71
584.50	126.39
584.66	119.37
584.82	161.50
584.98	163.84
585.14	156.82
585.30	126.39
585.46	119.37
585.62	107.66
585.78	166.18
585.94	100.64
586.10	88.94
586.26	117.03
586.42	49.15
586.58	147.45
586.74	121.71
586.90	138.09
587.06	86.60
587.22	140.43
587.38	98.30
587.54	70.22
587.70	119.37
587.86	135.75
588.02	159.16
588.18	107.66
588.34	121.71
588.49	25.75
588.65	72.56
588.81	91.28
588.97	98.30
589.13	63.19
589.29	142.77
589.45	18.72
589.61	119.37
589.77	63.19
589.93	126.39
590.08	156.82
590.24	70.22
590.40	102.98
590.56	65.54
590.72	145.11
590.88	77.24
591.04	107.66
591.20	140.43
591.35	110.01
591.51	39.79
591.67	86.60
591.83	81.92
591.99	93.62
592.15	53.83
592.31	100.64
592.46	70.22
592.62	91.28
592.78	60.85
592.94	175.54
593.10	74.90
593.26	46.81
593.41	110.01
593.57	140.43
593.73	147.45
593.89	133.41
594.05	100.64
594.20	91.28
594.36	121.71
594.52	180.22
594.68	95.96
594.84	149.79
594.99	35.11
595.15	154.48
595.31	46.81
595.47	107.66
595.62	53.83
595.78	30.43
595.94	100.64
596.10	86.60
596.25	131.07
596.41	121.71
596.57	81.92
596.73	119.37
596.88	63.19
597.04	77.24
597.20	159.16
597.36	131.07
597.51	98.30
597.67	161.50
597.83	154.48
597.99	163.84
598.14	156.82
598.30	105.32
598.46	138.09
598.61	198.95
598.77	124.05
598.93	67.88
599.09	84.26
599.24	145.11
599.40	140.43
599.56	138.09
599.71	126.39
599.87	140.43
600.03	117.03
600.18	114.69
600.34	102.98
600.50	91.28
600.65	112.35
600.81	74.90
600.97	159.16
601.12	121.71
601.28	25.75
601.44	74.90
601.59	152.13
601.75	126.39
601.91	79.58
602.06	100.64
602.22	131.07
602.37	56.17
602.53	79.58
602.69	107.66
602.84	121.71
603.00	112.35
603.16	93.62
603.31	161.50
603.47	98.30
603.62	95.96
603.78	149.79
603.94	91.28
604.09	88.94
604.25	93.62
604.40	133.41
604.56	100.64
604.71	163.84
604.87	117.03
605.03	58.51
605.18	95.96
605.34	88.94
605.49	201.29
605.65	126.39
605.80	145.11
605.96	95.96
606.12	42.13
606.27	107.66
606.43	161.50
606.58	119.37
606.74	152.13
606.89	93.62
607.05	72.56
607.20	100.64
607.36	147.45
607.51	121.71
607.67	74.90
607.82	152.13
607.98	86.60
608.13	119.37
608.29	30.43
608.44	117.03
608.60	145.11
608.75	119.37
608.91	84.26
609.06	121.71
609.22	110.01
609.37	107.66
609.53	44.47
609.68	102.98
609.84	128.73
609.99	124.05
610.15	86.60
610.30	152.13
610.46	156.82
610.61	112.35
610.76	93.62
610.92	100.64
611.07	53.83
611.23	105.32
611.38	100.64
611.54	86.60
611.69	114.69
611.84	105.32
612.00	51.49
612.15	93.62
612.31	159.16
612.46	142.77
612.62	119.37
612.77	201.29
612.92	121.71
613.08	105.32
613.23	112.35
613.39	32.77
613.54	119.37
613.69	84.26
613.85	149.79
614.00	102.98
614.15	142.77
614.31	65.54
614.46	102.98
614.62	79.58
614.77	84.26
614.92	65.54
615.08	84.26
615.23	138.09
615.38	112.35
615.54	152.13
615.69	102.98
615.84	30.43
616.00	58.51
616.15	138.09
616.30	180.22
616.46	51.49
616.61	58.51
616.76	70.22
616.92	98.30
617.07	140.43
617.22	81.92
617.37	70.22
617.53	84.26
617.68	67.88
617.83	77.24
617.99	147.45
618.14	18.72
618.29	28.09
618.45	79.58
618.60	126.39
618.75	147.45
618.90	194.26
619.06	46.81
619.21	44.47
619.36	189.58
619.51	170.86
619.67	110.01
619.82	107.66
619.97	105.32
620.12	126.39
620.28	124.05
620.43	107.66
620.58	112.35
620.73	98.30
620.89	56.17
621.04	86.60
621.19	133.41
621.34	93.62
621.49	56.17
621.65	112.35
621.80	110.01
621.95	23.41
622.10	86.60
622.25	72.56
622.41	107.66
622.56	126.39
622.71	107.66
622.86	60.85
623.01	21.06
623.16	98.30
623.32	60.85
623.47	77.24
623.62	201.29
623.77	81.92
623.92	91.28
624.07	56.17
624.23	93.62
624.38	86.60
624.53	105.32
624.68	86.60
624.83	86.60
624.98	159.16
625.13	105.32
625.29	173.20
625.44	133.41
625.59	2.34
625.74	91.28
625.89	114.69
626.04	74.90
626.19	114.69
626.34	91.28
626.49	25.75
626.65	72.56
626.80	84.26
626.95	65.54
627.10	105.32
627.25	102.98
627.40	58.51
627.55	51.49
627.70	67.88
627.85	79.58
628.00	102.98
628.15	91.28
628.30	77.24
628.45	70.22
628.60	105.32
628.76	93.62
628.91	84.26
629.06	95.96
629.21	110.01
629.36	84.26
629.51	79.58
629.66	156.82
629.81	70.22
629.96	77.24
630.11	95.96
630.26	37.45
630.41	79.58
630.56	95.96
630.71	105.32
630.86	51.49
631.01	156.82
631.16	56.17
631.31	189.58
631.46	65.54
631.61	77.24
631.76	81.92
631.91	58.51
632.06	95.96
632.21	128.73
632.36	121.71
632.51	70.22
632.66	98.30
632.81	95.96
632.96	107.66
633.10	72.56
633.25	86.60
633.40	98.30
633.55	25.75
633.70	30.43
633.85	140.43
634.00	35.11
634.15	86.60
634.30	121.71
634.45	70.22
634.60	117.03
634.75	105.32
634.90	74.90
635.05	177.88
635.19	117.03
635.34	100.64
635.49	70.22
635.64	28.09
635.79	72.56
635.94	46.81
636.09	102.98
636.24	72.56
636.39	88.94
636.53	70.22
636.68	39.79
636.83	86.60
636.98	11.70
637.13	81.92
637.28	42.13
637.43	65.54
637.57	88.94
637.72	114.69
637.87	124.05
638.02	107.66
638.17	35.11
638.32	53.83
638.46	133.41
638.61	114.69
638.76	74.90
638.91	32.77
639.06	112.35
639.20	133.41
639.35	138.09
639.50	77.24
639.65	81.92
639.80	98.30
639.94	121.71
640.09	84.26
640.24	58.51
640.39	44.47
640.54	14.04
640.68	138.09
640.83	39.79
640.98	72.56
641.13	105.32
641.27	135.75
641.42	121.71
641.57	102.98
641.72	107.66
641.86	37.45
642.01	98.30
642.16	35.11
642.31	142.77
642.45	100.64
642.60	140.43
642.75	98.30
642.90	86.60
643.04	37.45
643.19	86.60
643.34	63.19
643.48	0.00
643.63	49.15
643.78	77.24
643.93	63.19
644.07	65.54
644.22	131.07
644.37	67.88
644.51	84.26
644.66	11.70
644.81	140.43
644.95	152.13
645.10	93.62
645.25	81.92
645.39	67.88
645.54	49.15
645.69	86.60
645.83	25.75
645.98	74.90
646.13	16.38
646.27	105.32
646.42	81.92
646.57	86.60
646.71	42.13
646.86	117.03
647.00	102.98
647.15	79.58
647.30	77.24
647.44	70.22
647.59	39.79
647.74	49.15
647.88	25.75
648.03	0.00
648.17	79.58
648.32	100.64
648.47	95.96
648.61	44.47
648.76	70.22
648.90	152.13
649.05	77.24
649.20	65.54
649.34	95.96
649.49	84.26
649.63	79.58
649.78	114.69
649.92	81.92
650.07	60.85
650.21	86.60
650.36	84.26
650.51	138.09
650.65	86.60
650.80	39.79
650.94	72.56
651.09	14.04
651.23	56.17
651.38	37.45
651.52	72.56
651.67	60.85
651.81	81.92
651.96	74.90
652.10	14.04
652.25	77.24
652.39	121.71
652.54	21.06
652.68	114.69
652.83	25.75
652.97	88.94
653.12	102.98
653.26	117.03
653.41	107.66
653.55	140.43
653.70	67.88
653.84	114.69
653.99	86.60
654.13	60.85
654.27	114.69
654.42	49.15
654.56	102.98
654.71	88.94
654.85	67.88
655.00	126.39
655.14	63.19
655.29	42.13
655.43	86.60
655.57	100.64
655.72	119.37
655.86	107.66
656.01	2.34
656.15	65.54
656.30	105.32
656.44	105.32
656.58	32.77
656.73	72.56
656.87	63.19
657.01	72.56
657.16	72.56
657.30	77.24
657.45	53.83
657.59	98.30
657.73	100.64
657.88	51.49
658.02	117.03
658.16	30.43
658.31	21.06
658.45	126.39
658.60	72.56
658.74	131.07
658.88	196.60
659.03	88.94
659.17	93.62
659.31	110.01
659.46	140.43
659.60	114.69
659.74	74.90
659.89	156.82
660.03	37.45
660.17	100.64
660.32	100.64
660.46	91.28
660.60	182.56
660.74	131.07
660.89	49.15
661.03	51.49
661.17	72.56
661.32	58.51
661.46	105.32
661.60	53.83
661.74	46.81
661.89	88.94
662.03	42.13
662.17	126.39
662.31	149.79
662.46	110.01
662.60	86.60
662.74	51.49
662.88	110.01
663.03	67.88
663.17	79.58
663.31	121.71
663.45	110.01
663.60	79.58
663.74	63.19
663.88	74.90
664.02	32.77
664.17	56.17
664.31	112.35
664.45	35.11
664.59	56.17
664.73	72.56
664.88	114.69
665.02	114.69
665.16	74.90
665.30	74.90
665.44	91.28
665.59	51.49
665.73	91.28
665.87	121.71
666.01	81.92
666.15	63.19
666.29	51.49
666.44	126.39
666.58	100.64
666.72	74.90
666.86	77.24
667.00	63.19
667.14	110.01
667.28	37.45
667.43	117.03
667.57	56.17
667.71	53.83
667.85	91.28
667.99	88.94
668.13	42.13
668.27	91.28
668.41	42.13
668.56	152.13
668.70	74.90
668.84	63.19
668.98	51.49
669.12	72.56
669.26	102.98
669.40	70.22
669.54	30.43
669.68	117.03
669.82	18.72
669.96	42.13
670.10	51.49
670.25	0.00
670.39	119.37
670.53	14.04
670.67	95.96
670.81	81.92
670.95	39.79
671.09	51.49
671.23	51.49
671.37	70.22
671.51	0.00
671.65	77.24
671.79	140.43
671.93	65.54
672.07	58.51
672.21	30.43
672.35	131.07
672.49	58.51
672.63	9.36
672.77	56.17
672.91	74.90
673.05	100.64
673.19	86.60
673.33	67.88
673.47	121.71
673.61	51.49
673.75	53.83
673.89	107.66
674.03	100.64
674.17	88.94
674.31	110.01
674.45	86.60
674.59	102.98
674.73	84.26
674.87	16.38
675.01	53.83
675.15	44.47
675.29	74.90
675.43	0.00
675.56	142.77
675.70	105.32
675.84	51.49
675.98	100.64
676.12	53.83
676.26	77.24
676.40	46.81
676.54	86.60
676.68	67.88
676.82	110.01
676.96	74.90
677.10	88.94
677.23	140.43
677.37	9.36
677.51	0.00
677.65	4.68
677.79	11.70
677.93	105.32
678.07	51.49
678.21	44.47
678.34	77.24
678.48	56.17
678.62	88.94
678.76	74.90
678.90	79.58
679.04	53.83
679.18	18.72
679.31	21.06
679.45	7.02
679.59	81.92
679.73	98.30
679.87	91.28
680.00	88.94
680.14	46.81
680.28	51.49
680.42	44.47
680.56	39.79
680.70	49.15
680.83	46.81
680.97	0.00
681.11	35.11
681.25	23.41
681.39	88.94
681.52	93.62
681.66	37.45
681.80	30.43
681.94	74.90
682.07	58.51
682.21	56.17
682.35	72.56
682.49	58.51
682.62	74.90
682.76	18.72
682.90	0.00
683.04	93.62
683.17	67.88
683.31	84.26
683.45	14.04
683.59	88.94
683.72	72.56
683.86	16.38
684.00	44.47
684.13	21.06
684.27	25.75
684.41	21.06
684.55	79.58
684.68	28.09
684.82	9.36
684.96	14.04
685.09	60.85
685.23	67.88
685.37	37.45
685.50	107.66
685.64	58.51
685.78	67.88
685.91	110.01
686.05	51.49
686.19	70.22
686.32	0.00
686.46	67.88
686.60	93.62
686.73	25.75
686.87	114.69
687.01	37.45
687.14	4.68
687.28	23.41
687.42	0.00
687.55	0.00
687.69	44.47
687.82	35.11
687.96	131.07
688.10	0.00
688.23	102.98
688.37	51.49
688.50	23.41
688.64	14.04
688.78	152.13
688.91	30.43
689.05	53.83
689.18	44.47
689.32	56.17
689.46	46.81
689.59	32.77
689.73	14.04
689.86	63.19
690.00	60.85
690.13	72.56
690.27	88.94
690.41	37.45
690.54	32.77
690.68	60.85
690.81	14.04
690.95	16.38
691.08	0.00
691.22	93.62
691.35	51.49
691.49	0.00
691.62	46.81
691.76	63.19
691.89	11.70
692.03	95.96
692.16	51.49
692.30	81.92
692.43	70.22
692.57	65.54
692.70	0.00
692.84	49.15
692.97	0.00
693.11	21.06
693.24	58.51
693.38	44.47
693.51	70.22
693.65	46.81
693.78	28.09
693.92	46.81
694.05	21.06
694.19	37.45
694.32	46.81
694.45	100.64
694.59	74.90
694.72	112.35
694.86	37.45
694.99	77.24
695.13	0.00
695.26	25.75
695.39	44.47
695.53	79.58
695.66	93.62
695.80	65.54
695.93	9.36
696.07	28.09
696.20	105.32
696.33	63.19
696.47	25.75
696.60	49.15
696.73	21.06
696.87	28.09
697.00	79.58
697.14	0.00
697.27	58.51
697.40	65.54
697.54	95.96
697.67	46.81
697.80	14.04
697.94	0.00
698.07	42.13
698.21	65.54
698.34	0.00
698.47	46.81
698.61	21.06
698.74	67.88
698.87	23.41
699.01	42.13
699.14	28.09
699.27	18.72
699.40	60.85
699.54	0.00
699.67	49.15
699.80	0.00
699.94	102.98
700.07	84.26
700.20	35.11
700.34	110.01
700.47	49.15
700.60	0.00
700.73	74.90
700.87	18.72
701.00	39.79
701.13	49.15
701.26	0.00
701.40	0.00
701.53	60.85
701.66	30.43
701.79	67.88
701.93	60.85
702.06	21.06
702.19	77.24
702.32	72.56
702.46	86.60
702.59	2.34
702.72	44.47
702.85	81.92
702.99	37.45
703.12	86.60
703.25	79.58
703.38	21.06
703.51	28.09
703.65	44.47
703.78	56.17
703.91	0.00
704.04	21.06
704.17	0.00
704.31	30.43
704.44	60.85
704.57	23.41
704.70	14.04
704.83	46.81
704.96	35.11
705.10	28.09
705.23	72.56
>>>>>End Processed Spectral Data<<<<<
