SpectraSuite Data File
++++++++++++++++++++++++++++++++++++
Date: Fri Oct 04 12:13:36 GMT-05:00 2013
User: price-jones
Dark Spectrum Present: No
Reference Spectrum Present: No
Number of Sampled Component Spectra: 1
Spectrometers: USB2+H05261
Integration Time (usec): 10000 (USB2+H05261)
Spectra Averaged: 1 (USB2+H05261)
Boxcar Smoothing: 0 (USB2+H05261)
Correct for Electrical Dark: No (USB2+H05261)
Strobe/Lamp Enabled: No (USB2+H05261)
Correct for Detector Non-linearity: No (USB2+H05261)
Correct for Stray Light: No (USB2+H05261)
Number of Pixels in Processed Spectrum: 2048
>>>>>Begin Processed Spectral Data<<<<<
365.73	14.04
365.92	14.04
366.12	14.04
366.32	0.00
366.52	0.00
366.72	0.00
366.91	0.00
367.11	0.00
367.31	0.00
367.51	0.00
367.70	0.00
367.90	0.00
368.10	0.00
368.30	0.00
368.49	0.00
368.69	0.00
368.89	0.00
369.09	0.00
369.28	0.00
369.48	0.00
369.68	0.00
369.87	0.00
370.07	0.00
370.27	0.00
370.47	0.00
370.66	0.00
370.86	0.00
371.06	0.00
371.25	0.00
371.45	0.00
371.65	0.00
371.84	28.09
372.04	0.00
372.24	0.00
372.44	0.00
372.63	46.81
372.83	4.68
373.03	56.17
373.22	0.00
373.42	0.00
373.62	0.00
373.81	7.02
374.01	65.54
374.21	53.83
374.40	28.09
374.60	0.00
374.79	0.00
374.99	88.94
375.19	23.41
375.38	51.49
375.58	11.70
375.78	18.72
375.97	51.49
376.17	39.79
376.37	0.00
376.56	28.09
376.76	28.09
376.95	23.41
377.15	32.77
377.35	70.22
377.54	0.00
377.74	51.49
377.93	56.17
378.13	46.81
378.33	63.19
378.52	0.00
378.72	0.00
378.91	70.22
379.11	0.00
379.31	44.47
379.50	2.34
379.70	65.54
379.89	37.45
380.09	0.00
380.28	28.09
380.48	0.00
380.68	0.00
380.87	11.70
381.07	58.51
381.26	11.70
381.46	0.00
381.65	0.00
381.85	0.00
382.04	56.17
382.24	0.00
382.43	51.49
382.63	53.83
382.83	0.00
383.02	86.60
383.22	11.70
383.41	77.24
383.61	65.54
383.80	7.02
384.00	18.72
384.19	25.75
384.39	0.00
384.58	0.00
384.78	0.00
384.97	0.00
385.17	0.00
385.36	11.70
385.56	0.00
385.75	65.54
385.95	14.04
386.14	0.00
386.34	0.00
386.53	9.36
386.72	18.72
386.92	32.77
387.11	0.00
387.31	70.22
387.50	37.45
387.70	51.49
387.89	44.47
388.09	119.37
388.28	44.47
388.48	0.00
388.67	25.75
388.86	46.81
389.06	51.49
389.25	28.09
389.45	2.34
389.64	32.77
389.84	16.38
390.03	14.04
390.22	0.00
390.42	0.00
390.61	23.41
390.81	0.00
391.00	0.00
391.19	35.11
391.39	32.77
391.58	42.13
391.78	21.06
391.97	0.00
392.16	35.11
392.36	44.47
392.55	39.79
392.75	65.54
392.94	16.38
393.13	25.75
393.33	0.00
393.52	0.00
393.71	95.96
393.91	88.94
394.10	25.75
394.29	0.00
394.49	4.68
394.68	74.90
394.88	77.24
395.07	9.36
395.26	67.88
395.46	0.00
395.65	0.00
395.84	14.04
396.04	7.02
396.23	18.72
396.42	0.00
396.62	7.02
396.81	49.15
397.00	16.38
397.19	79.58
397.39	32.77
397.58	46.81
397.77	14.04
397.97	35.11
398.16	30.43
398.35	74.90
398.55	25.75
398.74	39.79
398.93	53.83
399.12	0.00
399.32	63.19
399.51	0.00
399.70	0.00
399.90	23.41
400.09	35.11
400.28	42.13
400.47	35.11
400.67	0.00
400.86	7.02
401.05	117.03
401.24	21.06
401.44	18.72
401.63	16.38
401.82	0.00
402.01	2.34
402.21	2.34
402.40	44.47
402.59	39.79
402.78	7.02
402.97	28.09
403.17	0.00
403.36	18.72
403.55	63.19
403.74	35.11
403.93	14.04
404.13	84.26
404.32	39.79
404.51	77.24
404.70	18.72
404.89	49.15
405.09	86.60
405.28	2.34
405.47	23.41
405.66	63.19
405.85	74.90
406.05	46.81
406.24	7.02
406.43	60.85
406.62	0.00
406.81	79.58
407.00	35.11
407.20	86.60
407.39	79.58
407.58	0.00
407.77	21.06
407.96	21.06
408.15	42.13
408.34	4.68
408.54	32.77
408.73	39.79
408.92	51.49
409.11	0.00
409.30	51.49
409.49	0.00
409.68	44.47
409.87	4.68
410.07	35.11
410.26	21.06
410.45	2.34
410.64	2.34
410.83	11.70
411.02	72.56
411.21	0.00
411.40	67.88
411.59	44.47
411.78	0.00
411.98	35.11
412.17	58.51
412.36	44.47
412.55	105.32
412.74	42.13
412.93	32.77
413.12	53.83
413.31	32.77
413.50	28.09
413.69	39.79
413.88	16.38
414.07	70.22
414.26	7.02
414.45	0.00
414.64	56.17
414.83	72.56
415.02	35.11
415.22	7.02
415.41	74.90
415.60	65.54
415.79	72.56
415.98	18.72
416.17	46.81
416.36	88.94
416.55	14.04
416.74	14.04
416.93	32.77
417.12	51.49
417.31	42.13
417.50	51.49
417.69	4.68
417.88	56.17
418.07	16.38
418.26	7.02
418.45	0.00
418.64	74.90
418.83	18.72
419.02	56.17
419.21	53.83
419.39	32.77
419.58	0.00
419.77	39.79
419.96	25.75
420.15	49.15
420.34	53.83
420.53	0.00
420.72	53.83
420.91	135.75
421.10	25.75
421.29	42.13
421.48	63.19
421.67	21.06
421.86	0.00
422.05	51.49
422.24	21.06
422.43	0.00
422.61	2.34
422.80	93.62
422.99	11.70
423.18	9.36
423.37	0.00
423.56	93.62
423.75	72.56
423.94	37.45
424.13	53.83
424.32	30.43
424.50	95.96
424.69	35.11
424.88	51.49
425.07	119.37
425.26	88.94
425.45	35.11
425.64	35.11
425.83	0.00
426.01	70.22
426.20	14.04
426.39	72.56
426.58	30.43
426.77	11.70
426.96	37.45
427.15	32.77
427.33	60.85
427.52	35.11
427.71	93.62
427.90	35.11
428.09	9.36
428.28	18.72
428.46	0.00
428.65	39.79
428.84	7.02
429.03	42.13
429.22	4.68
429.40	88.94
429.59	25.75
429.78	16.38
429.97	65.54
430.16	21.06
430.34	21.06
430.53	56.17
430.72	49.15
430.91	35.11
431.10	0.00
431.28	16.38
431.47	2.34
431.66	18.72
431.85	30.43
432.03	51.49
432.22	56.17
432.41	28.09
432.60	28.09
432.79	2.34
432.97	84.26
433.16	18.72
433.35	49.15
433.54	30.43
433.72	46.81
433.91	49.15
434.10	128.73
434.28	21.06
434.47	35.11
434.66	9.36
434.85	84.26
435.03	30.43
435.22	18.72
435.41	105.32
435.59	0.00
435.78	0.00
435.97	84.26
436.16	0.00
436.34	0.00
436.53	21.06
436.72	37.45
436.90	30.43
437.09	56.17
437.28	46.81
437.46	46.81
437.65	30.43
437.84	65.54
438.02	107.66
438.21	56.17
438.40	81.92
438.58	105.32
438.77	16.38
438.96	46.81
439.14	79.58
439.33	86.60
439.52	0.00
439.70	67.88
439.89	63.19
440.08	4.68
440.26	0.00
440.45	81.92
440.63	98.30
440.82	18.72
441.01	67.88
441.19	49.15
441.38	0.00
441.57	128.73
441.75	105.32
441.94	98.30
442.12	37.45
442.31	18.72
442.50	46.81
442.68	81.92
442.87	70.22
443.05	35.11
443.24	110.01
443.43	110.01
443.61	16.38
443.80	25.75
443.98	72.56
444.17	49.15
444.35	32.77
444.54	84.26
444.73	32.77
444.91	72.56
445.10	28.09
445.28	138.09
445.47	0.00
445.65	42.13
445.84	72.56
446.02	58.51
446.21	88.94
446.39	53.83
446.58	46.81
446.77	0.00
446.95	0.00
447.14	58.51
447.32	77.24
447.51	72.56
447.69	60.85
447.88	28.09
448.06	30.43
448.25	86.60
448.43	72.56
448.62	28.09
448.80	0.00
448.99	42.13
449.17	42.13
449.36	51.49
449.54	93.62
449.73	16.38
449.91	117.03
450.10	46.81
450.28	46.81
450.46	28.09
450.65	49.15
450.83	93.62
451.02	74.90
451.20	51.49
451.39	70.22
451.57	30.43
451.76	0.00
451.94	77.24
452.13	63.19
452.31	72.56
452.49	49.15
452.68	37.45
452.86	72.56
453.05	126.39
453.23	42.13
453.42	93.62
453.60	16.38
453.78	95.96
453.97	102.98
454.15	35.11
454.34	81.92
454.52	110.01
454.70	53.83
454.89	58.51
455.07	4.68
455.26	44.47
455.44	102.98
455.62	74.90
455.81	16.38
455.99	28.09
456.17	28.09
456.36	46.81
456.54	60.85
456.73	77.24
456.91	67.88
457.09	77.24
457.28	51.49
457.46	74.90
457.64	65.54
457.83	28.09
458.01	0.00
458.19	14.04
458.38	21.06
458.56	4.68
458.74	11.70
458.93	0.00
459.11	9.36
459.29	23.41
459.48	128.73
459.66	11.70
459.84	110.01
460.03	140.43
460.21	0.00
460.39	37.45
460.57	93.62
460.76	32.77
460.94	0.00
461.12	138.09
461.31	74.90
461.49	18.72
461.67	11.70
461.85	93.62
462.04	105.32
462.22	126.39
462.40	56.17
462.59	0.00
462.77	58.51
462.95	67.88
463.13	35.11
463.32	60.85
463.50	28.09
463.68	0.00
463.86	128.73
464.05	44.47
464.23	112.35
464.41	60.85
464.59	2.34
464.78	51.49
464.96	37.45
465.14	28.09
465.32	0.00
465.50	70.22
465.69	81.92
465.87	105.32
466.05	30.43
466.23	86.60
466.41	60.85
466.60	100.64
466.78	53.83
466.96	67.88
467.14	93.62
467.32	74.90
467.51	65.54
467.69	102.98
467.87	25.75
468.05	21.06
468.23	67.88
468.41	25.75
468.60	74.90
468.78	79.58
468.96	74.90
469.14	65.54
469.32	67.88
469.50	0.00
469.69	2.34
469.87	39.79
470.05	0.00
470.23	30.43
470.41	32.77
470.59	56.17
470.77	28.09
470.95	21.06
471.14	177.88
471.32	110.01
471.50	46.81
471.68	37.45
471.86	42.13
472.04	72.56
472.22	114.69
472.40	53.83
472.58	84.26
472.77	56.17
472.95	30.43
473.13	39.79
473.31	70.22
473.49	44.47
473.67	65.54
473.85	77.24
474.03	51.49
474.21	44.47
474.39	63.19
474.57	58.51
474.75	74.90
474.93	114.69
475.12	70.22
475.30	2.34
475.48	84.26
475.66	42.13
475.84	42.13
476.02	39.79
476.20	81.92
476.38	119.37
476.56	112.35
476.74	88.94
476.92	23.41
477.10	84.26
477.28	39.79
477.46	14.04
477.64	60.85
477.82	65.54
478.00	72.56
478.18	67.88
478.36	0.00
478.54	77.24
478.72	88.94
478.90	91.28
479.08	9.36
479.26	14.04
479.44	77.24
479.62	91.28
479.80	11.70
479.98	56.17
480.16	46.81
480.34	65.54
480.52	67.88
480.70	11.70
480.88	58.51
481.06	107.66
481.24	138.09
481.41	14.04
481.59	135.75
481.77	88.94
481.95	72.56
482.13	56.17
482.31	65.54
482.49	95.96
482.67	67.88
482.85	49.15
483.03	56.17
483.21	114.69
483.39	79.58
483.57	25.75
483.74	74.90
483.92	53.83
484.10	67.88
484.28	37.45
484.46	67.88
484.64	53.83
484.82	100.64
485.00	32.77
485.18	46.81
485.35	70.22
485.53	58.51
485.71	37.45
485.89	84.26
486.07	39.79
486.25	100.64
486.43	58.51
486.61	44.47
486.78	30.43
486.96	112.35
487.14	44.47
487.32	100.64
487.50	67.88
487.68	126.39
487.85	46.81
488.03	51.49
488.21	18.72
488.39	9.36
488.57	67.88
488.75	112.35
488.92	81.92
489.10	25.75
489.28	88.94
489.46	63.19
489.64	58.51
489.81	79.58
489.99	9.36
490.17	56.17
490.35	74.90
490.53	25.75
490.70	81.92
490.88	39.79
491.06	91.28
491.24	187.24
491.41	56.17
491.59	18.72
491.77	86.60
491.95	84.26
492.13	67.88
492.30	63.19
492.48	107.66
492.66	88.94
492.84	124.05
493.01	100.64
493.19	32.77
493.37	105.32
493.54	42.13
493.72	25.75
493.90	81.92
494.08	77.24
494.25	67.88
494.43	131.07
494.61	95.96
494.79	105.32
494.96	77.24
495.14	88.94
495.32	65.54
495.49	58.51
495.67	72.56
495.85	100.64
496.02	42.13
496.20	77.24
496.38	88.94
496.55	93.62
496.73	91.28
496.91	95.96
497.09	46.81
497.26	60.85
497.44	70.22
497.62	121.71
497.79	51.49
497.97	117.03
498.14	72.56
498.32	58.51
498.50	0.00
498.67	93.62
498.85	60.85
499.03	131.07
499.20	81.92
499.38	84.26
499.56	70.22
499.73	77.24
499.91	14.04
500.08	39.79
500.26	133.41
500.44	56.17
500.61	56.17
500.79	102.98
500.97	86.60
501.14	121.71
501.32	81.92
501.49	77.24
501.67	93.62
501.84	21.06
502.02	65.54
502.20	126.39
502.37	84.26
502.55	133.41
502.72	30.43
502.90	147.45
503.07	95.96
503.25	98.30
503.43	60.85
503.60	16.38
503.78	44.47
503.95	142.77
504.13	7.02
504.30	65.54
504.48	91.28
504.65	110.01
504.83	79.58
505.01	77.24
505.18	112.35
505.36	112.35
505.53	49.15
505.71	74.90
505.88	81.92
506.06	74.90
506.23	88.94
506.41	117.03
506.58	74.90
506.76	107.66
506.93	7.02
507.11	100.64
507.28	91.28
507.46	56.17
507.63	79.58
507.81	28.09
507.98	138.09
508.16	60.85
508.33	112.35
508.50	100.64
508.68	42.13
508.85	81.92
509.03	105.32
509.20	107.66
509.38	133.41
509.55	77.24
509.73	184.90
509.90	100.64
510.08	39.79
510.25	65.54
510.42	70.22
510.60	32.77
510.77	49.15
510.95	112.35
511.12	56.17
511.30	168.52
511.47	110.01
511.64	86.60
511.82	74.90
511.99	72.56
512.17	23.41
512.34	63.19
512.51	74.90
512.69	95.96
512.86	60.85
513.04	114.69
513.21	74.90
513.38	124.05
513.56	93.62
513.73	63.19
513.90	117.03
514.08	14.04
514.25	173.20
514.43	23.41
514.60	152.13
514.77	138.09
514.95	105.32
515.12	0.00
515.29	74.90
515.47	126.39
515.64	140.43
515.81	67.88
515.99	98.30
516.16	88.94
516.33	86.60
516.51	138.09
516.68	98.30
516.85	79.58
517.03	98.30
517.20	98.30
517.37	84.26
517.54	110.01
517.72	53.83
517.89	79.58
518.06	119.37
518.24	117.03
518.41	114.69
518.58	7.02
518.75	0.00
518.93	86.60
519.10	159.16
519.27	72.56
519.45	51.49
519.62	154.48
519.79	121.71
519.96	147.45
520.14	95.96
520.31	119.37
520.48	44.47
520.65	98.30
520.83	95.96
521.00	107.66
521.17	131.07
521.34	93.62
521.52	145.11
521.69	56.17
521.86	93.62
522.03	70.22
522.20	58.51
522.38	72.56
522.55	105.32
522.72	102.98
522.89	39.79
523.07	102.98
523.24	84.26
523.41	91.28
523.58	77.24
523.75	39.79
523.92	28.09
524.10	49.15
524.27	138.09
524.44	72.56
524.61	65.54
524.78	42.13
524.96	46.81
525.13	86.60
525.30	56.17
525.47	145.11
525.64	142.77
525.81	35.11
525.98	112.35
526.16	114.69
526.33	117.03
526.50	149.79
526.67	110.01
526.84	117.03
527.01	67.88
527.18	88.94
527.36	32.77
527.53	88.94
527.70	105.32
527.87	0.00
528.04	39.79
528.21	37.45
528.38	42.13
528.55	49.15
528.72	110.01
528.89	156.82
529.07	30.43
529.24	77.24
529.41	95.96
529.58	81.92
529.75	42.13
529.92	114.69
530.09	100.64
530.26	98.30
530.43	138.09
530.60	88.94
530.77	63.19
530.94	95.96
531.11	56.17
531.28	191.92
531.46	49.15
531.63	140.43
531.80	30.43
531.97	95.96
532.14	126.39
532.31	53.83
532.48	0.00
532.65	102.98
532.82	107.66
532.99	107.66
533.16	126.39
533.33	121.71
533.50	121.71
533.67	72.56
533.84	81.92
534.01	102.98
534.18	131.07
534.35	44.47
534.52	81.92
534.69	70.22
534.86	86.60
535.03	86.60
535.20	53.83
535.37	114.69
535.54	53.83
535.71	88.94
535.88	126.39
536.05	58.51
536.22	88.94
536.38	4.68
536.55	124.05
536.72	117.03
536.89	114.69
537.06	72.56
537.23	161.50
537.40	107.66
537.57	63.19
537.74	91.28
537.91	88.94
538.08	112.35
538.25	102.98
538.42	0.00
538.59	35.11
538.75	93.62
538.92	100.64
539.09	102.98
539.26	81.92
539.43	70.22
539.60	18.72
539.77	37.45
539.94	53.83
540.11	105.32
540.28	42.13
540.44	35.11
540.61	135.75
540.78	79.58
540.95	70.22
541.12	79.58
541.29	91.28
541.46	21.06
541.62	58.51
541.79	77.24
541.96	70.22
542.13	86.60
542.30	28.09
542.47	121.71
542.63	138.09
542.80	133.41
542.97	84.26
543.14	32.77
543.31	95.96
543.48	100.64
543.64	112.35
543.81	91.28
543.98	72.56
544.15	65.54
544.32	100.64
544.48	128.73
544.65	131.07
544.82	95.96
544.99	81.92
545.16	42.13
545.32	84.26
545.49	74.90
545.66	121.71
545.83	135.75
546.00	147.45
546.16	70.22
546.33	91.28
546.50	93.62
546.67	65.54
546.83	72.56
547.00	93.62
547.17	60.85
547.34	114.69
547.50	67.88
547.67	124.05
547.84	102.98
548.00	110.01
548.17	112.35
548.34	173.20
548.51	88.94
548.67	81.92
548.84	98.30
549.01	58.51
549.18	124.05
549.34	112.35
549.51	58.51
549.68	100.64
549.84	79.58
550.01	112.35
550.18	110.01
550.34	112.35
550.51	91.28
550.68	44.47
550.84	23.41
551.01	35.11
551.18	91.28
551.34	0.00
551.51	117.03
551.68	72.56
551.84	117.03
552.01	117.03
552.18	51.49
552.34	149.79
552.51	98.30
552.68	107.66
552.84	35.11
553.01	7.02
553.18	110.01
553.34	107.66
553.51	133.41
553.67	128.73
553.84	86.60
554.01	91.28
554.17	72.56
554.34	56.17
554.51	63.19
554.67	37.45
554.84	42.13
555.00	42.13
555.17	81.92
555.33	91.28
555.50	110.01
555.67	110.01
555.83	98.30
556.00	110.01
556.16	142.77
556.33	110.01
556.50	112.35
556.66	105.32
556.83	46.81
556.99	58.51
557.16	91.28
557.32	65.54
557.49	114.69
557.65	58.51
557.82	56.17
557.98	79.58
558.15	147.45
558.32	28.09
558.48	86.60
558.65	23.41
558.81	9.36
558.98	117.03
559.14	11.70
559.31	128.73
559.47	77.24
559.64	74.90
559.80	93.62
559.97	65.54
560.13	119.37
560.30	95.96
560.46	46.81
560.63	215.33
560.79	44.47
560.96	67.88
561.12	133.41
561.29	110.01
561.45	119.37
561.61	74.90
561.78	86.60
561.94	63.19
562.11	72.56
562.27	93.62
562.44	46.81
562.60	30.43
562.77	28.09
562.93	95.96
563.10	42.13
563.26	84.26
563.42	95.96
563.59	135.75
563.75	46.81
563.92	107.66
564.08	81.92
564.24	32.77
564.41	0.00
564.57	79.58
564.74	67.88
564.90	112.35
565.07	102.98
565.23	105.32
565.39	49.15
565.56	51.49
565.72	65.54
565.88	67.88
566.05	121.71
566.21	44.47
566.38	70.22
566.54	77.24
566.70	102.98
566.87	135.75
567.03	91.28
567.19	56.17
567.36	124.05
567.52	0.00
567.68	81.92
567.85	65.54
568.01	149.79
568.17	42.13
568.34	107.66
568.50	110.01
568.66	32.77
568.83	147.45
568.99	86.60
569.15	98.30
569.32	102.98
569.48	91.28
569.64	140.43
569.81	95.96
569.97	93.62
570.13	67.88
570.30	107.66
570.46	60.85
570.62	42.13
570.78	95.96
570.95	51.49
571.11	58.51
571.27	79.58
571.43	58.51
571.60	72.56
571.76	84.26
571.92	81.92
572.09	86.60
572.25	56.17
572.41	56.17
572.57	44.47
572.74	74.90
572.90	93.62
573.06	58.51
573.22	9.36
573.38	67.88
573.55	39.79
573.71	0.00
573.87	110.01
574.03	49.15
574.20	42.13
574.36	60.85
574.52	44.47
574.68	105.32
574.84	117.03
575.01	56.17
575.17	84.26
575.33	0.00
575.49	88.94
575.65	110.01
575.82	107.66
575.98	154.48
576.14	95.96
576.30	86.60
576.46	117.03
576.62	39.79
576.79	39.79
576.95	9.36
577.11	105.32
577.27	60.85
577.43	88.94
577.59	102.98
577.75	35.11
577.92	32.77
578.08	88.94
578.24	88.94
578.40	49.15
578.56	63.19
578.72	112.35
578.88	65.54
579.04	198.95
579.21	0.00
579.37	21.06
579.53	0.00
579.69	88.94
579.85	100.64
580.01	112.35
580.17	60.85
580.33	60.85
580.49	51.49
580.65	91.28
580.82	49.15
580.98	126.39
581.14	93.62
581.30	65.54
581.46	77.24
581.62	135.75
581.78	51.49
581.94	114.69
582.10	44.47
582.26	81.92
582.42	126.39
582.58	56.17
582.74	49.15
582.90	72.56
583.06	65.54
583.22	23.41
583.38	95.96
583.54	112.35
583.70	70.22
583.86	145.11
584.02	95.96
584.18	100.64
584.34	70.22
584.50	70.22
584.66	46.81
584.82	65.54
584.98	77.24
585.14	88.94
585.30	121.71
585.46	0.00
585.62	28.09
585.78	56.17
585.94	81.92
586.10	173.20
586.26	74.90
586.42	49.15
586.58	105.32
586.74	16.38
586.90	142.77
587.06	46.81
587.22	56.17
587.38	9.36
587.54	65.54
587.70	51.49
587.86	86.60
588.02	145.11
588.18	14.04
588.34	112.35
588.49	72.56
588.65	168.52
588.81	74.90
588.97	81.92
589.13	98.30
589.29	84.26
589.45	114.69
589.61	37.45
589.77	44.47
589.93	93.62
590.08	124.05
590.24	100.64
590.40	56.17
590.56	65.54
590.72	81.92
590.88	147.45
591.04	77.24
591.20	42.13
591.35	58.51
591.51	100.64
591.67	102.98
591.83	63.19
591.99	49.15
592.15	100.64
592.31	74.90
592.46	133.41
592.62	77.24
592.78	128.73
592.94	53.83
593.10	70.22
593.26	77.24
593.41	95.96
593.57	100.64
593.73	112.35
593.89	35.11
594.05	67.88
594.20	112.35
594.36	72.56
594.52	53.83
594.68	23.41
594.84	117.03
594.99	74.90
595.15	81.92
595.31	98.30
595.47	145.11
595.62	39.79
595.78	46.81
595.94	79.58
596.10	56.17
596.25	95.96
596.41	53.83
596.57	110.01
596.73	0.00
596.88	95.96
597.04	21.06
597.20	39.79
597.36	88.94
597.51	39.79
597.67	46.81
597.83	32.77
597.99	60.85
598.14	25.75
598.30	98.30
598.46	23.41
598.61	70.22
598.77	74.90
598.93	67.88
599.09	77.24
599.24	72.56
599.40	14.04
599.56	0.00
599.71	58.51
599.87	133.41
600.03	93.62
600.18	46.81
600.34	53.83
600.50	30.43
600.65	39.79
600.81	91.28
600.97	70.22
601.12	84.26
601.28	81.92
601.44	79.58
601.59	53.83
601.75	51.49
601.91	37.45
602.06	95.96
602.22	14.04
602.37	79.58
602.53	42.13
602.69	84.26
602.84	58.51
603.00	84.26
603.16	37.45
603.31	138.09
603.47	49.15
603.62	28.09
603.78	53.83
603.94	102.98
604.09	84.26
604.25	77.24
604.40	42.13
604.56	28.09
604.71	35.11
604.87	79.58
605.03	79.58
605.18	74.90
605.34	72.56
605.49	0.00
605.65	70.22
605.80	53.83
605.96	21.06
606.12	0.00
606.27	0.00
606.43	102.98
606.58	77.24
606.74	79.58
606.89	4.68
607.05	35.11
607.20	65.54
607.36	95.96
607.51	23.41
607.67	23.41
607.82	67.88
607.98	65.54
608.13	51.49
608.29	107.66
608.44	63.19
608.60	102.98
608.75	154.48
608.91	51.49
609.06	100.64
609.22	9.36
609.37	88.94
609.53	14.04
609.68	107.66
609.84	84.26
609.99	100.64
610.15	46.81
610.30	58.51
610.46	70.22
610.61	37.45
610.76	58.51
610.92	51.49
611.07	133.41
611.23	37.45
611.38	39.79
611.54	72.56
611.69	49.15
611.84	81.92
612.00	30.43
612.15	63.19
612.31	0.00
612.46	67.88
612.62	18.72
612.77	46.81
612.92	74.90
613.08	114.69
613.23	77.24
613.39	72.56
613.54	70.22
613.69	49.15
613.85	18.72
614.00	117.03
614.15	42.13
614.31	107.66
614.46	74.90
614.62	161.50
614.77	149.79
614.92	91.28
615.08	142.77
615.23	110.01
615.38	16.38
615.54	42.13
615.69	147.45
615.84	95.96
616.00	44.47
616.15	107.66
616.30	112.35
616.46	88.94
616.61	88.94
616.76	60.85
616.92	131.07
617.07	105.32
617.22	46.81
617.37	60.85
617.53	32.77
617.68	58.51
617.83	67.88
617.99	107.66
618.14	161.50
618.29	135.75
618.45	72.56
618.60	11.70
618.75	46.81
618.90	14.04
619.06	65.54
619.21	42.13
619.36	95.96
619.51	121.71
619.67	44.47
619.82	56.17
619.97	46.81
620.12	110.01
620.28	11.70
620.43	7.02
620.58	60.85
620.73	65.54
620.89	53.83
621.04	98.30
621.19	49.15
621.34	21.06
621.49	112.35
621.65	39.79
621.80	60.85
621.95	140.43
622.10	114.69
622.25	88.94
622.41	46.81
622.56	201.29
622.71	25.75
622.86	0.00
623.01	51.49
623.16	53.83
623.32	0.00
623.47	70.22
623.62	23.41
623.77	46.81
623.92	77.24
624.07	79.58
624.23	74.90
624.38	67.88
624.53	39.79
624.68	0.00
624.83	53.83
624.98	56.17
625.13	51.49
625.29	74.90
625.44	42.13
625.59	74.90
625.74	140.43
625.89	91.28
626.04	72.56
626.19	65.54
626.34	0.00
626.49	44.47
626.65	0.00
626.80	124.05
626.95	53.83
627.10	105.32
627.25	81.92
627.40	53.83
627.55	32.77
627.70	37.45
627.85	77.24
628.00	42.13
628.15	42.13
628.30	44.47
628.45	74.90
628.60	100.64
628.76	93.62
628.91	23.41
629.06	28.09
629.21	72.56
629.36	56.17
629.51	67.88
629.66	86.60
629.81	42.13
629.96	51.49
630.11	0.00
630.26	25.75
630.41	119.37
630.56	105.32
630.71	114.69
630.86	107.66
631.01	60.85
631.16	39.79
631.31	0.00
631.46	56.17
631.61	81.92
631.76	81.92
631.91	35.11
632.06	28.09
632.21	2.34
632.36	53.83
632.51	70.22
632.66	46.81
632.81	0.00
632.96	51.49
633.10	91.28
633.25	67.88
633.40	98.30
633.55	67.88
633.70	56.17
633.85	91.28
634.00	72.56
634.15	39.79
634.30	91.28
634.45	91.28
634.60	91.28
634.75	0.00
634.90	65.54
635.05	74.90
635.19	65.54
635.34	51.49
635.49	100.64
635.64	23.41
635.79	0.00
635.94	16.38
636.09	88.94
636.24	0.00
636.39	2.34
636.53	95.96
636.68	70.22
636.83	81.92
636.98	16.38
637.13	42.13
637.28	0.00
637.43	88.94
637.57	58.51
637.72	86.60
637.87	65.54
638.02	16.38
638.17	77.24
638.32	88.94
638.46	67.88
638.61	2.34
638.76	72.56
638.91	39.79
639.06	9.36
639.20	11.70
639.35	88.94
639.50	135.75
639.65	95.96
639.80	95.96
639.94	37.45
640.09	28.09
640.24	46.81
640.39	170.86
640.54	102.98
640.68	60.85
640.83	44.47
640.98	39.79
641.13	53.83
641.27	30.43
641.42	28.09
641.57	58.51
641.72	60.85
641.86	51.49
642.01	65.54
642.16	79.58
642.31	145.11
642.45	65.54
642.60	56.17
642.75	51.49
642.90	30.43
643.04	51.49
643.19	58.51
643.34	39.79
643.48	102.98
643.63	18.72
643.78	84.26
643.93	67.88
644.07	37.45
644.22	37.45
644.37	79.58
644.51	81.92
644.66	4.68
644.81	81.92
644.95	23.41
645.10	84.26
645.25	11.70
645.39	70.22
645.54	74.90
645.69	65.54
645.83	35.11
645.98	105.32
646.13	70.22
646.27	0.00
646.42	60.85
646.57	32.77
646.71	32.77
646.86	0.00
647.00	42.13
647.15	0.00
647.30	95.96
647.44	51.49
647.59	11.70
647.74	67.88
647.88	46.81
648.03	95.96
648.17	42.13
648.32	23.41
648.47	86.60
648.61	4.68
648.76	72.56
648.90	35.11
649.05	42.13
649.20	37.45
649.34	56.17
649.49	84.26
649.63	0.00
649.78	11.70
649.92	14.04
650.07	25.75
650.21	14.04
650.36	63.19
650.51	95.96
650.65	72.56
650.80	88.94
650.94	86.60
651.09	44.47
651.23	46.81
651.38	135.75
651.52	23.41
651.67	91.28
651.81	0.00
651.96	16.38
652.10	107.66
652.25	110.01
652.39	23.41
652.54	93.62
652.68	81.92
652.83	35.11
652.97	11.70
653.12	88.94
653.26	77.24
653.41	18.72
653.55	0.00
653.70	74.90
653.84	60.85
653.99	7.02
654.13	23.41
654.27	88.94
654.42	95.96
654.56	100.64
654.71	70.22
654.85	9.36
655.00	0.00
655.14	35.11
655.29	7.02
655.43	0.00
655.57	72.56
655.72	0.00
655.86	84.26
656.01	110.01
656.15	25.75
656.30	98.30
656.44	0.00
656.58	9.36
656.73	39.79
656.87	110.01
657.01	46.81
657.16	0.00
657.30	58.51
657.45	84.26
657.59	25.75
657.73	84.26
657.88	74.90
658.02	30.43
658.16	23.41
658.31	49.15
658.45	124.05
658.60	51.49
658.74	35.11
658.88	77.24
659.03	0.00
659.17	102.98
659.31	51.49
659.46	30.43
659.60	58.51
659.74	18.72
659.89	53.83
660.03	7.02
660.17	23.41
660.32	0.00
660.46	30.43
660.60	51.49
660.74	74.90
660.89	86.60
661.03	58.51
661.17	11.70
661.32	74.90
661.46	86.60
661.60	117.03
661.74	4.68
661.89	119.37
662.03	0.00
662.17	46.81
662.31	0.00
662.46	74.90
662.60	37.45
662.74	14.04
662.88	77.24
663.03	67.88
663.17	91.28
663.31	28.09
663.45	18.72
663.60	145.11
663.74	56.17
663.88	32.77
664.02	39.79
664.17	84.26
664.31	70.22
664.45	14.04
664.59	28.09
664.73	70.22
664.88	79.58
665.02	79.58
665.16	74.90
665.30	39.79
665.44	30.43
665.59	105.32
665.73	2.34
665.87	0.00
666.01	65.54
666.15	53.83
666.29	53.83
666.44	51.49
666.58	88.94
666.72	39.79
666.86	98.30
667.00	126.39
667.14	0.00
667.28	0.00
667.43	39.79
667.57	2.34
667.71	9.36
667.85	42.13
667.99	2.34
668.13	0.00
668.27	60.85
668.41	51.49
668.56	35.11
668.70	100.64
668.84	70.22
668.98	121.71
669.12	35.11
669.26	46.81
669.40	100.64
669.54	53.83
669.68	44.47
669.82	9.36
669.96	51.49
670.10	79.58
670.25	65.54
670.39	88.94
670.53	67.88
670.67	95.96
670.81	11.70
670.95	60.85
671.09	18.72
671.23	37.45
671.37	112.35
671.51	56.17
671.65	11.70
671.79	121.71
671.93	79.58
672.07	107.66
672.21	67.88
672.35	102.98
672.49	60.85
672.63	56.17
672.77	112.35
672.91	35.11
673.05	63.19
673.19	81.92
673.33	0.00
673.47	18.72
673.61	131.07
673.75	51.49
673.89	72.56
674.03	16.38
674.17	74.90
674.31	100.64
674.45	42.13
674.59	25.75
674.73	60.85
674.87	46.81
675.01	91.28
675.15	51.49
675.29	79.58
675.43	112.35
675.56	30.43
675.70	21.06
675.84	32.77
675.98	74.90
676.12	72.56
676.26	63.19
676.40	70.22
676.54	0.00
676.68	63.19
676.82	25.75
676.96	105.32
677.10	0.00
677.23	67.88
677.37	81.92
677.51	79.58
677.65	58.51
677.79	4.68
677.93	23.41
678.07	42.13
678.21	23.41
678.34	49.15
678.48	72.56
678.62	67.88
678.76	0.00
678.90	0.00
679.04	53.83
679.18	28.09
679.31	112.35
679.45	9.36
679.59	84.26
679.73	67.88
679.87	51.49
680.00	81.92
680.14	9.36
680.28	28.09
680.42	72.56
680.56	0.00
680.70	117.03
680.83	7.02
680.97	42.13
681.11	74.90
681.25	65.54
681.39	77.24
681.52	18.72
681.66	0.00
681.80	30.43
681.94	74.90
682.07	32.77
682.21	0.00
682.35	70.22
682.49	7.02
682.62	2.34
682.76	25.75
682.90	44.47
683.04	77.24
683.17	9.36
683.31	58.51
683.45	84.26
683.59	32.77
683.72	67.88
683.86	72.56
684.00	4.68
684.13	65.54
684.27	86.60
684.41	60.85
684.55	9.36
684.68	49.15
684.82	60.85
684.96	44.47
685.09	18.72
685.23	4.68
685.37	74.90
685.50	39.79
685.64	58.51
685.78	60.85
685.91	0.00
686.05	51.49
686.19	60.85
686.32	18.72
686.46	39.79
686.60	0.00
686.73	21.06
686.87	0.00
687.01	58.51
687.14	32.77
687.28	98.30
687.42	51.49
687.55	86.60
687.69	25.75
687.82	21.06
687.96	67.88
688.10	105.32
688.23	70.22
688.37	16.38
688.50	30.43
688.64	16.38
688.78	84.26
688.91	49.15
689.05	84.26
689.18	11.70
689.32	140.43
689.46	42.13
689.59	58.51
689.73	53.83
689.86	2.34
690.00	86.60
690.13	51.49
690.27	84.26
690.41	35.11
690.54	0.00
690.68	30.43
690.81	9.36
690.95	2.34
691.08	49.15
691.22	18.72
691.35	147.45
691.49	105.32
691.62	112.35
691.76	0.00
691.89	91.28
692.03	53.83
692.16	63.19
692.30	42.13
692.43	0.00
692.57	0.00
692.70	67.88
692.84	4.68
692.97	42.13
693.11	63.19
693.24	23.41
693.38	49.15
693.51	0.00
693.65	0.00
693.78	0.00
693.92	72.56
694.05	30.43
694.19	16.38
694.32	2.34
694.45	65.54
694.59	44.47
694.72	18.72
694.86	93.62
694.99	32.77
695.13	28.09
695.26	46.81
695.39	4.68
695.53	30.43
695.66	18.72
695.80	51.49
695.93	21.06
696.07	25.75
696.20	42.13
696.33	81.92
696.47	37.45
696.60	0.00
696.73	30.43
696.87	2.34
697.00	0.00
697.14	56.17
697.27	35.11
697.40	44.47
697.54	23.41
697.67	18.72
697.80	126.39
697.94	72.56
698.07	77.24
698.21	46.81
698.34	0.00
698.47	35.11
698.61	32.77
698.74	35.11
698.87	44.47
699.01	0.00
699.14	32.77
699.27	88.94
699.40	30.43
699.54	9.36
699.67	4.68
699.80	49.15
699.94	0.00
700.07	84.26
700.20	9.36
700.34	9.36
700.47	0.00
700.60	88.94
700.73	81.92
700.87	18.72
701.00	51.49
701.13	42.13
701.26	18.72
701.40	53.83
701.53	30.43
701.66	39.79
701.79	0.00
701.93	88.94
702.06	28.09
702.19	11.70
702.32	0.00
702.46	0.00
702.59	18.72
702.72	0.00
702.85	0.00
702.99	4.68
703.12	0.00
703.25	0.00
703.38	56.17
703.51	0.00
703.65	0.00
703.78	0.00
703.91	56.17
704.04	53.83
704.17	0.00
704.31	0.00
704.44	77.24
704.57	32.77
704.70	46.81
704.83	0.00
704.96	0.00
705.10	70.22
705.23	4.68
>>>>>End Processed Spectral Data<<<<<
