SpectraSuite Data File
++++++++++++++++++++++++++++++++++++
Date: Fri Oct 04 12:13:45 GMT-05:00 2013
User: price-jones
Dark Spectrum Present: No
Reference Spectrum Present: No
Number of Sampled Component Spectra: 1
Spectrometers: USB2+H05261
Integration Time (usec): 10000 (USB2+H05261)
Spectra Averaged: 1 (USB2+H05261)
Boxcar Smoothing: 0 (USB2+H05261)
Correct for Electrical Dark: No (USB2+H05261)
Strobe/Lamp Enabled: No (USB2+H05261)
Correct for Detector Non-linearity: No (USB2+H05261)
Correct for Stray Light: No (USB2+H05261)
Number of Pixels in Processed Spectrum: 2048
>>>>>Begin Processed Spectral Data<<<<<
365.73	0.00
365.92	0.00
366.12	0.00
366.32	0.00
366.52	0.00
366.72	0.00
366.91	0.00
367.11	0.00
367.31	0.00
367.51	0.00
367.70	0.00
367.90	0.00
368.10	0.00
368.30	0.00
368.49	0.00
368.69	0.00
368.89	0.00
369.09	0.00
369.28	0.00
369.48	0.00
369.68	0.00
369.87	0.00
370.07	0.00
370.27	0.00
370.47	0.00
370.66	0.00
370.86	7.02
371.06	0.00
371.25	0.00
371.45	0.00
371.65	0.00
371.84	0.00
372.04	95.96
372.24	25.75
372.44	37.45
372.63	42.13
372.83	53.83
373.03	42.13
373.22	107.66
373.42	0.00
373.62	2.34
373.81	28.09
374.01	46.81
374.21	18.72
374.40	110.01
374.60	0.00
374.79	14.04
374.99	67.88
375.19	88.94
375.38	21.06
375.58	0.00
375.78	30.43
375.97	46.81
376.17	25.75
376.37	46.81
376.56	56.17
376.76	0.00
376.95	21.06
377.15	4.68
377.35	9.36
377.54	23.41
377.74	0.00
377.93	58.51
378.13	46.81
378.33	0.00
378.52	21.06
378.72	46.81
378.91	0.00
379.11	35.11
379.31	0.00
379.50	18.72
379.70	11.70
379.89	4.68
380.09	23.41
380.28	32.77
380.48	25.75
380.68	65.54
380.87	28.09
381.07	39.79
381.26	28.09
381.46	14.04
381.65	4.68
381.85	56.17
382.04	44.47
382.24	14.04
382.43	70.22
382.63	35.11
382.83	93.62
383.02	0.00
383.22	4.68
383.41	0.00
383.61	60.85
383.80	0.00
384.00	121.71
384.19	30.43
384.39	32.77
384.58	4.68
384.78	39.79
384.97	16.38
385.17	42.13
385.36	0.00
385.56	4.68
385.75	35.11
385.95	0.00
386.14	0.00
386.34	25.75
386.53	14.04
386.72	60.85
386.92	98.30
387.11	25.75
387.31	23.41
387.50	35.11
387.70	0.00
387.89	37.45
388.09	44.47
388.28	0.00
388.48	30.43
388.67	91.28
388.86	39.79
389.06	11.70
389.25	21.06
389.45	0.00
389.64	0.00
389.84	44.47
390.03	56.17
390.22	0.00
390.42	35.11
390.61	65.54
390.81	63.19
391.00	0.00
391.19	30.43
391.39	28.09
391.58	0.00
391.78	0.00
391.97	11.70
392.16	0.00
392.36	0.00
392.55	46.81
392.75	72.56
392.94	9.36
393.13	0.00
393.33	0.00
393.52	79.58
393.71	16.38
393.91	88.94
394.10	0.00
394.29	42.13
394.49	37.45
394.68	53.83
394.88	7.02
395.07	37.45
395.26	86.60
395.46	42.13
395.65	74.90
395.84	0.00
396.04	0.00
396.23	0.00
396.42	46.81
396.62	77.24
396.81	14.04
397.00	0.00
397.19	93.62
397.39	49.15
397.58	0.00
397.77	11.70
397.97	44.47
398.16	7.02
398.35	14.04
398.55	30.43
398.74	60.85
398.93	11.70
399.12	21.06
399.32	0.00
399.51	37.45
399.70	23.41
399.90	28.09
400.09	86.60
400.28	7.02
400.47	0.00
400.67	63.19
400.86	2.34
401.05	51.49
401.24	39.79
401.44	0.00
401.63	110.01
401.82	70.22
402.01	39.79
402.21	9.36
402.40	23.41
402.59	2.34
402.78	28.09
402.97	11.70
403.17	95.96
403.36	67.88
403.55	39.79
403.74	0.00
403.93	0.00
404.13	14.04
404.32	9.36
404.51	16.38
404.70	9.36
404.89	0.00
405.09	51.49
405.28	2.34
405.47	100.64
405.66	0.00
405.85	21.06
406.05	23.41
406.24	14.04
406.43	0.00
406.62	14.04
406.81	0.00
407.00	107.66
407.20	46.81
407.39	0.00
407.58	0.00
407.77	0.00
407.96	14.04
408.15	63.19
408.34	39.79
408.54	0.00
408.73	9.36
408.92	46.81
409.11	14.04
409.30	37.45
409.49	126.39
409.68	60.85
409.87	0.00
410.07	25.75
410.26	51.49
410.45	4.68
410.64	16.38
410.83	32.77
411.02	72.56
411.21	32.77
411.40	14.04
411.59	18.72
411.78	0.00
411.98	51.49
412.17	65.54
412.36	46.81
412.55	16.38
412.74	46.81
412.93	0.00
413.12	18.72
413.31	37.45
413.50	42.13
413.69	23.41
413.88	44.47
414.07	35.11
414.26	30.43
414.45	46.81
414.64	0.00
414.83	86.60
415.02	110.01
415.22	0.00
415.41	30.43
415.60	0.00
415.79	14.04
415.98	7.02
416.17	44.47
416.36	11.70
416.55	0.00
416.74	0.00
416.93	11.70
417.12	11.70
417.31	58.51
417.50	79.58
417.69	60.85
417.88	46.81
418.07	86.60
418.26	72.56
418.45	58.51
418.64	46.81
418.83	2.34
419.02	0.00
419.21	42.13
419.39	95.96
419.58	0.00
419.77	63.19
419.96	56.17
420.15	86.60
420.34	7.02
420.53	0.00
420.72	79.58
420.91	51.49
421.10	0.00
421.29	74.90
421.48	30.43
421.67	102.98
421.86	32.77
422.05	0.00
422.24	77.24
422.43	0.00
422.61	81.92
422.80	4.68
422.99	28.09
423.18	23.41
423.37	21.06
423.56	0.00
423.75	7.02
423.94	42.13
424.13	37.45
424.32	0.00
424.50	16.38
424.69	58.51
424.88	9.36
425.07	0.00
425.26	63.19
425.45	37.45
425.64	51.49
425.83	7.02
426.01	4.68
426.20	42.13
426.39	30.43
426.58	9.36
426.77	74.90
426.96	9.36
427.15	9.36
427.33	65.54
427.52	32.77
427.71	0.00
427.90	30.43
428.09	4.68
428.28	35.11
428.46	70.22
428.65	18.72
428.84	0.00
429.03	46.81
429.22	0.00
429.40	0.00
429.59	18.72
429.78	21.06
429.97	44.47
430.16	0.00
430.34	0.00
430.53	35.11
430.72	4.68
430.91	0.00
431.10	14.04
431.28	44.47
431.47	0.00
431.66	0.00
431.85	70.22
432.03	4.68
432.22	70.22
432.41	0.00
432.60	0.00
432.79	72.56
432.97	42.13
433.16	56.17
433.35	42.13
433.54	95.96
433.72	58.51
433.91	65.54
434.10	110.01
434.28	81.92
434.47	70.22
434.66	0.00
434.85	51.49
435.03	72.56
435.22	60.85
435.41	35.11
435.59	42.13
435.78	84.26
435.97	35.11
436.16	0.00
436.34	81.92
436.53	37.45
436.72	51.49
436.90	18.72
437.09	0.00
437.28	56.17
437.46	86.60
437.65	42.13
437.84	2.34
438.02	67.88
438.21	16.38
438.40	0.00
438.58	0.00
438.77	21.06
438.96	0.00
439.14	0.00
439.33	79.58
439.52	23.41
439.70	67.88
439.89	0.00
440.08	25.75
440.26	67.88
440.45	11.70
440.63	0.00
440.82	53.83
441.01	42.13
441.19	32.77
441.38	91.28
441.57	37.45
441.75	84.26
441.94	95.96
442.12	65.54
442.31	28.09
442.50	25.75
442.68	56.17
442.87	86.60
443.05	49.15
443.24	46.81
443.43	37.45
443.61	79.58
443.80	58.51
443.98	39.79
444.17	0.00
444.35	58.51
444.54	25.75
444.73	37.45
444.91	30.43
445.10	30.43
445.28	49.15
445.47	9.36
445.65	16.38
445.84	7.02
446.02	77.24
446.21	63.19
446.39	28.09
446.58	79.58
446.77	0.00
446.95	16.38
447.14	65.54
447.32	63.19
447.51	51.49
447.69	30.43
447.88	49.15
448.06	23.41
448.25	63.19
448.43	0.00
448.62	84.26
448.80	0.00
448.99	28.09
449.17	0.00
449.36	72.56
449.54	4.68
449.73	30.43
449.91	35.11
450.10	23.41
450.28	0.00
450.46	32.77
450.65	30.43
450.83	63.19
451.02	2.34
451.20	37.45
451.39	0.00
451.57	0.00
451.76	72.56
451.94	65.54
452.13	32.77
452.31	0.00
452.49	0.00
452.68	16.38
452.86	4.68
453.05	135.75
453.23	0.00
453.42	51.49
453.60	46.81
453.78	77.24
453.97	16.38
454.15	51.49
454.34	32.77
454.52	37.45
454.70	105.32
454.89	0.00
455.07	88.94
455.26	25.75
455.44	4.68
455.62	0.00
455.81	39.79
455.99	37.45
456.17	37.45
456.36	9.36
456.54	14.04
456.73	51.49
456.91	23.41
457.09	105.32
457.28	65.54
457.46	58.51
457.64	70.22
457.83	70.22
458.01	63.19
458.19	0.00
458.38	16.38
458.56	0.00
458.74	0.00
458.93	84.26
459.11	23.41
459.29	37.45
459.48	86.60
459.66	7.02
459.84	4.68
460.03	30.43
460.21	135.75
460.39	2.34
460.57	4.68
460.76	0.00
460.94	14.04
461.12	51.49
461.31	37.45
461.49	72.56
461.67	32.77
461.85	18.72
462.04	0.00
462.22	65.54
462.40	44.47
462.59	0.00
462.77	58.51
462.95	100.64
463.13	60.85
463.32	53.83
463.50	98.30
463.68	0.00
463.86	100.64
464.05	21.06
464.23	51.49
464.41	98.30
464.59	35.11
464.78	95.96
464.96	0.00
465.14	28.09
465.32	0.00
465.50	42.13
465.69	23.41
465.87	56.17
466.05	81.92
466.23	42.13
466.41	0.00
466.60	16.38
466.78	0.00
466.96	11.70
467.14	93.62
467.32	60.85
467.51	0.00
467.69	0.00
467.87	21.06
468.05	28.09
468.23	42.13
468.41	65.54
468.60	51.49
468.78	107.66
468.96	16.38
469.14	51.49
469.32	23.41
469.50	9.36
469.69	0.00
469.87	0.00
470.05	86.60
470.23	30.43
470.41	0.00
470.59	60.85
470.77	51.49
470.95	0.00
471.14	30.43
471.32	7.02
471.50	0.00
471.68	56.17
471.86	72.56
472.04	60.85
472.22	2.34
472.40	49.15
472.58	70.22
472.77	14.04
472.95	0.00
473.13	79.58
473.31	60.85
473.49	25.75
473.67	60.85
473.85	32.77
474.03	32.77
474.21	18.72
474.39	72.56
474.57	51.49
474.75	49.15
474.93	32.77
475.12	49.15
475.30	28.09
475.48	28.09
475.66	0.00
475.84	114.69
476.02	81.92
476.20	51.49
476.38	91.28
476.56	86.60
476.74	25.75
476.92	28.09
477.10	49.15
477.28	0.00
477.46	35.11
477.64	14.04
477.82	14.04
478.00	49.15
478.18	63.19
478.36	2.34
478.54	21.06
478.72	21.06
478.90	56.17
479.08	51.49
479.26	25.75
479.44	0.00
479.62	25.75
479.80	0.00
479.98	0.00
480.16	72.56
480.34	0.00
480.52	14.04
480.70	60.85
480.88	30.43
481.06	60.85
481.24	56.17
481.41	0.00
481.59	32.77
481.77	100.64
481.95	53.83
482.13	65.54
482.31	79.58
482.49	0.00
482.67	60.85
482.85	0.00
483.03	86.60
483.21	18.72
483.39	18.72
483.57	53.83
483.74	42.13
483.92	42.13
484.10	7.02
484.28	112.35
484.46	16.38
484.64	23.41
484.82	51.49
485.00	49.15
485.18	53.83
485.35	37.45
485.53	56.17
485.71	35.11
485.89	39.79
486.07	70.22
486.25	35.11
486.43	14.04
486.61	2.34
486.78	86.60
486.96	72.56
487.14	42.13
487.32	56.17
487.50	63.19
487.68	63.19
487.85	58.51
488.03	121.71
488.21	67.88
488.39	39.79
488.57	74.90
488.75	0.00
488.92	39.79
489.10	0.00
489.28	81.92
489.46	9.36
489.64	46.81
489.81	93.62
489.99	95.96
490.17	63.19
490.35	67.88
490.53	37.45
490.70	93.62
490.88	0.00
491.06	53.83
491.24	0.00
491.41	16.38
491.59	0.00
491.77	0.00
491.95	49.15
492.13	98.30
492.30	39.79
492.48	58.51
492.66	32.77
492.84	53.83
493.01	42.13
493.19	35.11
493.37	74.90
493.54	42.13
493.72	53.83
493.90	49.15
494.08	53.83
494.25	28.09
494.43	88.94
494.61	37.45
494.79	9.36
494.96	18.72
495.14	44.47
495.32	0.00
495.49	0.00
495.67	0.00
495.85	102.98
496.02	21.06
496.20	9.36
496.38	32.77
496.55	81.92
496.73	32.77
496.91	72.56
497.09	112.35
497.26	126.39
497.44	23.41
497.62	72.56
497.79	49.15
497.97	124.05
498.14	60.85
498.32	37.45
498.50	37.45
498.67	95.96
498.85	30.43
499.03	51.49
499.20	25.75
499.38	70.22
499.56	42.13
499.73	56.17
499.91	49.15
500.08	21.06
500.26	53.83
500.44	0.00
500.61	51.49
500.79	51.49
500.97	25.75
501.14	79.58
501.32	70.22
501.49	0.00
501.67	46.81
501.84	0.00
502.02	23.41
502.20	21.06
502.37	60.85
502.55	16.38
502.72	102.98
502.90	16.38
503.07	88.94
503.25	81.92
503.43	91.28
503.60	44.47
503.78	18.72
503.95	49.15
504.13	67.88
504.30	35.11
504.48	30.43
504.65	46.81
504.83	79.58
505.01	53.83
505.18	79.58
505.36	44.47
505.53	35.11
505.71	0.00
505.88	0.00
506.06	25.75
506.23	100.64
506.41	56.17
506.58	25.75
506.76	63.19
506.93	42.13
507.11	21.06
507.28	70.22
507.46	86.60
507.63	0.00
507.81	88.94
507.98	0.00
508.16	46.81
508.33	0.00
508.50	72.56
508.68	74.90
508.85	30.43
509.03	88.94
509.20	44.47
509.38	21.06
509.55	28.09
509.73	0.00
509.90	67.88
510.08	53.83
510.25	30.43
510.42	46.81
510.60	53.83
510.77	67.88
510.95	53.83
511.12	67.88
511.30	0.00
511.47	107.66
511.64	58.51
511.82	0.00
511.99	53.83
512.17	23.41
512.34	35.11
512.51	11.70
512.69	0.00
512.86	37.45
513.04	51.49
513.21	16.38
513.38	4.68
513.56	81.92
513.73	9.36
513.90	53.83
514.08	72.56
514.25	44.47
514.43	63.19
514.60	88.94
514.77	28.09
514.95	70.22
515.12	0.00
515.29	39.79
515.47	16.38
515.64	49.15
515.81	42.13
515.99	32.77
516.16	105.32
516.33	63.19
516.51	0.00
516.68	0.00
516.85	0.00
517.03	51.49
517.20	88.94
517.37	63.19
517.54	2.34
517.72	51.49
517.89	35.11
518.06	28.09
518.24	53.83
518.41	4.68
518.58	0.00
518.75	9.36
518.93	25.75
519.10	56.17
519.27	60.85
519.45	21.06
519.62	23.41
519.79	0.00
519.96	102.98
520.14	56.17
520.31	114.69
520.48	49.15
520.65	2.34
520.83	74.90
521.00	4.68
521.17	44.47
521.34	0.00
521.52	14.04
521.69	0.00
521.86	44.47
522.03	81.92
522.20	114.69
522.38	51.49
522.55	81.92
522.72	0.00
522.89	42.13
523.07	25.75
523.24	58.51
523.41	0.00
523.58	18.72
523.75	23.41
523.92	72.56
524.10	46.81
524.27	25.75
524.44	70.22
524.61	67.88
524.78	28.09
524.96	60.85
525.13	74.90
525.30	86.60
525.47	95.96
525.64	77.24
525.81	21.06
525.98	46.81
526.16	56.17
526.33	0.00
526.50	18.72
526.67	56.17
526.84	74.90
527.01	72.56
527.18	0.00
527.36	51.49
527.53	23.41
527.70	53.83
527.87	0.00
528.04	74.90
528.21	124.05
528.38	88.94
528.55	70.22
528.72	58.51
528.89	147.45
529.07	49.15
529.24	105.32
529.41	42.13
529.58	28.09
529.75	28.09
529.92	81.92
530.09	11.70
530.26	63.19
530.43	32.77
530.60	60.85
530.77	86.60
530.94	49.15
531.11	60.85
531.28	63.19
531.46	0.00
531.63	23.41
531.80	0.00
531.97	53.83
532.14	58.51
532.31	91.28
532.48	30.43
532.65	32.77
532.82	74.90
532.99	72.56
533.16	18.72
533.33	110.01
533.50	74.90
533.67	58.51
533.84	37.45
534.01	35.11
534.18	49.15
534.35	42.13
534.52	35.11
534.69	16.38
534.86	30.43
535.03	0.00
535.20	49.15
535.37	86.60
535.54	112.35
535.71	72.56
535.88	154.48
536.05	131.07
536.22	107.66
536.38	67.88
536.55	147.45
536.72	39.79
536.89	60.85
537.06	4.68
537.23	16.38
537.40	98.30
537.57	9.36
537.74	37.45
537.91	72.56
538.08	0.00
538.25	23.41
538.42	117.03
538.59	25.75
538.75	7.02
538.92	42.13
539.09	72.56
539.26	0.00
539.43	81.92
539.60	32.77
539.77	49.15
539.94	72.56
540.11	51.49
540.28	37.45
540.44	88.94
540.61	60.85
540.78	16.38
540.95	49.15
541.12	9.36
541.29	56.17
541.46	23.41
541.62	63.19
541.79	9.36
541.96	112.35
542.13	58.51
542.30	67.88
542.47	42.13
542.63	77.24
542.80	56.17
542.97	42.13
543.14	30.43
543.31	18.72
543.48	35.11
543.64	49.15
543.81	53.83
543.98	44.47
544.15	25.75
544.32	2.34
544.48	21.06
544.65	74.90
544.82	58.51
544.99	32.77
545.16	53.83
545.32	35.11
545.49	53.83
545.66	30.43
545.83	86.60
546.00	18.72
546.16	110.01
546.33	25.75
546.50	39.79
546.67	16.38
546.83	56.17
547.00	0.00
547.17	86.60
547.34	126.39
547.50	98.30
547.67	9.36
547.84	2.34
548.00	0.00
548.17	0.00
548.34	42.13
548.51	4.68
548.67	88.94
548.84	0.00
549.01	112.35
549.18	81.92
549.34	46.81
549.51	58.51
549.68	0.00
549.84	32.77
550.01	18.72
550.18	9.36
550.34	28.09
550.51	28.09
550.68	30.43
550.84	0.00
551.01	67.88
551.18	58.51
551.34	28.09
551.51	84.26
551.68	0.00
551.84	81.92
552.01	28.09
552.18	23.41
552.34	0.00
552.51	95.96
552.68	105.32
552.84	42.13
553.01	39.79
553.18	63.19
553.34	65.54
553.51	67.88
553.67	46.81
553.84	63.19
554.01	32.77
554.17	60.85
554.34	16.38
554.51	56.17
554.67	39.79
554.84	9.36
555.00	14.04
555.17	67.88
555.33	23.41
555.50	42.13
555.67	0.00
555.83	39.79
556.00	51.49
556.16	95.96
556.33	95.96
556.50	63.19
556.66	32.77
556.83	121.71
556.99	37.45
557.16	72.56
557.32	44.47
557.49	9.36
557.65	46.81
557.82	16.38
557.98	25.75
558.15	39.79
558.32	0.00
558.48	39.79
558.65	60.85
558.81	28.09
558.98	77.24
559.14	67.88
559.31	70.22
559.47	46.81
559.64	121.71
559.80	72.56
559.97	133.41
560.13	35.11
560.30	63.19
560.46	7.02
560.63	42.13
560.79	0.00
560.96	79.58
561.12	46.81
561.29	16.38
561.45	98.30
561.61	88.94
561.78	105.32
561.94	95.96
562.11	0.00
562.27	46.81
562.44	70.22
562.60	32.77
562.77	25.75
562.93	0.00
563.10	72.56
563.26	28.09
563.42	51.49
563.59	49.15
563.75	0.00
563.92	107.66
564.08	37.45
564.24	11.70
564.41	51.49
564.57	74.90
564.74	88.94
564.90	25.75
565.07	0.00
565.23	131.07
565.39	63.19
565.56	32.77
565.72	37.45
565.88	72.56
566.05	56.17
566.21	0.00
566.38	81.92
566.54	56.17
566.70	53.83
566.87	84.26
567.03	35.11
567.19	35.11
567.36	49.15
567.52	107.66
567.68	46.81
567.85	0.00
568.01	121.71
568.17	117.03
568.34	37.45
568.50	0.00
568.66	86.60
568.83	46.81
568.99	23.41
569.15	95.96
569.32	72.56
569.48	65.54
569.64	56.17
569.81	0.00
569.97	51.49
570.13	25.75
570.30	0.00
570.46	102.98
570.62	23.41
570.78	77.24
570.95	0.00
571.11	2.34
571.27	0.00
571.43	0.00
571.60	16.38
571.76	16.38
571.92	86.60
572.09	30.43
572.25	7.02
572.41	46.81
572.57	63.19
572.74	0.00
572.90	56.17
573.06	124.05
573.22	51.49
573.38	0.00
573.55	39.79
573.71	86.60
573.87	39.79
574.03	77.24
574.20	0.00
574.36	28.09
574.52	51.49
574.68	58.51
574.84	72.56
575.01	21.06
575.17	32.77
575.33	32.77
575.49	14.04
575.65	28.09
575.82	0.00
575.98	0.00
576.14	4.68
576.30	58.51
576.46	98.30
576.62	4.68
576.79	0.00
576.95	25.75
577.11	56.17
577.27	84.26
577.43	49.15
577.59	147.45
577.75	28.09
577.92	58.51
578.08	56.17
578.24	91.28
578.40	98.30
578.56	56.17
578.72	72.56
578.88	86.60
579.04	100.64
579.21	30.43
579.37	0.00
579.53	39.79
579.69	14.04
579.85	56.17
580.01	42.13
580.17	67.88
580.33	0.00
580.49	4.68
580.65	16.38
580.82	74.90
580.98	56.17
581.14	49.15
581.30	0.00
581.46	53.83
581.62	37.45
581.78	0.00
581.94	39.79
582.10	51.49
582.26	147.45
582.42	84.26
582.58	9.36
582.74	14.04
582.90	49.15
583.06	23.41
583.22	42.13
583.38	35.11
583.54	58.51
583.70	51.49
583.86	39.79
584.02	0.00
584.18	0.00
584.34	25.75
584.50	21.06
584.66	9.36
584.82	37.45
584.98	46.81
585.14	70.22
585.30	72.56
585.46	49.15
585.62	51.49
585.78	28.09
585.94	93.62
586.10	30.43
586.26	102.98
586.42	0.00
586.58	11.70
586.74	0.00
586.90	21.06
587.06	81.92
587.22	56.17
587.38	56.17
587.54	46.81
587.70	11.70
587.86	16.38
588.02	0.00
588.18	70.22
588.34	84.26
588.49	39.79
588.65	58.51
588.81	0.00
588.97	0.00
589.13	0.00
589.29	63.19
589.45	77.24
589.61	23.41
589.77	37.45
589.93	35.11
590.08	81.92
590.24	46.81
590.40	46.81
590.56	25.75
590.72	0.00
590.88	60.85
591.04	11.70
591.20	0.00
591.35	30.43
591.51	93.62
591.67	16.38
591.83	23.41
591.99	25.75
592.15	102.98
592.31	56.17
592.46	0.00
592.62	28.09
592.78	18.72
592.94	28.09
593.10	110.01
593.26	72.56
593.41	25.75
593.57	14.04
593.73	30.43
593.89	102.98
594.05	0.00
594.20	51.49
594.36	37.45
594.52	0.00
594.68	35.11
594.84	11.70
594.99	30.43
595.15	16.38
595.31	4.68
595.47	46.81
595.62	0.00
595.78	30.43
595.94	0.00
596.10	63.19
596.25	14.04
596.41	81.92
596.57	49.15
596.73	79.58
596.88	70.22
597.04	16.38
597.20	88.94
597.36	49.15
597.51	23.41
597.67	58.51
597.83	25.75
597.99	86.60
598.14	0.00
598.30	2.34
598.46	32.77
598.61	0.00
598.77	0.00
598.93	39.79
599.09	53.83
599.24	18.72
599.40	53.83
599.56	72.56
599.71	70.22
599.87	81.92
600.03	84.26
600.18	65.54
600.34	91.28
600.50	0.00
600.65	51.49
600.81	58.51
600.97	70.22
601.12	86.60
601.28	53.83
601.44	42.13
601.59	28.09
601.75	63.19
601.91	32.77
602.06	84.26
602.22	16.38
602.37	88.94
602.53	119.37
602.69	14.04
602.84	67.88
603.00	70.22
603.16	84.26
603.31	44.47
603.47	49.15
603.62	11.70
603.78	30.43
603.94	30.43
604.09	107.66
604.25	21.06
604.40	67.88
604.56	51.49
604.71	42.13
604.87	39.79
605.03	51.49
605.18	58.51
605.34	0.00
605.49	0.00
605.65	74.90
605.80	35.11
605.96	0.00
606.12	74.90
606.27	35.11
606.43	105.32
606.58	35.11
606.74	37.45
606.89	65.54
607.05	14.04
607.20	21.06
607.36	30.43
607.51	0.00
607.67	18.72
607.82	65.54
607.98	100.64
608.13	93.62
608.29	88.94
608.44	128.73
608.60	0.00
608.75	145.11
608.91	9.36
609.06	56.17
609.22	28.09
609.37	56.17
609.53	0.00
609.68	0.00
609.84	14.04
609.99	46.81
610.15	49.15
610.30	35.11
610.46	46.81
610.61	0.00
610.76	25.75
610.92	42.13
611.07	72.56
611.23	102.98
611.38	18.72
611.54	81.92
611.69	18.72
611.84	60.85
612.00	77.24
612.15	0.00
612.31	79.58
612.46	0.00
612.62	42.13
612.77	112.35
612.92	93.62
613.08	42.13
613.23	44.47
613.39	49.15
613.54	14.04
613.69	0.00
613.85	84.26
614.00	21.06
614.15	18.72
614.31	16.38
614.46	81.92
614.62	77.24
614.77	56.17
614.92	91.28
615.08	9.36
615.23	42.13
615.38	0.00
615.54	56.17
615.69	9.36
615.84	70.22
616.00	51.49
616.15	0.00
616.30	0.00
616.46	42.13
616.61	11.70
616.76	53.83
616.92	79.58
617.07	2.34
617.22	63.19
617.37	117.03
617.53	140.43
617.68	16.38
617.83	65.54
617.99	107.66
618.14	58.51
618.29	14.04
618.45	112.35
618.60	77.24
618.75	16.38
618.90	0.00
619.06	23.41
619.21	63.19
619.36	0.00
619.51	28.09
619.67	25.75
619.82	0.00
619.97	44.47
620.12	0.00
620.28	37.45
620.43	18.72
620.58	93.62
620.73	0.00
620.89	65.54
621.04	0.00
621.19	7.02
621.34	42.13
621.49	51.49
621.65	46.81
621.80	18.72
621.95	70.22
622.10	25.75
622.25	51.49
622.41	63.19
622.56	53.83
622.71	56.17
622.86	60.85
623.01	58.51
623.16	37.45
623.32	56.17
623.47	67.88
623.62	35.11
623.77	44.47
623.92	16.38
624.07	72.56
624.23	128.73
624.38	42.13
624.53	114.69
624.68	35.11
624.83	9.36
624.98	28.09
625.13	16.38
625.29	28.09
625.44	88.94
625.59	35.11
625.74	102.98
625.89	93.62
626.04	46.81
626.19	14.04
626.34	25.75
626.49	21.06
626.65	25.75
626.80	84.26
626.95	0.00
627.10	37.45
627.25	23.41
627.40	25.75
627.55	56.17
627.70	35.11
627.85	70.22
628.00	7.02
628.15	2.34
628.30	74.90
628.45	88.94
628.60	0.00
628.76	49.15
628.91	105.32
629.06	72.56
629.21	4.68
629.36	35.11
629.51	25.75
629.66	53.83
629.81	0.00
629.96	56.17
630.11	53.83
630.26	0.00
630.41	7.02
630.56	0.00
630.71	46.81
630.86	74.90
631.01	21.06
631.16	79.58
631.31	63.19
631.46	9.36
631.61	51.49
631.76	79.58
631.91	0.00
632.06	0.00
632.21	58.51
632.36	79.58
632.51	0.00
632.66	56.17
632.81	28.09
632.96	32.77
633.10	0.00
633.25	49.15
633.40	0.00
633.55	102.98
633.70	58.51
633.85	25.75
634.00	63.19
634.15	84.26
634.30	30.43
634.45	0.00
634.60	44.47
634.75	84.26
634.90	35.11
635.05	121.71
635.19	142.77
635.34	4.68
635.49	67.88
635.64	67.88
635.79	0.00
635.94	72.56
636.09	32.77
636.24	14.04
636.39	28.09
636.53	2.34
636.68	63.19
636.83	49.15
636.98	70.22
637.13	32.77
637.28	67.88
637.43	21.06
637.57	53.83
637.72	72.56
637.87	0.00
638.02	67.88
638.17	4.68
638.32	110.01
638.46	32.77
638.61	0.00
638.76	102.98
638.91	0.00
639.06	67.88
639.20	86.60
639.35	60.85
639.50	42.13
639.65	0.00
639.80	21.06
639.94	46.81
640.09	25.75
640.24	42.13
640.39	0.00
640.54	37.45
640.68	81.92
640.83	35.11
640.98	18.72
641.13	9.36
641.27	11.70
641.42	16.38
641.57	0.00
641.72	102.98
641.86	11.70
642.01	51.49
642.16	4.68
642.31	49.15
642.45	11.70
642.60	0.00
642.75	0.00
642.90	18.72
643.04	9.36
643.19	0.00
643.34	46.81
643.48	32.77
643.63	16.38
643.78	18.72
643.93	46.81
644.07	39.79
644.22	67.88
644.37	0.00
644.51	0.00
644.66	88.94
644.81	37.45
644.95	42.13
645.10	0.00
645.25	0.00
645.39	18.72
645.54	11.70
645.69	35.11
645.83	32.77
645.98	84.26
646.13	42.13
646.27	42.13
646.42	51.49
646.57	56.17
646.71	9.36
646.86	88.94
647.00	39.79
647.15	0.00
647.30	35.11
647.44	25.75
647.59	32.77
647.74	42.13
647.88	56.17
648.03	70.22
648.17	35.11
648.32	0.00
648.47	56.17
648.61	65.54
648.76	35.11
648.90	51.49
649.05	42.13
649.20	0.00
649.34	74.90
649.49	58.51
649.63	16.38
649.78	14.04
649.92	28.09
650.07	28.09
650.21	0.00
650.36	18.72
650.51	4.68
650.65	42.13
650.80	0.00
650.94	0.00
651.09	14.04
651.23	42.13
651.38	18.72
651.52	16.38
651.67	39.79
651.81	37.45
651.96	0.00
652.10	67.88
652.25	21.06
652.39	37.45
652.54	74.90
652.68	53.83
652.83	7.02
652.97	67.88
653.12	14.04
653.26	14.04
653.41	67.88
653.55	91.28
653.70	0.00
653.84	37.45
653.99	74.90
654.13	37.45
654.27	0.00
654.42	98.30
654.56	56.17
654.71	0.00
654.85	65.54
655.00	35.11
655.14	11.70
655.29	4.68
655.43	44.47
655.57	7.02
655.72	14.04
655.86	0.00
656.01	79.58
656.15	51.49
656.30	37.45
656.44	0.00
656.58	128.73
656.73	21.06
656.87	67.88
657.01	86.60
657.16	0.00
657.30	84.26
657.45	0.00
657.59	28.09
657.73	16.38
657.88	28.09
658.02	84.26
658.16	18.72
658.31	35.11
658.45	18.72
658.60	0.00
658.74	49.15
658.88	58.51
659.03	0.00
659.17	23.41
659.31	30.43
659.46	56.17
659.60	46.81
659.74	58.51
659.89	18.72
660.03	46.81
660.17	30.43
660.32	0.00
660.46	0.00
660.60	35.11
660.74	98.30
660.89	37.45
661.03	35.11
661.17	63.19
661.32	0.00
661.46	7.02
661.60	0.00
661.74	0.00
661.89	9.36
662.03	35.11
662.17	100.64
662.31	53.83
662.46	25.75
662.60	0.00
662.74	60.85
662.88	0.00
663.03	58.51
663.17	112.35
663.31	51.49
663.45	117.03
663.60	28.09
663.74	63.19
663.88	58.51
664.02	2.34
664.17	49.15
664.31	32.77
664.45	65.54
664.59	44.47
664.73	79.58
664.88	0.00
665.02	44.47
665.16	100.64
665.30	84.26
665.44	25.75
665.59	4.68
665.73	0.00
665.87	0.00
666.01	30.43
666.15	0.00
666.29	0.00
666.44	74.90
666.58	65.54
666.72	0.00
666.86	0.00
667.00	9.36
667.14	25.75
667.28	79.58
667.43	60.85
667.57	4.68
667.71	7.02
667.85	0.00
667.99	67.88
668.13	72.56
668.27	79.58
668.41	2.34
668.56	44.47
668.70	0.00
668.84	91.28
668.98	18.72
669.12	65.54
669.26	0.00
669.40	16.38
669.54	0.00
669.68	81.92
669.82	14.04
669.96	0.00
670.10	32.77
670.25	77.24
670.39	23.41
670.53	0.00
670.67	42.13
670.81	77.24
670.95	58.51
671.09	0.00
671.23	46.81
671.37	4.68
671.51	23.41
671.65	74.90
671.79	37.45
671.93	32.77
672.07	0.00
672.21	0.00
672.35	46.81
672.49	0.00
672.63	86.60
672.77	49.15
672.91	11.70
673.05	0.00
673.19	14.04
673.33	0.00
673.47	39.79
673.61	7.02
673.75	65.54
673.89	2.34
674.03	0.00
674.17	145.11
674.31	7.02
674.45	14.04
674.59	56.17
674.73	16.38
674.87	95.96
675.01	72.56
675.15	2.34
675.29	56.17
675.43	4.68
675.56	102.98
675.70	70.22
675.84	58.51
675.98	72.56
676.12	63.19
676.26	0.00
676.40	30.43
676.54	28.09
676.68	14.04
676.82	42.13
676.96	53.83
677.10	0.00
677.23	0.00
677.37	49.15
677.51	18.72
677.65	51.49
677.79	44.47
677.93	44.47
678.07	53.83
678.21	0.00
678.34	51.49
678.48	16.38
678.62	53.83
678.76	0.00
678.90	79.58
679.04	11.70
679.18	35.11
679.31	0.00
679.45	114.69
679.59	0.00
679.73	0.00
679.87	0.00
680.00	0.00
680.14	81.92
680.28	63.19
680.42	0.00
680.56	65.54
680.70	32.77
680.83	49.15
680.97	44.47
681.11	49.15
681.25	0.00
681.39	18.72
681.52	44.47
681.66	60.85
681.80	7.02
681.94	42.13
682.07	28.09
682.21	51.49
682.35	28.09
682.49	58.51
682.62	11.70
682.76	65.54
682.90	53.83
683.04	105.32
683.17	0.00
683.31	30.43
683.45	81.92
683.59	56.17
683.72	44.47
683.86	11.70
684.00	4.68
684.13	0.00
684.27	60.85
684.41	23.41
684.55	14.04
684.68	77.24
684.82	30.43
684.96	63.19
685.09	37.45
685.23	58.51
685.37	79.58
685.50	0.00
685.64	0.00
685.78	0.00
685.91	95.96
686.05	4.68
686.19	37.45
686.32	0.00
686.46	9.36
686.60	7.02
686.73	88.94
686.87	91.28
687.01	53.83
687.14	0.00
687.28	0.00
687.42	7.02
687.55	0.00
687.69	16.38
687.82	46.81
687.96	0.00
688.10	39.79
688.23	0.00
688.37	70.22
688.50	39.79
688.64	28.09
688.78	28.09
688.91	11.70
689.05	39.79
689.18	0.00
689.32	11.70
689.46	0.00
689.59	0.00
689.73	0.00
689.86	46.81
690.00	30.43
690.13	32.77
690.27	37.45
690.41	44.47
690.54	0.00
690.68	84.26
690.81	49.15
690.95	74.90
691.08	79.58
691.22	60.85
691.35	44.47
691.49	65.54
691.62	4.68
691.76	74.90
691.89	77.24
692.03	102.98
692.16	93.62
692.30	107.66
692.43	25.75
692.57	0.00
692.70	28.09
692.84	9.36
692.97	18.72
693.11	30.43
693.24	25.75
693.38	0.00
693.51	18.72
693.65	28.09
693.78	23.41
693.92	30.43
694.05	44.47
694.19	77.24
694.32	23.41
694.45	102.98
694.59	60.85
694.72	0.00
694.86	14.04
694.99	0.00
695.13	4.68
695.26	49.15
695.39	0.00
695.53	114.69
695.66	11.70
695.80	14.04
695.93	81.92
696.07	35.11
696.20	11.70
696.33	0.00
696.47	105.32
696.60	0.00
696.73	79.58
696.87	60.85
697.00	42.13
697.14	102.98
697.27	88.94
697.40	39.79
697.54	0.00
697.67	88.94
697.80	23.41
697.94	0.00
698.07	58.51
698.21	14.04
698.34	117.03
698.47	70.22
698.61	21.06
698.74	0.00
698.87	102.98
699.01	14.04
699.14	16.38
699.27	0.00
699.40	60.85
699.54	30.43
699.67	0.00
699.80	81.92
699.94	51.49
700.07	60.85
700.20	63.19
700.34	44.47
700.47	21.06
700.60	0.00
700.73	23.41
700.87	25.75
701.00	9.36
701.13	23.41
701.26	21.06
701.40	0.00
701.53	0.00
701.66	0.00
701.79	0.00
701.93	23.41
702.06	0.00
702.19	2.34
702.32	23.41
702.46	53.83
702.59	44.47
702.72	121.71
702.85	0.00
702.99	0.00
703.12	18.72
703.25	4.68
703.38	11.70
703.51	42.13
703.65	28.09
703.78	0.00
703.91	42.13
704.04	65.54
704.17	88.94
704.31	49.15
704.44	67.88
704.57	81.92
704.70	77.24
704.83	0.00
704.96	32.77
705.10	56.17
705.23	53.83
>>>>>End Processed Spectral Data<<<<<
