SpectraSuite Data File
++++++++++++++++++++++++++++++++++++
Date: Fri Oct 04 12:13:33 GMT-05:00 2013
User: price-jones
Dark Spectrum Present: No
Reference Spectrum Present: No
Number of Sampled Component Spectra: 1
Spectrometers: USB2+H05261
Integration Time (usec): 10000 (USB2+H05261)
Spectra Averaged: 1 (USB2+H05261)
Boxcar Smoothing: 0 (USB2+H05261)
Correct for Electrical Dark: No (USB2+H05261)
Strobe/Lamp Enabled: No (USB2+H05261)
Correct for Detector Non-linearity: No (USB2+H05261)
Correct for Stray Light: No (USB2+H05261)
Number of Pixels in Processed Spectrum: 2048
>>>>>Begin Processed Spectral Data<<<<<
365.73	16.38
365.92	16.38
366.12	16.38
366.32	0.00
366.52	0.00
366.72	0.00
366.91	0.00
367.11	0.00
367.31	0.00
367.51	0.00
367.70	0.00
367.90	0.00
368.10	0.00
368.30	0.00
368.49	0.00
368.69	0.00
368.89	0.00
369.09	0.00
369.28	0.00
369.48	0.00
369.68	0.00
369.87	0.00
370.07	0.00
370.27	0.00
370.47	0.00
370.66	0.00
370.86	0.00
371.06	0.00
371.25	0.00
371.45	0.00
371.65	21.06
371.84	0.00
372.04	0.00
372.24	0.00
372.44	0.00
372.63	0.00
372.83	0.00
373.03	32.77
373.22	53.83
373.42	9.36
373.62	72.56
373.81	81.92
374.01	11.70
374.21	81.92
374.40	67.88
374.60	0.00
374.79	30.43
374.99	53.83
375.19	63.19
375.38	7.02
375.58	37.45
375.78	77.24
375.97	4.68
376.17	0.00
376.37	4.68
376.56	44.47
376.76	67.88
376.95	32.77
377.15	0.00
377.35	7.02
377.54	84.26
377.74	0.00
377.93	0.00
378.13	46.81
378.33	25.75
378.52	37.45
378.72	58.51
378.91	21.06
379.11	0.00
379.31	46.81
379.50	21.06
379.70	4.68
379.89	39.79
380.09	21.06
380.28	42.13
380.48	84.26
380.68	42.13
380.87	58.51
381.07	63.19
381.26	65.54
381.46	70.22
381.65	0.00
381.85	37.45
382.04	107.66
382.24	0.00
382.43	46.81
382.63	0.00
382.83	0.00
383.02	7.02
383.22	7.02
383.41	35.11
383.61	42.13
383.80	0.00
384.00	0.00
384.19	0.00
384.39	0.00
384.58	25.75
384.78	0.00
384.97	25.75
385.17	4.68
385.36	35.11
385.56	35.11
385.75	0.00
385.95	74.90
386.14	0.00
386.34	70.22
386.53	49.15
386.72	56.17
386.92	7.02
387.11	23.41
387.31	2.34
387.50	25.75
387.70	25.75
387.89	91.28
388.09	0.00
388.28	7.02
388.48	9.36
388.67	7.02
388.86	7.02
389.06	0.00
389.25	0.00
389.45	9.36
389.64	0.00
389.84	25.75
390.03	0.00
390.22	105.32
390.42	0.00
390.61	23.41
390.81	37.45
391.00	58.51
391.19	65.54
391.39	2.34
391.58	23.41
391.78	0.00
391.97	88.94
392.16	53.83
392.36	86.60
392.55	0.00
392.75	7.02
392.94	39.79
393.13	77.24
393.33	9.36
393.52	35.11
393.71	72.56
393.91	11.70
394.10	0.00
394.29	56.17
394.49	0.00
394.68	67.88
394.88	4.68
395.07	37.45
395.26	4.68
395.46	0.00
395.65	46.81
395.84	44.47
396.04	67.88
396.23	77.24
396.42	53.83
396.62	0.00
396.81	60.85
397.00	0.00
397.19	14.04
397.39	0.00
397.58	7.02
397.77	0.00
397.97	100.64
398.16	0.00
398.35	9.36
398.55	16.38
398.74	25.75
398.93	0.00
399.12	28.09
399.32	2.34
399.51	102.98
399.70	0.00
399.90	14.04
400.09	0.00
400.28	18.72
400.47	28.09
400.67	25.75
400.86	0.00
401.05	28.09
401.24	0.00
401.44	0.00
401.63	0.00
401.82	35.11
402.01	49.15
402.21	37.45
402.40	14.04
402.59	42.13
402.78	0.00
402.97	58.51
403.17	35.11
403.36	39.79
403.55	4.68
403.74	18.72
403.93	49.15
404.13	67.88
404.32	0.00
404.51	77.24
404.70	23.41
404.89	63.19
405.09	42.13
405.28	0.00
405.47	0.00
405.66	0.00
405.85	0.00
406.05	77.24
406.24	0.00
406.43	35.11
406.62	7.02
406.81	0.00
407.00	70.22
407.20	49.15
407.39	0.00
407.58	30.43
407.77	35.11
407.96	128.73
408.15	51.49
408.34	28.09
408.54	0.00
408.73	14.04
408.92	18.72
409.11	14.04
409.30	37.45
409.49	21.06
409.68	7.02
409.87	14.04
410.07	44.47
410.26	16.38
410.45	0.00
410.64	42.13
410.83	0.00
411.02	46.81
411.21	77.24
411.40	63.19
411.59	46.81
411.78	7.02
411.98	32.77
412.17	0.00
412.36	32.77
412.55	49.15
412.74	0.00
412.93	63.19
413.12	49.15
413.31	51.49
413.50	93.62
413.69	49.15
413.88	72.56
414.07	4.68
414.26	0.00
414.45	44.47
414.64	0.00
414.83	49.15
415.02	84.26
415.22	21.06
415.41	35.11
415.60	37.45
415.79	102.98
415.98	60.85
416.17	18.72
416.36	0.00
416.55	0.00
416.74	9.36
416.93	86.60
417.12	56.17
417.31	4.68
417.50	14.04
417.69	32.77
417.88	46.81
418.07	0.00
418.26	32.77
418.45	58.51
418.64	58.51
418.83	16.38
419.02	102.98
419.21	30.43
419.39	2.34
419.58	4.68
419.77	0.00
419.96	9.36
420.15	46.81
420.34	60.85
420.53	4.68
420.72	9.36
420.91	0.00
421.10	21.06
421.29	28.09
421.48	4.68
421.67	65.54
421.86	2.34
422.05	30.43
422.24	37.45
422.43	16.38
422.61	72.56
422.80	4.68
422.99	35.11
423.18	74.90
423.37	0.00
423.56	0.00
423.75	23.41
423.94	16.38
424.13	2.34
424.32	56.17
424.50	23.41
424.69	32.77
424.88	67.88
425.07	51.49
425.26	30.43
425.45	0.00
425.64	44.47
425.83	28.09
426.01	0.00
426.20	39.79
426.39	79.58
426.58	0.00
426.77	51.49
426.96	58.51
427.15	16.38
427.33	0.00
427.52	72.56
427.71	37.45
427.90	0.00
428.09	9.36
428.28	7.02
428.46	35.11
428.65	37.45
428.84	14.04
429.03	65.54
429.22	67.88
429.40	23.41
429.59	65.54
429.78	46.81
429.97	88.94
430.16	60.85
430.34	0.00
430.53	53.83
430.72	11.70
430.91	11.70
431.10	0.00
431.28	51.49
431.47	35.11
431.66	23.41
431.85	18.72
432.03	23.41
432.22	9.36
432.41	0.00
432.60	58.51
432.79	51.49
432.97	23.41
433.16	35.11
433.35	53.83
433.54	0.00
433.72	100.64
433.91	39.79
434.10	49.15
434.28	51.49
434.47	0.00
434.66	0.00
434.85	58.51
435.03	0.00
435.22	28.09
435.41	42.13
435.59	0.00
435.78	14.04
435.97	7.02
436.16	42.13
436.34	18.72
436.53	30.43
436.72	0.00
436.90	9.36
437.09	60.85
437.28	0.00
437.46	23.41
437.65	88.94
437.84	18.72
438.02	32.77
438.21	23.41
438.40	35.11
438.58	23.41
438.77	0.00
438.96	7.02
439.14	88.94
439.33	46.81
439.52	0.00
439.70	42.13
439.89	100.64
440.08	79.58
440.26	14.04
440.45	2.34
440.63	0.00
440.82	98.30
441.01	67.88
441.19	30.43
441.38	0.00
441.57	0.00
441.75	60.85
441.94	32.77
442.12	53.83
442.31	0.00
442.50	60.85
442.68	0.00
442.87	16.38
443.05	0.00
443.24	114.69
443.43	84.26
443.61	93.62
443.80	4.68
443.98	16.38
444.17	25.75
444.35	21.06
444.54	77.24
444.73	88.94
444.91	16.38
445.10	39.79
445.28	4.68
445.47	0.00
445.65	0.00
445.84	25.75
446.02	81.92
446.21	51.49
446.39	30.43
446.58	0.00
446.77	21.06
446.95	16.38
447.14	18.72
447.32	11.70
447.51	30.43
447.69	30.43
447.88	0.00
448.06	86.60
448.25	7.02
448.43	0.00
448.62	14.04
448.80	30.43
448.99	37.45
449.17	2.34
449.36	77.24
449.54	84.26
449.73	42.13
449.91	0.00
450.10	91.28
450.28	11.70
450.46	0.00
450.65	49.15
450.83	9.36
451.02	11.70
451.20	0.00
451.39	95.96
451.57	128.73
451.76	35.11
451.94	65.54
452.13	4.68
452.31	14.04
452.49	0.00
452.68	0.00
452.86	53.83
453.05	0.00
453.23	65.54
453.42	18.72
453.60	32.77
453.78	0.00
453.97	23.41
454.15	0.00
454.34	60.85
454.52	0.00
454.70	65.54
454.89	11.70
455.07	117.03
455.26	49.15
455.44	93.62
455.62	77.24
455.81	0.00
455.99	0.00
456.17	46.81
456.36	53.83
456.54	44.47
456.73	0.00
456.91	37.45
457.09	42.13
457.28	42.13
457.46	28.09
457.64	58.51
457.83	46.81
458.01	60.85
458.19	0.00
458.38	39.79
458.56	56.17
458.74	0.00
458.93	81.92
459.11	0.00
459.29	21.06
459.48	0.00
459.66	35.11
459.84	46.81
460.03	2.34
460.21	51.49
460.39	32.77
460.57	42.13
460.76	25.75
460.94	42.13
461.12	86.60
461.31	51.49
461.49	93.62
461.67	77.24
461.85	0.00
462.04	49.15
462.22	126.39
462.40	28.09
462.59	11.70
462.77	9.36
462.95	39.79
463.13	35.11
463.32	0.00
463.50	0.00
463.68	42.13
463.86	56.17
464.05	53.83
464.23	44.47
464.41	23.41
464.59	35.11
464.78	25.75
464.96	0.00
465.14	37.45
465.32	28.09
465.50	58.51
465.69	11.70
465.87	30.43
466.05	70.22
466.23	79.58
466.41	81.92
466.60	0.00
466.78	86.60
466.96	51.49
467.14	0.00
467.32	63.19
467.51	18.72
467.69	28.09
467.87	42.13
468.05	74.90
468.23	2.34
468.41	0.00
468.60	30.43
468.78	105.32
468.96	46.81
469.14	0.00
469.32	105.32
469.50	51.49
469.69	42.13
469.87	72.56
470.05	0.00
470.23	32.77
470.41	16.38
470.59	84.26
470.77	35.11
470.95	28.09
471.14	14.04
471.32	93.62
471.50	0.00
471.68	63.19
471.86	51.49
472.04	28.09
472.22	9.36
472.40	51.49
472.58	93.62
472.77	49.15
472.95	53.83
473.13	0.00
473.31	21.06
473.49	0.00
473.67	0.00
473.85	81.92
474.03	53.83
474.21	18.72
474.39	67.88
474.57	0.00
474.75	60.85
474.93	67.88
475.12	84.26
475.30	25.75
475.48	32.77
475.66	2.34
475.84	84.26
476.02	18.72
476.20	28.09
476.38	46.81
476.56	21.06
476.74	14.04
476.92	60.85
477.10	102.98
477.28	16.38
477.46	16.38
477.64	51.49
477.82	37.45
478.00	74.90
478.18	74.90
478.36	42.13
478.54	0.00
478.72	2.34
478.90	105.32
479.08	67.88
479.26	72.56
479.44	30.43
479.62	37.45
479.80	70.22
479.98	72.56
480.16	14.04
480.34	11.70
480.52	2.34
480.70	21.06
480.88	14.04
481.06	98.30
481.24	79.58
481.41	11.70
481.59	25.75
481.77	0.00
481.95	0.00
482.13	35.11
482.31	30.43
482.49	25.75
482.67	30.43
482.85	42.13
483.03	42.13
483.21	53.83
483.39	39.79
483.57	23.41
483.74	72.56
483.92	32.77
484.10	56.17
484.28	14.04
484.46	60.85
484.64	84.26
484.82	23.41
485.00	86.60
485.18	30.43
485.35	72.56
485.53	49.15
485.71	0.00
485.89	0.00
486.07	58.51
486.25	51.49
486.43	4.68
486.61	63.19
486.78	37.45
486.96	21.06
487.14	7.02
487.32	0.00
487.50	42.13
487.68	65.54
487.85	39.79
488.03	86.60
488.21	65.54
488.39	39.79
488.57	21.06
488.75	175.54
488.92	21.06
489.10	100.64
489.28	37.45
489.46	56.17
489.64	44.47
489.81	74.90
489.99	9.36
490.17	21.06
490.35	67.88
490.53	25.75
490.70	28.09
490.88	7.02
491.06	23.41
491.24	79.58
491.41	51.49
491.59	28.09
491.77	58.51
491.95	65.54
492.13	14.04
492.30	58.51
492.48	28.09
492.66	117.03
492.84	0.00
493.01	28.09
493.19	44.47
493.37	25.75
493.54	53.83
493.72	112.35
493.90	86.60
494.08	25.75
494.25	114.69
494.43	32.77
494.61	0.00
494.79	0.00
494.96	0.00
495.14	25.75
495.32	44.47
495.49	49.15
495.67	86.60
495.85	0.00
496.02	21.06
496.20	11.70
496.38	98.30
496.55	56.17
496.73	0.00
496.91	32.77
497.09	42.13
497.26	100.64
497.44	86.60
497.62	126.39
497.79	63.19
497.97	79.58
498.14	86.60
498.32	0.00
498.50	37.45
498.67	95.96
498.85	9.36
499.03	0.00
499.20	56.17
499.38	39.79
499.56	0.00
499.73	11.70
499.91	44.47
500.08	0.00
500.26	86.60
500.44	58.51
500.61	107.66
500.79	42.13
500.97	25.75
501.14	39.79
501.32	35.11
501.49	60.85
501.67	86.60
501.84	67.88
502.02	51.49
502.20	46.81
502.37	56.17
502.55	18.72
502.72	72.56
502.90	133.41
503.07	28.09
503.25	53.83
503.43	25.75
503.60	91.28
503.78	39.79
503.95	25.75
504.13	84.26
504.30	23.41
504.48	28.09
504.65	84.26
504.83	0.00
505.01	102.98
505.18	23.41
505.36	102.98
505.53	67.88
505.71	60.85
505.88	67.88
506.06	124.05
506.23	0.00
506.41	30.43
506.58	98.30
506.76	72.56
506.93	58.51
507.11	28.09
507.28	95.96
507.46	77.24
507.63	18.72
507.81	44.47
507.98	42.13
508.16	9.36
508.33	67.88
508.50	25.75
508.68	28.09
508.85	98.30
509.03	77.24
509.20	42.13
509.38	60.85
509.55	28.09
509.73	91.28
509.90	102.98
510.08	65.54
510.25	49.15
510.42	32.77
510.60	0.00
510.77	14.04
510.95	32.77
511.12	53.83
511.30	67.88
511.47	53.83
511.64	0.00
511.82	4.68
511.99	39.79
512.17	16.38
512.34	39.79
512.51	49.15
512.69	110.01
512.86	28.09
513.04	44.47
513.21	21.06
513.38	39.79
513.56	72.56
513.73	65.54
513.90	16.38
514.08	9.36
514.25	91.28
514.43	46.81
514.60	16.38
514.77	0.00
514.95	53.83
515.12	53.83
515.29	60.85
515.47	23.41
515.64	77.24
515.81	21.06
515.99	42.13
516.16	60.85
516.33	51.49
516.51	60.85
516.68	63.19
516.85	39.79
517.03	88.94
517.20	23.41
517.37	25.75
517.54	32.77
517.72	42.13
517.89	35.11
518.06	84.26
518.24	49.15
518.41	23.41
518.58	126.39
518.75	0.00
518.93	60.85
519.10	0.00
519.27	35.11
519.45	0.00
519.62	67.88
519.79	0.00
519.96	30.43
520.14	91.28
520.31	30.43
520.48	25.75
520.65	37.45
520.83	100.64
521.00	98.30
521.17	65.54
521.34	67.88
521.52	93.62
521.69	65.54
521.86	0.00
522.03	60.85
522.20	70.22
522.38	39.79
522.55	70.22
522.72	63.19
522.89	84.26
523.07	35.11
523.24	58.51
523.41	63.19
523.58	16.38
523.75	0.00
523.92	60.85
524.10	105.32
524.27	9.36
524.44	70.22
524.61	70.22
524.78	81.92
524.96	84.26
525.13	72.56
525.30	4.68
525.47	0.00
525.64	7.02
525.81	28.09
525.98	58.51
526.16	112.35
526.33	4.68
526.50	0.00
526.67	0.00
526.84	77.24
527.01	63.19
527.18	32.77
527.36	81.92
527.53	0.00
527.70	124.05
527.87	84.26
528.04	79.58
528.21	0.00
528.38	126.39
528.55	11.70
528.72	35.11
528.89	37.45
529.07	63.19
529.24	72.56
529.41	53.83
529.58	105.32
529.75	9.36
529.92	37.45
530.09	93.62
530.26	58.51
530.43	58.51
530.60	35.11
530.77	70.22
530.94	2.34
531.11	72.56
531.28	23.41
531.46	0.00
531.63	70.22
531.80	44.47
531.97	112.35
532.14	39.79
532.31	95.96
532.48	39.79
532.65	25.75
532.82	70.22
532.99	65.54
533.16	2.34
533.33	14.04
533.50	56.17
533.67	58.51
533.84	53.83
534.01	0.00
534.18	67.88
534.35	49.15
534.52	114.69
534.69	49.15
534.86	32.77
535.03	35.11
535.20	102.98
535.37	86.60
535.54	0.00
535.71	67.88
535.88	21.06
536.05	58.51
536.22	154.48
536.38	65.54
536.55	44.47
536.72	30.43
536.89	39.79
537.06	79.58
537.23	95.96
537.40	23.41
537.57	77.24
537.74	117.03
537.91	81.92
538.08	46.81
538.25	0.00
538.42	56.17
538.59	0.00
538.75	7.02
538.92	53.83
539.09	0.00
539.26	126.39
539.43	51.49
539.60	21.06
539.77	70.22
539.94	74.90
540.11	161.50
540.28	56.17
540.44	65.54
540.61	65.54
540.78	79.58
540.95	11.70
541.12	42.13
541.29	74.90
541.46	74.90
541.62	0.00
541.79	0.00
541.96	0.00
542.13	18.72
542.30	0.00
542.47	2.34
542.63	44.47
542.80	51.49
542.97	42.13
543.14	100.64
543.31	30.43
543.48	51.49
543.64	91.28
543.81	72.56
543.98	117.03
544.15	114.69
544.32	35.11
544.48	79.58
544.65	14.04
544.82	0.00
544.99	95.96
545.16	44.47
545.32	0.00
545.49	102.98
545.66	95.96
545.83	105.32
546.00	25.75
546.16	0.00
546.33	81.92
546.50	63.19
546.67	11.70
546.83	152.13
547.00	81.92
547.17	0.00
547.34	107.66
547.50	72.56
547.67	49.15
547.84	37.45
548.00	58.51
548.17	58.51
548.34	9.36
548.51	81.92
548.67	21.06
548.84	49.15
549.01	56.17
549.18	70.22
549.34	0.00
549.51	51.49
549.68	23.41
549.84	56.17
550.01	77.24
550.18	0.00
550.34	79.58
550.51	0.00
550.68	49.15
550.84	60.85
551.01	91.28
551.18	93.62
551.34	23.41
551.51	44.47
551.68	37.45
551.84	63.19
552.01	44.47
552.18	74.90
552.34	42.13
552.51	119.37
552.68	133.41
552.84	0.00
553.01	25.75
553.18	0.00
553.34	138.09
553.51	25.75
553.67	105.32
553.84	95.96
554.01	65.54
554.17	93.62
554.34	88.94
554.51	112.35
554.67	23.41
554.84	2.34
555.00	0.00
555.17	42.13
555.33	42.13
555.50	98.30
555.67	16.38
555.83	81.92
556.00	46.81
556.16	56.17
556.33	53.83
556.50	39.79
556.66	32.77
556.83	35.11
556.99	63.19
557.16	49.15
557.32	70.22
557.49	63.19
557.65	86.60
557.82	39.79
557.98	25.75
558.15	65.54
558.32	77.24
558.48	0.00
558.65	14.04
558.81	63.19
558.98	14.04
559.14	84.26
559.31	95.96
559.47	98.30
559.64	72.56
559.80	56.17
559.97	32.77
560.13	53.83
560.30	107.66
560.46	70.22
560.63	84.26
560.79	77.24
560.96	28.09
561.12	46.81
561.29	30.43
561.45	49.15
561.61	65.54
561.78	44.47
561.94	74.90
562.11	14.04
562.27	84.26
562.44	35.11
562.60	9.36
562.77	44.47
562.93	84.26
563.10	35.11
563.26	23.41
563.42	72.56
563.59	53.83
563.75	39.79
563.92	53.83
564.08	60.85
564.24	37.45
564.41	65.54
564.57	86.60
564.74	37.45
564.90	79.58
565.07	112.35
565.23	35.11
565.39	70.22
565.56	56.17
565.72	74.90
565.88	51.49
566.05	14.04
566.21	0.00
566.38	49.15
566.54	30.43
566.70	37.45
566.87	0.00
567.03	35.11
567.19	39.79
567.36	58.51
567.52	86.60
567.68	0.00
567.85	79.58
568.01	32.77
568.17	28.09
568.34	65.54
568.50	0.00
568.66	2.34
568.83	0.00
568.99	58.51
569.15	63.19
569.32	32.77
569.48	4.68
569.64	7.02
569.81	70.22
569.97	86.60
570.13	0.00
570.30	16.38
570.46	53.83
570.62	44.47
570.78	86.60
570.95	74.90
571.11	49.15
571.27	44.47
571.43	58.51
571.60	0.00
571.76	51.49
571.92	88.94
572.09	0.00
572.25	37.45
572.41	2.34
572.57	79.58
572.74	95.96
572.90	60.85
573.06	28.09
573.22	21.06
573.38	0.00
573.55	18.72
573.71	112.35
573.87	67.88
574.03	65.54
574.20	39.79
574.36	56.17
574.52	91.28
574.68	81.92
574.84	0.00
575.01	46.81
575.17	53.83
575.33	91.28
575.49	114.69
575.65	49.15
575.82	112.35
575.98	35.11
576.14	2.34
576.30	42.13
576.46	23.41
576.62	102.98
576.79	93.62
576.95	23.41
577.11	0.00
577.27	49.15
577.43	25.75
577.59	70.22
577.75	74.90
577.92	16.38
578.08	42.13
578.24	14.04
578.40	11.70
578.56	105.32
578.72	37.45
578.88	0.00
579.04	16.38
579.21	51.49
579.37	4.68
579.53	74.90
579.69	93.62
579.85	67.88
580.01	37.45
580.17	49.15
580.33	84.26
580.49	65.54
580.65	28.09
580.82	16.38
580.98	49.15
581.14	11.70
581.30	32.77
581.46	72.56
581.62	49.15
581.78	49.15
581.94	79.58
582.10	93.62
582.26	35.11
582.42	102.98
582.58	46.81
582.74	49.15
582.90	39.79
583.06	60.85
583.22	4.68
583.38	67.88
583.54	11.70
583.70	35.11
583.86	79.58
584.02	67.88
584.18	58.51
584.34	60.85
584.50	0.00
584.66	23.41
584.82	56.17
584.98	77.24
585.14	0.00
585.30	67.88
585.46	0.00
585.62	117.03
585.78	53.83
585.94	107.66
586.10	49.15
586.26	18.72
586.42	23.41
586.58	0.00
586.74	21.06
586.90	0.00
587.06	67.88
587.22	0.00
587.38	18.72
587.54	60.85
587.70	37.45
587.86	23.41
588.02	11.70
588.18	35.11
588.34	70.22
588.49	42.13
588.65	0.00
588.81	7.02
588.97	14.04
589.13	2.34
589.29	53.83
589.45	42.13
589.61	79.58
589.77	72.56
589.93	37.45
590.08	42.13
590.24	60.85
590.40	7.02
590.56	0.00
590.72	25.75
590.88	0.00
591.04	23.41
591.20	79.58
591.35	35.11
591.51	25.75
591.67	44.47
591.83	105.32
591.99	39.79
592.15	72.56
592.31	46.81
592.46	21.06
592.62	21.06
592.78	98.30
592.94	58.51
593.10	105.32
593.26	16.38
593.41	72.56
593.57	42.13
593.73	72.56
593.89	18.72
594.05	39.79
594.20	23.41
594.36	25.75
594.52	28.09
594.68	32.77
594.84	14.04
594.99	77.24
595.15	0.00
595.31	53.83
595.47	25.75
595.62	110.01
595.78	72.56
595.94	77.24
596.10	84.26
596.25	49.15
596.41	70.22
596.57	88.94
596.73	11.70
596.88	112.35
597.04	0.00
597.20	44.47
597.36	65.54
597.51	81.92
597.67	145.11
597.83	100.64
597.99	53.83
598.14	0.00
598.30	21.06
598.46	60.85
598.61	77.24
598.77	14.04
598.93	32.77
599.09	37.45
599.24	16.38
599.40	74.90
599.56	0.00
599.71	53.83
599.87	121.71
600.03	49.15
600.18	37.45
600.34	7.02
600.50	14.04
600.65	128.73
600.81	112.35
600.97	114.69
601.12	49.15
601.28	0.00
601.44	23.41
601.59	49.15
601.75	51.49
601.91	0.00
602.06	79.58
602.22	44.47
602.37	37.45
602.53	35.11
602.69	60.85
602.84	81.92
603.00	60.85
603.16	105.32
603.31	32.77
603.47	25.75
603.62	60.85
603.78	112.35
603.94	105.32
604.09	100.64
604.25	0.00
604.40	51.49
604.56	70.22
604.71	65.54
604.87	0.00
605.03	63.19
605.18	72.56
605.34	0.00
605.49	84.26
605.65	98.30
605.80	51.49
605.96	14.04
606.12	70.22
606.27	72.56
606.43	4.68
606.58	14.04
606.74	14.04
606.89	84.26
607.05	100.64
607.20	0.00
607.36	28.09
607.51	102.98
607.67	84.26
607.82	105.32
607.98	11.70
608.13	42.13
608.29	110.01
608.44	84.26
608.60	126.39
608.75	44.47
608.91	110.01
609.06	39.79
609.22	37.45
609.37	21.06
609.53	46.81
609.68	105.32
609.84	93.62
609.99	91.28
610.15	56.17
610.30	58.51
610.46	49.15
610.61	70.22
610.76	44.47
610.92	16.38
611.07	21.06
611.23	88.94
611.38	65.54
611.54	58.51
611.69	18.72
611.84	2.34
612.00	98.30
612.15	14.04
612.31	28.09
612.46	67.88
612.62	46.81
612.77	35.11
612.92	0.00
613.08	9.36
613.23	84.26
613.39	56.17
613.54	42.13
613.69	63.19
613.85	35.11
614.00	28.09
614.15	44.47
614.31	44.47
614.46	0.00
614.62	23.41
614.77	25.75
614.92	140.43
615.08	63.19
615.23	79.58
615.38	28.09
615.54	32.77
615.69	46.81
615.84	23.41
616.00	16.38
616.15	58.51
616.30	72.56
616.46	23.41
616.61	100.64
616.76	74.90
616.92	100.64
617.07	23.41
617.22	0.00
617.37	84.26
617.53	4.68
617.68	49.15
617.83	39.79
617.99	77.24
618.14	81.92
618.29	95.96
618.45	18.72
618.60	93.62
618.75	30.43
618.90	67.88
619.06	0.00
619.21	21.06
619.36	30.43
619.51	105.32
619.67	0.00
619.82	35.11
619.97	65.54
620.12	14.04
620.28	51.49
620.43	28.09
620.58	0.00
620.73	9.36
620.89	39.79
621.04	4.68
621.19	70.22
621.34	51.49
621.49	14.04
621.65	53.83
621.80	51.49
621.95	28.09
622.10	42.13
622.25	0.00
622.41	18.72
622.56	74.90
622.71	0.00
622.86	72.56
623.01	46.81
623.16	16.38
623.32	46.81
623.47	0.00
623.62	81.92
623.77	93.62
623.92	70.22
624.07	67.88
624.23	23.41
624.38	51.49
624.53	51.49
624.68	0.00
624.83	51.49
624.98	0.00
625.13	65.54
625.29	117.03
625.44	0.00
625.59	86.60
625.74	56.17
625.89	14.04
626.04	0.00
626.19	88.94
626.34	32.77
626.49	121.71
626.65	67.88
626.80	14.04
626.95	32.77
627.10	42.13
627.25	84.26
627.40	4.68
627.55	11.70
627.70	42.13
627.85	51.49
628.00	39.79
628.15	79.58
628.30	9.36
628.45	37.45
628.60	53.83
628.76	25.75
628.91	23.41
629.06	107.66
629.21	18.72
629.36	42.13
629.51	79.58
629.66	63.19
629.81	9.36
629.96	91.28
630.11	49.15
630.26	21.06
630.41	46.81
630.56	93.62
630.71	77.24
630.86	51.49
631.01	95.96
631.16	63.19
631.31	67.88
631.46	28.09
631.61	53.83
631.76	0.00
631.91	53.83
632.06	30.43
632.21	28.09
632.36	11.70
632.51	16.38
632.66	86.60
632.81	30.43
632.96	49.15
633.10	42.13
633.25	67.88
633.40	37.45
633.55	65.54
633.70	32.77
633.85	21.06
634.00	51.49
634.15	28.09
634.30	131.07
634.45	21.06
634.60	46.81
634.75	100.64
634.90	79.58
635.05	60.85
635.19	18.72
635.34	56.17
635.49	25.75
635.64	16.38
635.79	51.49
635.94	0.00
636.09	0.00
636.24	4.68
636.39	72.56
636.53	0.00
636.68	30.43
636.83	91.28
636.98	124.05
637.13	0.00
637.28	65.54
637.43	0.00
637.57	0.00
637.72	81.92
637.87	0.00
638.02	21.06
638.17	70.22
638.32	2.34
638.46	0.00
638.61	46.81
638.76	39.79
638.91	14.04
639.06	16.38
639.20	51.49
639.35	18.72
639.50	42.13
639.65	72.56
639.80	14.04
639.94	91.28
640.09	79.58
640.24	53.83
640.39	42.13
640.54	23.41
640.68	39.79
640.83	63.19
640.98	28.09
641.13	70.22
641.27	2.34
641.42	65.54
641.57	56.17
641.72	58.51
641.86	91.28
642.01	88.94
642.16	0.00
642.31	74.90
642.45	14.04
642.60	60.85
642.75	25.75
642.90	91.28
643.04	42.13
643.19	93.62
643.34	32.77
643.48	46.81
643.63	58.51
643.78	0.00
643.93	30.43
644.07	114.69
644.22	51.49
644.37	44.47
644.51	32.77
644.66	0.00
644.81	51.49
644.95	16.38
645.10	21.06
645.25	77.24
645.39	16.38
645.54	42.13
645.69	53.83
645.83	42.13
645.98	107.66
646.13	46.81
646.27	53.83
646.42	0.00
646.57	0.00
646.71	77.24
646.86	58.51
647.00	30.43
647.15	88.94
647.30	51.49
647.44	79.58
647.59	0.00
647.74	32.77
647.88	30.43
648.03	46.81
648.17	72.56
648.32	70.22
648.47	0.00
648.61	0.00
648.76	0.00
648.90	72.56
649.05	32.77
649.20	32.77
649.34	7.02
649.49	88.94
649.63	81.92
649.78	112.35
649.92	28.09
650.07	74.90
650.21	70.22
650.36	72.56
650.51	110.01
650.65	128.73
650.80	0.00
650.94	98.30
651.09	14.04
651.23	4.68
651.38	30.43
651.52	72.56
651.67	56.17
651.81	56.17
651.96	7.02
652.10	49.15
652.25	60.85
652.39	32.77
652.54	18.72
652.68	7.02
652.83	7.02
652.97	88.94
653.12	58.51
653.26	35.11
653.41	0.00
653.55	30.43
653.70	28.09
653.84	91.28
653.99	37.45
654.13	35.11
654.27	0.00
654.42	4.68
654.56	0.00
654.71	0.00
654.85	0.00
655.00	51.49
655.14	9.36
655.29	0.00
655.43	42.13
655.57	28.09
655.72	46.81
655.86	81.92
656.01	44.47
656.15	51.49
656.30	74.90
656.44	2.34
656.58	58.51
656.73	0.00
656.87	18.72
657.01	70.22
657.16	74.90
657.30	37.45
657.45	42.13
657.59	23.41
657.73	16.38
657.88	28.09
658.02	0.00
658.16	37.45
658.31	37.45
658.45	79.58
658.60	49.15
658.74	32.77
658.88	70.22
659.03	9.36
659.17	9.36
659.31	0.00
659.46	84.26
659.60	81.92
659.74	4.68
659.89	56.17
660.03	0.00
660.17	74.90
660.32	23.41
660.46	49.15
660.60	0.00
660.74	70.22
660.89	9.36
661.03	42.13
661.17	46.81
661.32	0.00
661.46	58.51
661.60	56.17
661.74	70.22
661.89	102.98
662.03	0.00
662.17	49.15
662.31	16.38
662.46	0.00
662.60	46.81
662.74	39.79
662.88	74.90
663.03	28.09
663.17	60.85
663.31	32.77
663.45	28.09
663.60	58.51
663.74	0.00
663.88	0.00
664.02	35.11
664.17	88.94
664.31	152.13
664.45	100.64
664.59	63.19
664.73	72.56
664.88	49.15
665.02	105.32
665.16	53.83
665.30	60.85
665.44	46.81
665.59	44.47
665.73	37.45
665.87	105.32
666.01	56.17
666.15	102.98
666.29	9.36
666.44	42.13
666.58	91.28
666.72	4.68
666.86	39.79
667.00	42.13
667.14	124.05
667.28	60.85
667.43	93.62
667.57	32.77
667.71	0.00
667.85	42.13
667.99	0.00
668.13	23.41
668.27	30.43
668.41	14.04
668.56	58.51
668.70	72.56
668.84	0.00
668.98	25.75
669.12	37.45
669.26	58.51
669.40	100.64
669.54	98.30
669.68	28.09
669.82	65.54
669.96	18.72
670.10	2.34
670.25	0.00
670.39	65.54
670.53	0.00
670.67	56.17
670.81	53.83
670.95	84.26
671.09	2.34
671.23	0.00
671.37	46.81
671.51	79.58
671.65	9.36
671.79	4.68
671.93	14.04
672.07	88.94
672.21	53.83
672.35	51.49
672.49	35.11
672.63	28.09
672.77	9.36
672.91	32.77
673.05	65.54
673.19	67.88
673.33	44.47
673.47	37.45
673.61	107.66
673.75	0.00
673.89	35.11
674.03	0.00
674.17	63.19
674.31	65.54
674.45	74.90
674.59	28.09
674.73	14.04
674.87	4.68
675.01	42.13
675.15	18.72
675.29	0.00
675.43	0.00
675.56	102.98
675.70	37.45
675.84	86.60
675.98	32.77
676.12	72.56
676.26	51.49
676.40	14.04
676.54	39.79
676.68	0.00
676.82	49.15
676.96	9.36
677.10	4.68
677.23	4.68
677.37	0.00
677.51	0.00
677.65	42.13
677.79	105.32
677.93	46.81
678.07	0.00
678.21	77.24
678.34	53.83
678.48	102.98
678.62	53.83
678.76	30.43
678.90	0.00
679.04	56.17
679.18	0.00
679.31	4.68
679.45	77.24
679.59	32.77
679.73	51.49
679.87	32.77
680.00	0.00
680.14	2.34
680.28	65.54
680.42	16.38
680.56	25.75
680.70	0.00
680.83	0.00
680.97	23.41
681.11	23.41
681.25	65.54
681.39	28.09
681.52	14.04
681.66	67.88
681.80	46.81
681.94	0.00
682.07	42.13
682.21	56.17
682.35	74.90
682.49	67.88
682.62	63.19
682.76	72.56
682.90	37.45
683.04	35.11
683.17	32.77
683.31	63.19
683.45	0.00
683.59	70.22
683.72	112.35
683.86	16.38
684.00	58.51
684.13	110.01
684.27	44.47
684.41	44.47
684.55	110.01
684.68	0.00
684.82	56.17
684.96	25.75
685.09	67.88
685.23	117.03
685.37	21.06
685.50	110.01
685.64	25.75
685.78	74.90
685.91	35.11
686.05	4.68
686.19	0.00
686.32	46.81
686.46	51.49
686.60	114.69
686.73	42.13
686.87	0.00
687.01	23.41
687.14	7.02
687.28	0.00
687.42	0.00
687.55	51.49
687.69	0.00
687.82	70.22
687.96	0.00
688.10	16.38
688.23	18.72
688.37	58.51
688.50	58.51
688.64	28.09
688.78	100.64
688.91	0.00
689.05	42.13
689.18	16.38
689.32	39.79
689.46	56.17
689.59	65.54
689.73	88.94
689.86	81.92
690.00	11.70
690.13	11.70
690.27	112.35
690.41	0.00
690.54	18.72
690.68	7.02
690.81	25.75
690.95	18.72
691.08	0.00
691.22	81.92
691.35	58.51
691.49	37.45
691.62	35.11
691.76	0.00
691.89	18.72
692.03	53.83
692.16	44.47
692.30	58.51
692.43	21.06
692.57	37.45
692.70	58.51
692.84	51.49
692.97	49.15
693.11	51.49
693.24	9.36
693.38	23.41
693.51	9.36
693.65	0.00
693.78	0.00
693.92	93.62
694.05	11.70
694.19	39.79
694.32	30.43
694.45	18.72
694.59	25.75
694.72	21.06
694.86	81.92
694.99	0.00
695.13	0.00
695.26	63.19
695.39	39.79
695.53	14.04
695.66	30.43
695.80	39.79
695.93	0.00
696.07	0.00
696.20	0.00
696.33	23.41
696.47	16.38
696.60	53.83
696.73	112.35
696.87	21.06
697.00	30.43
697.14	60.85
697.27	0.00
697.40	63.19
697.54	0.00
697.67	35.11
697.80	0.00
697.94	44.47
698.07	16.38
698.21	56.17
698.34	11.70
698.47	63.19
698.61	51.49
698.74	56.17
698.87	46.81
699.01	14.04
699.14	0.00
699.27	0.00
699.40	25.75
699.54	14.04
699.67	16.38
699.80	0.00
699.94	65.54
700.07	25.75
700.20	105.32
700.34	42.13
700.47	72.56
700.60	53.83
700.73	35.11
700.87	0.00
701.00	58.51
701.13	0.00
701.26	37.45
701.40	88.94
701.53	95.96
701.66	9.36
701.79	0.00
701.93	9.36
702.06	102.98
702.19	0.00
702.32	21.06
702.46	18.72
702.59	46.81
702.72	51.49
702.85	37.45
702.99	25.75
703.12	53.83
703.25	49.15
703.38	0.00
703.51	0.00
703.65	93.62
703.78	9.36
703.91	0.00
704.04	53.83
704.17	42.13
704.31	25.75
704.44	32.77
704.57	21.06
704.70	11.70
704.83	39.79
704.96	46.81
705.10	0.00
705.23	53.83
>>>>>End Processed Spectral Data<<<<<
