SpectraSuite Data File
++++++++++++++++++++++++++++++++++++
Date: Fri Oct 04 12:13:36 GMT-05:00 2013
User: price-jones
Dark Spectrum Present: No
Reference Spectrum Present: No
Number of Sampled Component Spectra: 1
Spectrometers: USB2+H05261
Integration Time (usec): 10000 (USB2+H05261)
Spectra Averaged: 1 (USB2+H05261)
Boxcar Smoothing: 0 (USB2+H05261)
Correct for Electrical Dark: No (USB2+H05261)
Strobe/Lamp Enabled: No (USB2+H05261)
Correct for Detector Non-linearity: No (USB2+H05261)
Correct for Stray Light: No (USB2+H05261)
Number of Pixels in Processed Spectrum: 2048
>>>>>Begin Processed Spectral Data<<<<<
365.73	44.47
365.92	44.47
366.12	44.47
366.32	0.00
366.52	0.00
366.72	0.00
366.91	0.00
367.11	0.00
367.31	0.00
367.51	0.00
367.70	0.00
367.90	0.00
368.10	0.00
368.30	0.00
368.49	0.00
368.69	0.00
368.89	0.00
369.09	0.00
369.28	0.00
369.48	0.00
369.68	0.00
369.87	0.00
370.07	0.00
370.27	0.00
370.47	0.00
370.66	0.00
370.86	0.00
371.06	0.00
371.25	32.77
371.45	0.00
371.65	0.00
371.84	18.72
372.04	0.00
372.24	35.11
372.44	0.00
372.63	0.00
372.83	11.70
373.03	39.79
373.22	0.00
373.42	74.90
373.62	30.43
373.81	0.00
374.01	114.69
374.21	60.85
374.40	42.13
374.60	65.54
374.79	0.00
374.99	21.06
375.19	28.09
375.38	42.13
375.58	0.00
375.78	53.83
375.97	35.11
376.17	63.19
376.37	18.72
376.56	86.60
376.76	95.96
376.95	0.00
377.15	0.00
377.35	0.00
377.54	53.83
377.74	37.45
377.93	23.41
378.13	0.00
378.33	44.47
378.52	37.45
378.72	32.77
378.91	70.22
379.11	42.13
379.31	0.00
379.50	28.09
379.70	0.00
379.89	0.00
380.09	0.00
380.28	0.00
380.48	0.00
380.68	0.00
380.87	49.15
381.07	23.41
381.26	11.70
381.46	0.00
381.65	4.68
381.85	44.47
382.04	67.88
382.24	9.36
382.43	35.11
382.63	0.00
382.83	11.70
383.02	0.00
383.22	23.41
383.41	21.06
383.61	0.00
383.80	0.00
384.00	39.79
384.19	16.38
384.39	0.00
384.58	0.00
384.78	0.00
384.97	2.34
385.17	11.70
385.36	0.00
385.56	39.79
385.75	0.00
385.95	46.81
386.14	7.02
386.34	35.11
386.53	49.15
386.72	18.72
386.92	0.00
387.11	21.06
387.31	67.88
387.50	21.06
387.70	0.00
387.89	65.54
388.09	0.00
388.28	11.70
388.48	0.00
388.67	32.77
388.86	86.60
389.06	25.75
389.25	0.00
389.45	23.41
389.64	72.56
389.84	46.81
390.03	0.00
390.22	0.00
390.42	23.41
390.61	46.81
390.81	0.00
391.00	42.13
391.19	42.13
391.39	46.81
391.58	21.06
391.78	56.17
391.97	0.00
392.16	30.43
392.36	110.01
392.55	0.00
392.75	0.00
392.94	25.75
393.13	79.58
393.33	53.83
393.52	56.17
393.71	46.81
393.91	0.00
394.10	30.43
394.29	93.62
394.49	0.00
394.68	0.00
394.88	7.02
395.07	4.68
395.26	9.36
395.46	0.00
395.65	70.22
395.84	0.00
396.04	4.68
396.23	0.00
396.42	35.11
396.62	63.19
396.81	0.00
397.00	67.88
397.19	23.41
397.39	4.68
397.58	53.83
397.77	42.13
397.97	0.00
398.16	42.13
398.35	0.00
398.55	95.96
398.74	4.68
398.93	21.06
399.12	0.00
399.32	21.06
399.51	0.00
399.70	23.41
399.90	4.68
400.09	7.02
400.28	39.79
400.47	23.41
400.67	0.00
400.86	0.00
401.05	63.19
401.24	0.00
401.44	35.11
401.63	102.98
401.82	46.81
402.01	23.41
402.21	70.22
402.40	18.72
402.59	37.45
402.78	49.15
402.97	49.15
403.17	70.22
403.36	60.85
403.55	21.06
403.74	58.51
403.93	30.43
404.13	28.09
404.32	72.56
404.51	32.77
404.70	0.00
404.89	112.35
405.09	37.45
405.28	42.13
405.47	14.04
405.66	86.60
405.85	9.36
406.05	14.04
406.24	18.72
406.43	0.00
406.62	0.00
406.81	60.85
407.00	117.03
407.20	25.75
407.39	0.00
407.58	21.06
407.77	0.00
407.96	16.38
408.15	46.81
408.34	0.00
408.54	32.77
408.73	37.45
408.92	0.00
409.11	39.79
409.30	23.41
409.49	77.24
409.68	58.51
409.87	51.49
410.07	28.09
410.26	63.19
410.45	2.34
410.64	58.51
410.83	105.32
411.02	107.66
411.21	0.00
411.40	30.43
411.59	46.81
411.78	25.75
411.98	37.45
412.17	0.00
412.36	0.00
412.55	0.00
412.74	0.00
412.93	39.79
413.12	32.77
413.31	16.38
413.50	23.41
413.69	42.13
413.88	37.45
414.07	56.17
414.26	79.58
414.45	65.54
414.64	16.38
414.83	0.00
415.02	0.00
415.22	28.09
415.41	25.75
415.60	35.11
415.79	23.41
415.98	46.81
416.17	60.85
416.36	32.77
416.55	46.81
416.74	32.77
416.93	32.77
417.12	44.47
417.31	23.41
417.50	0.00
417.69	93.62
417.88	74.90
418.07	0.00
418.26	91.28
418.45	37.45
418.64	42.13
418.83	30.43
419.02	35.11
419.21	21.06
419.39	95.96
419.58	35.11
419.77	23.41
419.96	0.00
420.15	58.51
420.34	0.00
420.53	46.81
420.72	58.51
420.91	35.11
421.10	4.68
421.29	32.77
421.48	9.36
421.67	51.49
421.86	63.19
422.05	74.90
422.24	14.04
422.43	0.00
422.61	16.38
422.80	0.00
422.99	25.75
423.18	49.15
423.37	35.11
423.56	4.68
423.75	14.04
423.94	42.13
424.13	51.49
424.32	70.22
424.50	7.02
424.69	77.24
424.88	51.49
425.07	2.34
425.26	0.00
425.45	23.41
425.64	0.00
425.83	135.75
426.01	98.30
426.20	77.24
426.39	91.28
426.58	74.90
426.77	74.90
426.96	65.54
427.15	117.03
427.33	0.00
427.52	18.72
427.71	46.81
427.90	42.13
428.09	63.19
428.28	4.68
428.46	11.70
428.65	72.56
428.84	18.72
429.03	32.77
429.22	79.58
429.40	42.13
429.59	46.81
429.78	77.24
429.97	77.24
430.16	0.00
430.34	84.26
430.53	28.09
430.72	42.13
430.91	21.06
431.10	0.00
431.28	102.98
431.47	37.45
431.66	23.41
431.85	60.85
432.03	49.15
432.22	138.09
432.41	65.54
432.60	23.41
432.79	60.85
432.97	91.28
433.16	23.41
433.35	25.75
433.54	21.06
433.72	72.56
433.91	53.83
434.10	63.19
434.28	105.32
434.47	35.11
434.66	56.17
434.85	28.09
435.03	56.17
435.22	72.56
435.41	67.88
435.59	70.22
435.78	74.90
435.97	67.88
436.16	0.00
436.34	14.04
436.53	72.56
436.72	18.72
436.90	58.51
437.09	51.49
437.28	95.96
437.46	32.77
437.65	65.54
437.84	65.54
438.02	70.22
438.21	88.94
438.40	42.13
438.58	11.70
438.77	2.34
438.96	93.62
439.14	110.01
439.33	42.13
439.52	86.60
439.70	2.34
439.89	56.17
440.08	14.04
440.26	35.11
440.45	53.83
440.63	60.85
440.82	51.49
441.01	32.77
441.19	51.49
441.38	16.38
441.57	67.88
441.75	39.79
441.94	7.02
442.12	72.56
442.31	63.19
442.50	32.77
442.68	23.41
442.87	56.17
443.05	0.00
443.24	93.62
443.43	35.11
443.61	98.30
443.80	58.51
443.98	60.85
444.17	21.06
444.35	0.00
444.54	37.45
444.73	65.54
444.91	39.79
445.10	126.39
445.28	11.70
445.47	23.41
445.65	63.19
445.84	67.88
446.02	88.94
446.21	142.77
446.39	9.36
446.58	98.30
446.77	65.54
446.95	53.83
447.14	67.88
447.32	74.90
447.51	35.11
447.69	35.11
447.88	84.26
448.06	23.41
448.25	44.47
448.43	91.28
448.62	81.92
448.80	131.07
448.99	4.68
449.17	25.75
449.36	58.51
449.54	44.47
449.73	14.04
449.91	39.79
450.10	88.94
450.28	86.60
450.46	95.96
450.65	37.45
450.83	0.00
451.02	93.62
451.20	0.00
451.39	39.79
451.57	46.81
451.76	46.81
451.94	25.75
452.13	79.58
452.31	0.00
452.49	16.38
452.68	72.56
452.86	7.02
453.05	95.96
453.23	70.22
453.42	86.60
453.60	72.56
453.78	46.81
453.97	56.17
454.15	30.43
454.34	107.66
454.52	0.00
454.70	98.30
454.89	53.83
455.07	39.79
455.26	32.77
455.44	107.66
455.62	124.05
455.81	72.56
455.99	9.36
456.17	0.00
456.36	16.38
456.54	28.09
456.73	37.45
456.91	23.41
457.09	128.73
457.28	25.75
457.46	0.00
457.64	51.49
457.83	11.70
458.01	70.22
458.19	60.85
458.38	86.60
458.56	2.34
458.74	2.34
458.93	67.88
459.11	72.56
459.29	23.41
459.48	65.54
459.66	0.00
459.84	91.28
460.03	46.81
460.21	0.00
460.39	98.30
460.57	7.02
460.76	79.58
460.94	4.68
461.12	23.41
461.31	67.88
461.49	60.85
461.67	4.68
461.85	72.56
462.04	93.62
462.22	138.09
462.40	0.00
462.59	49.15
462.77	39.79
462.95	79.58
463.13	95.96
463.32	32.77
463.50	88.94
463.68	72.56
463.86	30.43
464.05	84.26
464.23	86.60
464.41	18.72
464.59	14.04
464.78	67.88
464.96	86.60
465.14	51.49
465.32	88.94
465.50	131.07
465.69	0.00
465.87	0.00
466.05	65.54
466.23	37.45
466.41	11.70
466.60	67.88
466.78	23.41
466.96	112.35
467.14	44.47
467.32	49.15
467.51	91.28
467.69	79.58
467.87	91.28
468.05	16.38
468.23	51.49
468.41	140.43
468.60	72.56
468.78	107.66
468.96	58.51
469.14	60.85
469.32	18.72
469.50	84.26
469.69	86.60
469.87	30.43
470.05	93.62
470.23	35.11
470.41	49.15
470.59	110.01
470.77	0.00
470.95	39.79
471.14	2.34
471.32	21.06
471.50	53.83
471.68	37.45
471.86	112.35
472.04	23.41
472.22	49.15
472.40	32.77
472.58	63.19
472.77	77.24
472.95	74.90
473.13	84.26
473.31	0.00
473.49	56.17
473.67	70.22
473.85	39.79
474.03	121.71
474.21	131.07
474.39	32.77
474.57	44.47
474.75	25.75
474.93	42.13
475.12	72.56
475.30	72.56
475.48	74.90
475.66	49.15
475.84	166.18
476.02	30.43
476.20	56.17
476.38	35.11
476.56	93.62
476.74	4.68
476.92	42.13
477.10	23.41
477.28	95.96
477.46	49.15
477.64	70.22
477.82	9.36
478.00	72.56
478.18	23.41
478.36	81.92
478.54	117.03
478.72	72.56
478.90	23.41
479.08	65.54
479.26	81.92
479.44	35.11
479.62	0.00
479.80	93.62
479.98	32.77
480.16	4.68
480.34	46.81
480.52	112.35
480.70	86.60
480.88	44.47
481.06	35.11
481.24	60.85
481.41	0.00
481.59	39.79
481.77	72.56
481.95	70.22
482.13	77.24
482.31	58.51
482.49	63.19
482.67	39.79
482.85	147.45
483.03	0.00
483.21	23.41
483.39	46.81
483.57	67.88
483.74	58.51
483.92	81.92
484.10	70.22
484.28	67.88
484.46	145.11
484.64	67.88
484.82	77.24
485.00	112.35
485.18	74.90
485.35	105.32
485.53	51.49
485.71	65.54
485.89	18.72
486.07	0.00
486.25	4.68
486.43	18.72
486.61	39.79
486.78	86.60
486.96	63.19
487.14	58.51
487.32	18.72
487.50	35.11
487.68	28.09
487.85	42.13
488.03	56.17
488.21	86.60
488.39	32.77
488.57	23.41
488.75	84.26
488.92	74.90
489.10	114.69
489.28	44.47
489.46	51.49
489.64	102.98
489.81	86.60
489.99	49.15
490.17	110.01
490.35	81.92
490.53	32.77
490.70	86.60
490.88	65.54
491.06	133.41
491.24	107.66
491.41	102.98
491.59	32.77
491.77	60.85
491.95	81.92
492.13	102.98
492.30	53.83
492.48	14.04
492.66	42.13
492.84	74.90
493.01	25.75
493.19	95.96
493.37	79.58
493.54	159.16
493.72	44.47
493.90	0.00
494.08	58.51
494.25	65.54
494.43	102.98
494.61	84.26
494.79	25.75
494.96	142.77
495.14	124.05
495.32	79.58
495.49	58.51
495.67	102.98
495.85	114.69
496.02	114.69
496.20	67.88
496.38	102.98
496.55	58.51
496.73	56.17
496.91	51.49
497.09	77.24
497.26	98.30
497.44	65.54
497.62	131.07
497.79	16.38
497.97	65.54
498.14	28.09
498.32	51.49
498.50	53.83
498.67	84.26
498.85	32.77
499.03	37.45
499.20	124.05
499.38	70.22
499.56	56.17
499.73	131.07
499.91	102.98
500.08	86.60
500.26	110.01
500.44	65.54
500.61	70.22
500.79	105.32
500.97	42.13
501.14	39.79
501.32	98.30
501.49	9.36
501.67	65.54
501.84	93.62
502.02	44.47
502.20	86.60
502.37	51.49
502.55	63.19
502.72	110.01
502.90	32.77
503.07	166.18
503.25	126.39
503.43	126.39
503.60	95.96
503.78	91.28
503.95	121.71
504.13	51.49
504.30	138.09
504.48	105.32
504.65	105.32
504.83	114.69
505.01	16.38
505.18	84.26
505.36	63.19
505.53	46.81
505.71	79.58
505.88	63.19
506.06	86.60
506.23	74.90
506.41	4.68
506.58	114.69
506.76	161.50
506.93	44.47
507.11	112.35
507.28	91.28
507.46	86.60
507.63	93.62
507.81	88.94
507.98	63.19
508.16	117.03
508.33	25.75
508.50	51.49
508.68	63.19
508.85	63.19
509.03	46.81
509.20	63.19
509.38	0.00
509.55	77.24
509.73	46.81
509.90	81.92
510.08	72.56
510.25	77.24
510.42	88.94
510.60	49.15
510.77	84.26
510.95	84.26
511.12	56.17
511.30	84.26
511.47	4.68
511.64	112.35
511.82	114.69
511.99	21.06
512.17	65.54
512.34	138.09
512.51	95.96
512.69	56.17
512.86	102.98
513.04	140.43
513.21	21.06
513.38	0.00
513.56	84.26
513.73	79.58
513.90	30.43
514.08	121.71
514.25	112.35
514.43	25.75
514.60	4.68
514.77	102.98
514.95	51.49
515.12	63.19
515.29	102.98
515.47	138.09
515.64	32.77
515.81	95.96
515.99	126.39
516.16	98.30
516.33	0.00
516.51	14.04
516.68	4.68
516.85	28.09
517.03	95.96
517.20	142.77
517.37	42.13
517.54	35.11
517.72	81.92
517.89	42.13
518.06	110.01
518.24	147.45
518.41	145.11
518.58	91.28
518.75	58.51
518.93	39.79
519.10	49.15
519.27	93.62
519.45	37.45
519.62	81.92
519.79	49.15
519.96	124.05
520.14	128.73
520.31	58.51
520.48	84.26
520.65	70.22
520.83	119.37
521.00	49.15
521.17	56.17
521.34	46.81
521.52	112.35
521.69	42.13
521.86	110.01
522.03	98.30
522.20	4.68
522.38	65.54
522.55	124.05
522.72	74.90
522.89	86.60
523.07	79.58
523.24	91.28
523.41	67.88
523.58	107.66
523.75	100.64
523.92	142.77
524.10	140.43
524.27	133.41
524.44	65.54
524.61	95.96
524.78	182.56
524.96	133.41
525.13	86.60
525.30	53.83
525.47	88.94
525.64	154.48
525.81	74.90
525.98	98.30
526.16	44.47
526.33	21.06
526.50	14.04
526.67	42.13
526.84	9.36
527.01	70.22
527.18	42.13
527.36	79.58
527.53	98.30
527.70	138.09
527.87	140.43
528.04	9.36
528.21	65.54
528.38	53.83
528.55	37.45
528.72	133.41
528.89	105.32
529.07	79.58
529.24	28.09
529.41	98.30
529.58	114.69
529.75	72.56
529.92	84.26
530.09	77.24
530.26	107.66
530.43	9.36
530.60	86.60
530.77	74.90
530.94	117.03
531.11	114.69
531.28	58.51
531.46	107.66
531.63	147.45
531.80	163.84
531.97	102.98
532.14	72.56
532.31	140.43
532.48	77.24
532.65	63.19
532.82	102.98
532.99	0.00
533.16	131.07
533.33	0.00
533.50	128.73
533.67	140.43
533.84	72.56
534.01	88.94
534.18	84.26
534.35	51.49
534.52	77.24
534.69	119.37
534.86	161.50
535.03	98.30
535.20	72.56
535.37	121.71
535.54	119.37
535.71	110.01
535.88	81.92
536.05	46.81
536.22	105.32
536.38	65.54
536.55	91.28
536.72	117.03
536.89	79.58
537.06	28.09
537.23	39.79
537.40	110.01
537.57	79.58
537.74	84.26
537.91	100.64
538.08	138.09
538.25	124.05
538.42	98.30
538.59	88.94
538.75	145.11
538.92	65.54
539.09	93.62
539.26	56.17
539.43	102.98
539.60	56.17
539.77	49.15
539.94	25.75
540.11	23.41
540.28	11.70
540.44	159.16
540.61	42.13
540.78	191.92
540.95	32.77
541.12	131.07
541.29	53.83
541.46	117.03
541.62	95.96
541.79	161.50
541.96	70.22
542.13	63.19
542.30	35.11
542.47	117.03
542.63	84.26
542.80	14.04
542.97	60.85
543.14	102.98
543.31	142.77
543.48	81.92
543.64	58.51
543.81	79.58
543.98	124.05
544.15	67.88
544.32	93.62
544.48	77.24
544.65	138.09
544.82	95.96
544.99	112.35
545.16	98.30
545.32	95.96
545.49	88.94
545.66	56.17
545.83	30.43
546.00	81.92
546.16	112.35
546.33	128.73
546.50	25.75
546.67	51.49
546.83	7.02
547.00	81.92
547.17	81.92
547.34	93.62
547.50	63.19
547.67	110.01
547.84	49.15
548.00	140.43
548.17	60.85
548.34	49.15
548.51	102.98
548.67	70.22
548.84	107.66
549.01	128.73
549.18	107.66
549.34	100.64
549.51	77.24
549.68	0.00
549.84	126.39
550.01	91.28
550.18	51.49
550.34	0.00
550.51	70.22
550.68	133.41
550.84	25.75
551.01	102.98
551.18	44.47
551.34	44.47
551.51	114.69
551.68	107.66
551.84	70.22
552.01	107.66
552.18	16.38
552.34	42.13
552.51	121.71
552.68	84.26
552.84	58.51
553.01	74.90
553.18	51.49
553.34	117.03
553.51	35.11
553.67	35.11
553.84	156.82
554.01	42.13
554.17	42.13
554.34	67.88
554.51	102.98
554.67	112.35
554.84	114.69
555.00	84.26
555.17	63.19
555.33	100.64
555.50	60.85
555.67	53.83
555.83	56.17
556.00	49.15
556.16	117.03
556.33	124.05
556.50	105.32
556.66	42.13
556.83	67.88
556.99	37.45
557.16	74.90
557.32	30.43
557.49	60.85
557.65	147.45
557.82	121.71
557.98	81.92
558.15	39.79
558.32	56.17
558.48	65.54
558.65	63.19
558.81	28.09
558.98	60.85
559.14	51.49
559.31	74.90
559.47	79.58
559.64	86.60
559.80	51.49
559.97	44.47
560.13	74.90
560.30	44.47
560.46	100.64
560.63	81.92
560.79	131.07
560.96	51.49
561.12	81.92
561.29	25.75
561.45	35.11
561.61	124.05
561.78	86.60
561.94	51.49
562.11	56.17
562.27	142.77
562.44	67.88
562.60	102.98
562.77	95.96
562.93	44.47
563.10	70.22
563.26	124.05
563.42	74.90
563.59	145.11
563.75	44.47
563.92	110.01
564.08	163.84
564.24	114.69
564.41	84.26
564.57	159.16
564.74	119.37
564.90	140.43
565.07	124.05
565.23	70.22
565.39	107.66
565.56	112.35
565.72	67.88
565.88	67.88
566.05	67.88
566.21	79.58
566.38	74.90
566.54	39.79
566.70	105.32
566.87	30.43
567.03	18.72
567.19	21.06
567.36	175.54
567.52	119.37
567.68	35.11
567.85	65.54
568.01	93.62
568.17	56.17
568.34	135.75
568.50	105.32
568.66	58.51
568.83	65.54
568.99	77.24
569.15	98.30
569.32	21.06
569.48	110.01
569.64	56.17
569.81	128.73
569.97	0.00
570.13	84.26
570.30	77.24
570.46	65.54
570.62	4.68
570.78	56.17
570.95	105.32
571.11	124.05
571.27	35.11
571.43	7.02
571.60	67.88
571.76	49.15
571.92	112.35
572.09	42.13
572.25	107.66
572.41	107.66
572.57	81.92
572.74	63.19
572.90	46.81
573.06	51.49
573.22	126.39
573.38	65.54
573.55	72.56
573.71	46.81
573.87	42.13
574.03	42.13
574.20	77.24
574.36	65.54
574.52	88.94
574.68	79.58
574.84	30.43
575.01	32.77
575.17	100.64
575.33	119.37
575.49	35.11
575.65	84.26
575.82	51.49
575.98	166.18
576.14	58.51
576.30	51.49
576.46	102.98
576.62	44.47
576.79	79.58
576.95	0.00
577.11	49.15
577.27	138.09
577.43	42.13
577.59	0.00
577.75	72.56
577.92	102.98
578.08	98.30
578.24	77.24
578.40	70.22
578.56	93.62
578.72	84.26
578.88	93.62
579.04	100.64
579.21	124.05
579.37	46.81
579.53	86.60
579.69	28.09
579.85	86.60
580.01	53.83
580.17	102.98
580.33	58.51
580.49	91.28
580.65	107.66
580.82	140.43
580.98	107.66
581.14	70.22
581.30	35.11
581.46	140.43
581.62	63.19
581.78	65.54
581.94	65.54
582.10	154.48
582.26	4.68
582.42	105.32
582.58	39.79
582.74	63.19
582.90	65.54
583.06	93.62
583.22	95.96
583.38	107.66
583.54	91.28
583.70	65.54
583.86	63.19
584.02	107.66
584.18	30.43
584.34	86.60
584.50	91.28
584.66	98.30
584.82	91.28
584.98	100.64
585.14	77.24
585.30	16.38
585.46	100.64
585.62	65.54
585.78	67.88
585.94	49.15
586.10	112.35
586.26	142.77
586.42	35.11
586.58	70.22
586.74	77.24
586.90	51.49
587.06	95.96
587.22	72.56
587.38	0.00
587.54	93.62
587.70	154.48
587.86	60.85
588.02	14.04
588.18	16.38
588.34	184.90
588.49	0.00
588.65	65.54
588.81	81.92
588.97	65.54
589.13	84.26
589.29	0.00
589.45	56.17
589.61	126.39
589.77	53.83
589.93	18.72
590.08	84.26
590.24	114.69
590.40	145.11
590.56	28.09
590.72	112.35
590.88	60.85
591.04	0.00
591.20	79.58
591.35	86.60
591.51	124.05
591.67	30.43
591.83	63.19
591.99	86.60
592.15	88.94
592.31	77.24
592.46	51.49
592.62	95.96
592.78	84.26
592.94	49.15
593.10	93.62
593.26	102.98
593.41	98.30
593.57	39.79
593.73	46.81
593.89	53.83
594.05	128.73
594.20	77.24
594.36	16.38
594.52	124.05
594.68	58.51
594.84	107.66
594.99	32.77
595.15	58.51
595.31	67.88
595.47	44.47
595.62	86.60
595.78	98.30
595.94	112.35
596.10	53.83
596.25	60.85
596.41	23.41
596.57	65.54
596.73	60.85
596.88	140.43
597.04	42.13
597.20	194.26
597.36	23.41
597.51	7.02
597.67	135.75
597.83	49.15
597.99	63.19
598.14	86.60
598.30	72.56
598.46	58.51
598.61	25.75
598.77	51.49
598.93	128.73
599.09	126.39
599.24	79.58
599.40	39.79
599.56	79.58
599.71	0.00
599.87	35.11
600.03	102.98
600.18	100.64
600.34	117.03
600.50	74.90
600.65	84.26
600.81	98.30
600.97	72.56
601.12	79.58
601.28	63.19
601.44	23.41
601.59	2.34
601.75	63.19
601.91	46.81
602.06	46.81
602.22	56.17
602.37	131.07
602.53	67.88
602.69	79.58
602.84	30.43
603.00	49.15
603.16	51.49
603.31	117.03
603.47	81.92
603.62	133.41
603.78	35.11
603.94	98.30
604.09	23.41
604.25	67.88
604.40	100.64
604.56	16.38
604.71	39.79
604.87	28.09
605.03	51.49
605.18	37.45
605.34	81.92
605.49	51.49
605.65	131.07
605.80	49.15
605.96	21.06
606.12	133.41
606.27	49.15
606.43	86.60
606.58	77.24
606.74	18.72
606.89	53.83
607.05	86.60
607.20	140.43
607.36	77.24
607.51	107.66
607.67	79.58
607.82	49.15
607.98	126.39
608.13	84.26
608.29	49.15
608.44	133.41
608.60	35.11
608.75	77.24
608.91	0.00
609.06	121.71
609.22	86.60
609.37	72.56
609.53	102.98
609.68	74.90
609.84	4.68
609.99	60.85
610.15	107.66
610.30	98.30
610.46	60.85
610.61	114.69
610.76	56.17
610.92	67.88
611.07	67.88
611.23	114.69
611.38	32.77
611.54	100.64
611.69	114.69
611.84	21.06
612.00	131.07
612.15	72.56
612.31	72.56
612.46	100.64
612.62	56.17
612.77	112.35
612.92	14.04
613.08	138.09
613.23	21.06
613.39	126.39
613.54	32.77
613.69	35.11
613.85	56.17
614.00	0.00
614.15	133.41
614.31	67.88
614.46	124.05
614.62	42.13
614.77	74.90
614.92	35.11
615.08	60.85
615.23	102.98
615.38	121.71
615.54	51.49
615.69	67.88
615.84	0.00
616.00	16.38
616.15	58.51
616.30	84.26
616.46	128.73
616.61	51.49
616.76	67.88
616.92	42.13
617.07	112.35
617.22	42.13
617.37	77.24
617.53	60.85
617.68	86.60
617.83	58.51
617.99	112.35
618.14	84.26
618.29	53.83
618.45	32.77
618.60	100.64
618.75	81.92
618.90	117.03
619.06	63.19
619.21	142.77
619.36	65.54
619.51	37.45
619.67	58.51
619.82	72.56
619.97	74.90
620.12	25.75
620.28	79.58
620.43	112.35
620.58	67.88
620.73	107.66
620.89	49.15
621.04	119.37
621.19	60.85
621.34	21.06
621.49	81.92
621.65	44.47
621.80	21.06
621.95	4.68
622.10	49.15
622.25	91.28
622.41	91.28
622.56	60.85
622.71	84.26
622.86	98.30
623.01	23.41
623.16	86.60
623.32	49.15
623.47	81.92
623.62	77.24
623.77	70.22
623.92	124.05
624.07	72.56
624.23	35.11
624.38	11.70
624.53	121.71
624.68	51.49
624.83	0.00
624.98	46.81
625.13	58.51
625.29	39.79
625.44	58.51
625.59	23.41
625.74	110.01
625.89	58.51
626.04	77.24
626.19	114.69
626.34	25.75
626.49	23.41
626.65	60.85
626.80	67.88
626.95	30.43
627.10	58.51
627.25	56.17
627.40	119.37
627.55	53.83
627.70	21.06
627.85	35.11
628.00	77.24
628.15	93.62
628.30	58.51
628.45	0.00
628.60	72.56
628.76	86.60
628.91	77.24
629.06	107.66
629.21	74.90
629.36	51.49
629.51	32.77
629.66	14.04
629.81	60.85
629.96	0.00
630.11	51.49
630.26	53.83
630.41	65.54
630.56	93.62
630.71	100.64
630.86	16.38
631.01	77.24
631.16	63.19
631.31	100.64
631.46	37.45
631.61	60.85
631.76	86.60
631.91	81.92
632.06	72.56
632.21	53.83
632.36	56.17
632.51	16.38
632.66	91.28
632.81	0.00
632.96	60.85
633.10	86.60
633.25	0.00
633.40	46.81
633.55	84.26
633.70	119.37
633.85	74.90
634.00	0.00
634.15	21.06
634.30	70.22
634.45	18.72
634.60	65.54
634.75	60.85
634.90	107.66
635.05	39.79
635.19	35.11
635.34	121.71
635.49	30.43
635.64	0.00
635.79	42.13
635.94	16.38
636.09	2.34
636.24	25.75
636.39	39.79
636.53	42.13
636.68	56.17
636.83	51.49
636.98	4.68
637.13	117.03
637.28	60.85
637.43	32.77
637.57	2.34
637.72	0.00
637.87	42.13
638.02	30.43
638.17	16.38
638.32	100.64
638.46	60.85
638.61	37.45
638.76	53.83
638.91	100.64
639.06	4.68
639.20	88.94
639.35	121.71
639.50	74.90
639.65	63.19
639.80	51.49
639.94	11.70
640.09	21.06
640.24	39.79
640.39	70.22
640.54	79.58
640.68	44.47
640.83	39.79
640.98	28.09
641.13	25.75
641.27	35.11
641.42	117.03
641.57	0.00
641.72	46.81
641.86	88.94
642.01	65.54
642.16	88.94
642.31	37.45
642.45	32.77
642.60	77.24
642.75	77.24
642.90	180.22
643.04	74.90
643.19	98.30
643.34	95.96
643.48	30.43
643.63	79.58
643.78	11.70
643.93	46.81
644.07	35.11
644.22	49.15
644.37	74.90
644.51	49.15
644.66	23.41
644.81	58.51
644.95	30.43
645.10	14.04
645.25	53.83
645.39	102.98
645.54	39.79
645.69	49.15
645.83	53.83
645.98	60.85
646.13	51.49
646.27	0.00
646.42	51.49
646.57	51.49
646.71	56.17
646.86	91.28
647.00	37.45
647.15	0.00
647.30	0.00
647.44	23.41
647.59	14.04
647.74	74.90
647.88	0.00
648.03	114.69
648.17	0.00
648.32	37.45
648.47	124.05
648.61	25.75
648.76	0.00
648.90	65.54
649.05	58.51
649.20	60.85
649.34	11.70
649.49	23.41
649.63	25.75
649.78	91.28
649.92	67.88
650.07	49.15
650.21	91.28
650.36	0.00
650.51	0.00
650.65	39.79
650.80	0.00
650.94	93.62
651.09	100.64
651.23	65.54
651.38	67.88
651.52	77.24
651.67	79.58
651.81	28.09
651.96	39.79
652.10	117.03
652.25	84.26
652.39	28.09
652.54	107.66
652.68	32.77
652.83	11.70
652.97	93.62
653.12	46.81
653.26	53.83
653.41	72.56
653.55	35.11
653.70	42.13
653.84	63.19
653.99	84.26
654.13	63.19
654.27	56.17
654.42	25.75
654.56	0.00
654.71	16.38
654.85	18.72
655.00	77.24
655.14	102.98
655.29	117.03
655.43	9.36
655.57	58.51
655.72	0.00
655.86	39.79
656.01	42.13
656.15	60.85
656.30	56.17
656.44	46.81
656.58	98.30
656.73	53.83
656.87	74.90
657.01	51.49
657.16	0.00
657.30	28.09
657.45	18.72
657.59	110.01
657.73	70.22
657.88	110.01
658.02	131.07
658.16	37.45
658.31	0.00
658.45	58.51
658.60	65.54
658.74	32.77
658.88	88.94
659.03	28.09
659.17	142.77
659.31	145.11
659.46	93.62
659.60	84.26
659.74	18.72
659.89	4.68
660.03	0.00
660.17	44.47
660.32	28.09
660.46	35.11
660.60	9.36
660.74	42.13
660.89	0.00
661.03	30.43
661.17	60.85
661.32	133.41
661.46	51.49
661.60	42.13
661.74	42.13
661.89	100.64
662.03	60.85
662.17	77.24
662.31	86.60
662.46	70.22
662.60	23.41
662.74	0.00
662.88	110.01
663.03	53.83
663.17	23.41
663.31	37.45
663.45	0.00
663.60	0.00
663.74	39.79
663.88	105.32
664.02	0.00
664.17	21.06
664.31	100.64
664.45	7.02
664.59	18.72
664.73	0.00
664.88	93.62
665.02	70.22
665.16	28.09
665.30	9.36
665.44	53.83
665.59	88.94
665.73	49.15
665.87	0.00
666.01	35.11
666.15	53.83
666.29	0.00
666.44	0.00
666.58	35.11
666.72	18.72
666.86	37.45
667.00	81.92
667.14	46.81
667.28	49.15
667.43	105.32
667.57	86.60
667.71	67.88
667.85	30.43
667.99	114.69
668.13	46.81
668.27	56.17
668.41	37.45
668.56	93.62
668.70	23.41
668.84	21.06
668.98	0.00
669.12	35.11
669.26	35.11
669.40	100.64
669.54	112.35
669.68	124.05
669.82	9.36
669.96	11.70
670.10	74.90
670.25	72.56
670.39	67.88
670.53	72.56
670.67	93.62
670.81	63.19
670.95	63.19
671.09	44.47
671.23	58.51
671.37	2.34
671.51	49.15
671.65	39.79
671.79	70.22
671.93	51.49
672.07	42.13
672.21	25.75
672.35	63.19
672.49	37.45
672.63	95.96
672.77	37.45
672.91	51.49
673.05	117.03
673.19	53.83
673.33	21.06
673.47	51.49
673.61	51.49
673.75	0.00
673.89	65.54
674.03	93.62
674.17	14.04
674.31	39.79
674.45	28.09
674.59	67.88
674.73	23.41
674.87	18.72
675.01	39.79
675.15	149.79
675.29	32.77
675.43	11.70
675.56	63.19
675.70	93.62
675.84	65.54
675.98	30.43
676.12	74.90
676.26	42.13
676.40	23.41
676.54	2.34
676.68	105.32
676.82	21.06
676.96	65.54
677.10	81.92
677.23	56.17
677.37	21.06
677.51	44.47
677.65	93.62
677.79	39.79
677.93	67.88
678.07	67.88
678.21	51.49
678.34	0.00
678.48	77.24
678.62	121.71
678.76	149.79
678.90	107.66
679.04	58.51
679.18	65.54
679.31	0.00
679.45	39.79
679.59	0.00
679.73	46.81
679.87	2.34
680.00	42.13
680.14	28.09
680.28	42.13
680.42	37.45
680.56	72.56
680.70	25.75
680.83	81.92
680.97	4.68
681.11	9.36
681.25	46.81
681.39	35.11
681.52	0.00
681.66	0.00
681.80	28.09
681.94	126.39
682.07	93.62
682.21	0.00
682.35	0.00
682.49	44.47
682.62	60.85
682.76	93.62
682.90	42.13
683.04	0.00
683.17	58.51
683.31	102.98
683.45	25.75
683.59	49.15
683.72	93.62
683.86	84.26
684.00	91.28
684.13	0.00
684.27	53.83
684.41	14.04
684.55	0.00
684.68	16.38
684.82	74.90
684.96	44.47
685.09	63.19
685.23	14.04
685.37	135.75
685.50	18.72
685.64	65.54
685.78	25.75
685.91	35.11
686.05	42.13
686.19	21.06
686.32	0.00
686.46	84.26
686.60	35.11
686.73	65.54
686.87	49.15
687.01	51.49
687.14	35.11
687.28	81.92
687.42	39.79
687.55	65.54
687.69	72.56
687.82	0.00
687.96	72.56
688.10	74.90
688.23	0.00
688.37	0.00
688.50	56.17
688.64	0.00
688.78	9.36
688.91	46.81
689.05	30.43
689.18	0.00
689.32	67.88
689.46	131.07
689.59	0.00
689.73	25.75
689.86	32.77
690.00	51.49
690.13	44.47
690.27	121.71
690.41	35.11
690.54	25.75
690.68	46.81
690.81	79.58
690.95	37.45
691.08	30.43
691.22	30.43
691.35	16.38
691.49	51.49
691.62	112.35
691.76	49.15
691.89	16.38
692.03	28.09
692.16	51.49
692.30	58.51
692.43	44.47
692.57	32.77
692.70	105.32
692.84	93.62
692.97	128.73
693.11	9.36
693.24	18.72
693.38	42.13
693.51	65.54
693.65	91.28
693.78	0.00
693.92	65.54
694.05	70.22
694.19	0.00
694.32	4.68
694.45	28.09
694.59	21.06
694.72	95.96
694.86	42.13
694.99	32.77
695.13	67.88
695.26	88.94
695.39	0.00
695.53	0.00
695.66	0.00
695.80	0.00
695.93	23.41
696.07	53.83
696.20	46.81
696.33	49.15
696.47	46.81
696.60	49.15
696.73	60.85
696.87	4.68
697.00	32.77
697.14	63.19
697.27	9.36
697.40	70.22
697.54	25.75
697.67	37.45
697.80	2.34
697.94	65.54
698.07	0.00
698.21	67.88
698.34	28.09
698.47	44.47
698.61	30.43
698.74	2.34
698.87	7.02
699.01	32.77
699.14	65.54
699.27	14.04
699.40	42.13
699.54	49.15
699.67	60.85
699.80	2.34
699.94	0.00
700.07	70.22
700.20	0.00
700.34	0.00
700.47	37.45
700.60	39.79
700.73	14.04
700.87	0.00
701.00	35.11
701.13	0.00
701.26	11.70
701.40	37.45
701.53	107.66
701.66	63.19
701.79	0.00
701.93	25.75
702.06	28.09
702.19	21.06
702.32	58.51
702.46	37.45
702.59	88.94
702.72	25.75
702.85	0.00
702.99	86.60
703.12	53.83
703.25	14.04
703.38	102.98
703.51	42.13
703.65	88.94
703.78	58.51
703.91	37.45
704.04	0.00
704.17	14.04
704.31	28.09
704.44	28.09
704.57	0.00
704.70	9.36
704.83	14.04
704.96	93.62
705.10	0.00
705.23	56.17
>>>>>End Processed Spectral Data<<<<<
