SpectraSuite Data File
++++++++++++++++++++++++++++++++++++
Date: Fri Oct 04 12:13:42 GMT-05:00 2013
User: price-jones
Dark Spectrum Present: No
Reference Spectrum Present: No
Number of Sampled Component Spectra: 1
Spectrometers: USB2+H05261
Integration Time (usec): 10000 (USB2+H05261)
Spectra Averaged: 1 (USB2+H05261)
Boxcar Smoothing: 0 (USB2+H05261)
Correct for Electrical Dark: No (USB2+H05261)
Strobe/Lamp Enabled: No (USB2+H05261)
Correct for Detector Non-linearity: No (USB2+H05261)
Correct for Stray Light: No (USB2+H05261)
Number of Pixels in Processed Spectrum: 2048
>>>>>Begin Processed Spectral Data<<<<<
365.73	0.00
365.92	0.00
366.12	0.00
366.32	0.00
366.52	0.00
366.72	0.00
366.91	0.00
367.11	0.00
367.31	0.00
367.51	0.00
367.70	0.00
367.90	0.00
368.10	0.00
368.30	0.00
368.49	0.00
368.69	0.00
368.89	0.00
369.09	0.00
369.28	0.00
369.48	0.00
369.68	0.00
369.87	0.00
370.07	0.00
370.27	0.00
370.47	0.00
370.66	0.00
370.86	0.00
371.06	32.77
371.25	0.00
371.45	0.00
371.65	4.68
371.84	7.02
372.04	0.00
372.24	37.45
372.44	49.15
372.63	0.00
372.83	46.81
373.03	11.70
373.22	117.03
373.42	14.04
373.62	37.45
373.81	23.41
374.01	14.04
374.21	4.68
374.40	46.81
374.60	70.22
374.79	0.00
374.99	0.00
375.19	70.22
375.38	44.47
375.58	11.70
375.78	30.43
375.97	84.26
376.17	0.00
376.37	37.45
376.56	0.00
376.76	0.00
376.95	56.17
377.15	28.09
377.35	0.00
377.54	0.00
377.74	56.17
377.93	39.79
378.13	32.77
378.33	42.13
378.52	11.70
378.72	11.70
378.91	0.00
379.11	56.17
379.31	42.13
379.50	51.49
379.70	2.34
379.89	11.70
380.09	56.17
380.28	0.00
380.48	58.51
380.68	102.98
380.87	14.04
381.07	32.77
381.26	0.00
381.46	0.00
381.65	37.45
381.85	100.64
382.04	60.85
382.24	42.13
382.43	49.15
382.63	0.00
382.83	23.41
383.02	2.34
383.22	60.85
383.41	39.79
383.61	0.00
383.80	14.04
384.00	0.00
384.19	95.96
384.39	35.11
384.58	30.43
384.78	0.00
384.97	0.00
385.17	0.00
385.36	58.51
385.56	100.64
385.75	0.00
385.95	18.72
386.14	32.77
386.34	32.77
386.53	28.09
386.72	18.72
386.92	0.00
387.11	77.24
387.31	58.51
387.50	16.38
387.70	21.06
387.89	37.45
388.09	84.26
388.28	23.41
388.48	56.17
388.67	7.02
388.86	0.00
389.06	2.34
389.25	21.06
389.45	23.41
389.64	60.85
389.84	42.13
390.03	30.43
390.22	2.34
390.42	0.00
390.61	25.75
390.81	21.06
391.00	0.00
391.19	32.77
391.39	0.00
391.58	46.81
391.78	0.00
391.97	63.19
392.16	21.06
392.36	21.06
392.55	21.06
392.75	0.00
392.94	0.00
393.13	70.22
393.33	35.11
393.52	70.22
393.71	28.09
393.91	70.22
394.10	25.75
394.29	0.00
394.49	30.43
394.68	30.43
394.88	0.00
395.07	42.13
395.26	60.85
395.46	0.00
395.65	42.13
395.84	77.24
396.04	77.24
396.23	0.00
396.42	25.75
396.62	16.38
396.81	0.00
397.00	32.77
397.19	37.45
397.39	18.72
397.58	4.68
397.77	0.00
397.97	0.00
398.16	72.56
398.35	42.13
398.55	30.43
398.74	35.11
398.93	23.41
399.12	23.41
399.32	60.85
399.51	16.38
399.70	95.96
399.90	28.09
400.09	67.88
400.28	65.54
400.47	65.54
400.67	67.88
400.86	30.43
401.05	28.09
401.24	70.22
401.44	35.11
401.63	39.79
401.82	51.49
402.01	60.85
402.21	28.09
402.40	100.64
402.59	84.26
402.78	25.75
402.97	16.38
403.17	0.00
403.36	56.17
403.55	74.90
403.74	0.00
403.93	14.04
404.13	23.41
404.32	0.00
404.51	18.72
404.70	4.68
404.89	0.00
405.09	49.15
405.28	42.13
405.47	49.15
405.66	39.79
405.85	42.13
406.05	25.75
406.24	21.06
406.43	21.06
406.62	30.43
406.81	51.49
407.00	32.77
407.20	0.00
407.39	46.81
407.58	18.72
407.77	11.70
407.96	11.70
408.15	46.81
408.34	28.09
408.54	44.47
408.73	72.56
408.92	51.49
409.11	28.09
409.30	23.41
409.49	7.02
409.68	74.90
409.87	0.00
410.07	0.00
410.26	67.88
410.45	65.54
410.64	84.26
410.83	86.60
411.02	72.56
411.21	23.41
411.40	72.56
411.59	110.01
411.78	56.17
411.98	2.34
412.17	63.19
412.36	63.19
412.55	14.04
412.74	0.00
412.93	44.47
413.12	60.85
413.31	0.00
413.50	37.45
413.69	102.98
413.88	30.43
414.07	51.49
414.26	42.13
414.45	11.70
414.64	56.17
414.83	28.09
415.02	0.00
415.22	23.41
415.41	32.77
415.60	23.41
415.79	30.43
415.98	81.92
416.17	91.28
416.36	23.41
416.55	65.54
416.74	0.00
416.93	53.83
417.12	4.68
417.31	0.00
417.50	2.34
417.69	98.30
417.88	51.49
418.07	32.77
418.26	49.15
418.45	51.49
418.64	42.13
418.83	60.85
419.02	21.06
419.21	18.72
419.39	25.75
419.58	32.77
419.77	25.75
419.96	7.02
420.15	84.26
420.34	63.19
420.53	35.11
420.72	32.77
420.91	102.98
421.10	56.17
421.29	11.70
421.48	81.92
421.67	42.13
421.86	11.70
422.05	79.58
422.24	32.77
422.43	100.64
422.61	18.72
422.80	0.00
422.99	30.43
423.18	37.45
423.37	2.34
423.56	81.92
423.75	42.13
423.94	0.00
424.13	81.92
424.32	0.00
424.50	51.49
424.69	63.19
424.88	0.00
425.07	81.92
425.26	30.43
425.45	88.94
425.64	0.00
425.83	88.94
426.01	79.58
426.20	56.17
426.39	16.38
426.58	56.17
426.77	107.66
426.96	70.22
427.15	11.70
427.33	53.83
427.52	79.58
427.71	65.54
427.90	72.56
428.09	60.85
428.28	53.83
428.46	77.24
428.65	0.00
428.84	39.79
429.03	23.41
429.22	23.41
429.40	0.00
429.59	18.72
429.78	74.90
429.97	23.41
430.16	30.43
430.34	58.51
430.53	65.54
430.72	88.94
430.91	98.30
431.10	128.73
431.28	95.96
431.47	63.19
431.66	42.13
431.85	16.38
432.03	2.34
432.22	58.51
432.41	28.09
432.60	42.13
432.79	7.02
432.97	65.54
433.16	74.90
433.35	0.00
433.54	119.37
433.72	0.00
433.91	39.79
434.10	91.28
434.28	79.58
434.47	0.00
434.66	81.92
434.85	49.15
435.03	77.24
435.22	14.04
435.41	51.49
435.59	0.00
435.78	39.79
435.97	0.00
436.16	30.43
436.34	77.24
436.53	79.58
436.72	30.43
436.90	60.85
437.09	65.54
437.28	79.58
437.46	39.79
437.65	42.13
437.84	95.96
438.02	28.09
438.21	25.75
438.40	25.75
438.58	14.04
438.77	63.19
438.96	79.58
439.14	84.26
439.33	30.43
439.52	93.62
439.70	0.00
439.89	173.20
440.08	107.66
440.26	79.58
440.45	65.54
440.63	56.17
440.82	114.69
441.01	32.77
441.19	53.83
441.38	18.72
441.57	49.15
441.75	117.03
441.94	72.56
442.12	18.72
442.31	86.60
442.50	100.64
442.68	42.13
442.87	4.68
443.05	58.51
443.24	30.43
443.43	35.11
443.61	0.00
443.80	39.79
443.98	0.00
444.17	39.79
444.35	74.90
444.54	56.17
444.73	67.88
444.91	44.47
445.10	51.49
445.28	37.45
445.47	30.43
445.65	67.88
445.84	74.90
446.02	88.94
446.21	9.36
446.39	56.17
446.58	0.00
446.77	65.54
446.95	79.58
447.14	58.51
447.32	23.41
447.51	53.83
447.69	30.43
447.88	30.43
448.06	0.00
448.25	42.13
448.43	2.34
448.62	44.47
448.80	110.01
448.99	60.85
449.17	131.07
449.36	30.43
449.54	114.69
449.73	51.49
449.91	74.90
450.10	37.45
450.28	46.81
450.46	16.38
450.65	25.75
450.83	44.47
451.02	56.17
451.20	0.00
451.39	65.54
451.57	42.13
451.76	37.45
451.94	77.24
452.13	0.00
452.31	21.06
452.49	74.90
452.68	39.79
452.86	95.96
453.05	30.43
453.23	60.85
453.42	53.83
453.60	42.13
453.78	60.85
453.97	2.34
454.15	95.96
454.34	58.51
454.52	74.90
454.70	21.06
454.89	39.79
455.07	117.03
455.26	49.15
455.44	14.04
455.62	53.83
455.81	84.26
455.99	102.98
456.17	51.49
456.36	0.00
456.54	88.94
456.73	112.35
456.91	18.72
457.09	77.24
457.28	49.15
457.46	74.90
457.64	30.43
457.83	42.13
458.01	25.75
458.19	81.92
458.38	25.75
458.56	51.49
458.74	51.49
458.93	51.49
459.11	56.17
459.29	110.01
459.48	138.09
459.66	95.96
459.84	42.13
460.03	117.03
460.21	32.77
460.39	37.45
460.57	0.00
460.76	95.96
460.94	102.98
461.12	65.54
461.31	65.54
461.49	0.00
461.67	79.58
461.85	114.69
462.04	49.15
462.22	93.62
462.40	53.83
462.59	72.56
462.77	0.00
462.95	72.56
463.13	37.45
463.32	124.05
463.50	44.47
463.68	70.22
463.86	56.17
464.05	42.13
464.23	79.58
464.41	67.88
464.59	65.54
464.78	77.24
464.96	9.36
465.14	21.06
465.32	0.00
465.50	88.94
465.69	35.11
465.87	79.58
466.05	145.11
466.23	91.28
466.41	4.68
466.60	98.30
466.78	42.13
466.96	60.85
467.14	42.13
467.32	30.43
467.51	58.51
467.69	7.02
467.87	30.43
468.05	117.03
468.23	95.96
468.41	74.90
468.60	91.28
468.78	63.19
468.96	95.96
469.14	46.81
469.32	124.05
469.50	100.64
469.69	86.60
469.87	25.75
470.05	70.22
470.23	49.15
470.41	37.45
470.59	88.94
470.77	51.49
470.95	0.00
471.14	53.83
471.32	14.04
471.50	0.00
471.68	9.36
471.86	72.56
472.04	105.32
472.22	14.04
472.40	37.45
472.58	72.56
472.77	39.79
472.95	88.94
473.13	46.81
473.31	81.92
473.49	63.19
473.67	81.92
473.85	67.88
474.03	44.47
474.21	58.51
474.39	65.54
474.57	70.22
474.75	91.28
474.93	0.00
475.12	65.54
475.30	53.83
475.48	39.79
475.66	88.94
475.84	72.56
476.02	44.47
476.20	84.26
476.38	112.35
476.56	28.09
476.74	32.77
476.92	105.32
477.10	7.02
477.28	74.90
477.46	46.81
477.64	70.22
477.82	72.56
478.00	39.79
478.18	4.68
478.36	79.58
478.54	91.28
478.72	39.79
478.90	112.35
479.08	32.77
479.26	37.45
479.44	0.00
479.62	53.83
479.80	98.30
479.98	23.41
480.16	25.75
480.34	70.22
480.52	63.19
480.70	77.24
480.88	81.92
481.06	0.00
481.24	65.54
481.41	56.17
481.59	65.54
481.77	58.51
481.95	65.54
482.13	44.47
482.31	107.66
482.49	18.72
482.67	84.26
482.85	65.54
483.03	117.03
483.21	18.72
483.39	98.30
483.57	88.94
483.74	110.01
483.92	107.66
484.10	28.09
484.28	105.32
484.46	35.11
484.64	56.17
484.82	93.62
485.00	86.60
485.18	81.92
485.35	95.96
485.53	37.45
485.71	70.22
485.89	65.54
486.07	121.71
486.25	86.60
486.43	88.94
486.61	91.28
486.78	35.11
486.96	119.37
487.14	72.56
487.32	42.13
487.50	72.56
487.68	0.00
487.85	18.72
488.03	100.64
488.21	60.85
488.39	23.41
488.57	95.96
488.75	107.66
488.92	72.56
489.10	95.96
489.28	79.58
489.46	70.22
489.64	9.36
489.81	86.60
489.99	81.92
490.17	93.62
490.35	84.26
490.53	51.49
490.70	0.00
490.88	74.90
491.06	74.90
491.24	72.56
491.41	95.96
491.59	60.85
491.77	70.22
491.95	67.88
492.13	70.22
492.30	77.24
492.48	49.15
492.66	86.60
492.84	98.30
493.01	53.83
493.19	95.96
493.37	93.62
493.54	67.88
493.72	79.58
493.90	46.81
494.08	84.26
494.25	131.07
494.43	58.51
494.61	21.06
494.79	70.22
494.96	46.81
495.14	74.90
495.32	102.98
495.49	51.49
495.67	126.39
495.85	95.96
496.02	0.00
496.20	124.05
496.38	138.09
496.55	0.00
496.73	28.09
496.91	63.19
497.09	63.19
497.26	67.88
497.44	93.62
497.62	67.88
497.79	74.90
497.97	107.66
498.14	65.54
498.32	9.36
498.50	70.22
498.67	81.92
498.85	46.81
499.03	117.03
499.20	37.45
499.38	117.03
499.56	72.56
499.73	53.83
499.91	128.73
500.08	114.69
500.26	51.49
500.44	98.30
500.61	51.49
500.79	81.92
500.97	84.26
501.14	60.85
501.32	23.41
501.49	37.45
501.67	63.19
501.84	88.94
502.02	93.62
502.20	86.60
502.37	79.58
502.55	86.60
502.72	140.43
502.90	112.35
503.07	46.81
503.25	91.28
503.43	126.39
503.60	58.51
503.78	30.43
503.95	60.85
504.13	159.16
504.30	138.09
504.48	0.00
504.65	100.64
504.83	67.88
505.01	105.32
505.18	128.73
505.36	86.60
505.53	126.39
505.71	135.75
505.88	131.07
506.06	105.32
506.23	77.24
506.41	0.00
506.58	166.18
506.76	138.09
506.93	93.62
507.11	117.03
507.28	49.15
507.46	152.13
507.63	67.88
507.81	93.62
507.98	95.96
508.16	46.81
508.33	65.54
508.50	72.56
508.68	102.98
508.85	46.81
509.03	98.30
509.20	102.98
509.38	105.32
509.55	74.90
509.73	102.98
509.90	119.37
510.08	81.92
510.25	110.01
510.42	72.56
510.60	0.00
510.77	39.79
510.95	95.96
511.12	112.35
511.30	0.00
511.47	49.15
511.64	128.73
511.82	23.41
511.99	81.92
512.17	100.64
512.34	0.00
512.51	63.19
512.69	84.26
512.86	72.56
513.04	67.88
513.21	51.49
513.38	58.51
513.56	32.77
513.73	44.47
513.90	105.32
514.08	65.54
514.25	147.45
514.43	88.94
514.60	117.03
514.77	112.35
514.95	138.09
515.12	98.30
515.29	131.07
515.47	95.96
515.64	124.05
515.81	42.13
515.99	121.71
516.16	65.54
516.33	53.83
516.51	16.38
516.68	98.30
516.85	107.66
517.03	63.19
517.20	88.94
517.37	140.43
517.54	56.17
517.72	21.06
517.89	65.54
518.06	30.43
518.24	30.43
518.41	156.82
518.58	65.54
518.75	98.30
518.93	86.60
519.10	142.77
519.27	42.13
519.45	88.94
519.62	98.30
519.79	98.30
519.96	105.32
520.14	58.51
520.31	119.37
520.48	0.00
520.65	124.05
520.83	42.13
521.00	84.26
521.17	28.09
521.34	84.26
521.52	39.79
521.69	105.32
521.86	159.16
522.03	126.39
522.20	11.70
522.38	7.02
522.55	117.03
522.72	135.75
522.89	81.92
523.07	117.03
523.24	72.56
523.41	56.17
523.58	35.11
523.75	7.02
523.92	86.60
524.10	72.56
524.27	42.13
524.44	65.54
524.61	102.98
524.78	46.81
524.96	124.05
525.13	74.90
525.30	72.56
525.47	133.41
525.64	70.22
525.81	60.85
525.98	154.48
526.16	46.81
526.33	88.94
526.50	95.96
526.67	74.90
526.84	110.01
527.01	119.37
527.18	114.69
527.36	126.39
527.53	30.43
527.70	44.47
527.87	79.58
528.04	102.98
528.21	124.05
528.38	159.16
528.55	39.79
528.72	95.96
528.89	84.26
529.07	44.47
529.24	67.88
529.41	138.09
529.58	145.11
529.75	131.07
529.92	95.96
530.09	93.62
530.26	117.03
530.43	84.26
530.60	63.19
530.77	72.56
530.94	70.22
531.11	46.81
531.28	60.85
531.46	65.54
531.63	79.58
531.80	81.92
531.97	128.73
532.14	98.30
532.31	21.06
532.48	91.28
532.65	88.94
532.82	166.18
532.99	98.30
533.16	102.98
533.33	128.73
533.50	93.62
533.67	135.75
533.84	107.66
534.01	119.37
534.18	35.11
534.35	93.62
534.52	117.03
534.69	58.51
534.86	53.83
535.03	100.64
535.20	93.62
535.37	49.15
535.54	63.19
535.71	74.90
535.88	58.51
536.05	147.45
536.22	161.50
536.38	95.96
536.55	67.88
536.72	91.28
536.89	56.17
537.06	84.26
537.23	86.60
537.40	100.64
537.57	95.96
537.74	114.69
537.91	81.92
538.08	142.77
538.25	79.58
538.42	107.66
538.59	107.66
538.75	88.94
538.92	56.17
539.09	70.22
539.26	60.85
539.43	126.39
539.60	121.71
539.77	138.09
539.94	105.32
540.11	49.15
540.28	107.66
540.44	44.47
540.61	84.26
540.78	98.30
540.95	65.54
541.12	67.88
541.29	60.85
541.46	142.77
541.62	63.19
541.79	74.90
541.96	44.47
542.13	63.19
542.30	70.22
542.47	154.48
542.63	81.92
542.80	84.26
542.97	39.79
543.14	84.26
543.31	37.45
543.48	37.45
543.64	74.90
543.81	93.62
543.98	142.77
544.15	18.72
544.32	105.32
544.48	121.71
544.65	135.75
544.82	70.22
544.99	9.36
545.16	67.88
545.32	112.35
545.49	79.58
545.66	138.09
545.83	100.64
546.00	86.60
546.16	53.83
546.33	77.24
546.50	67.88
546.67	114.69
546.83	119.37
547.00	79.58
547.17	53.83
547.34	77.24
547.50	105.32
547.67	53.83
547.84	39.79
548.00	117.03
548.17	74.90
548.34	88.94
548.51	124.05
548.67	72.56
548.84	98.30
549.01	44.47
549.18	44.47
549.34	72.56
549.51	126.39
549.68	110.01
549.84	11.70
550.01	84.26
550.18	60.85
550.34	51.49
550.51	42.13
550.68	67.88
550.84	72.56
551.01	131.07
551.18	81.92
551.34	112.35
551.51	53.83
551.68	161.50
551.84	100.64
552.01	98.30
552.18	23.41
552.34	58.51
552.51	0.00
552.68	135.75
552.84	67.88
553.01	98.30
553.18	81.92
553.34	117.03
553.51	154.48
553.67	100.64
553.84	105.32
554.01	42.13
554.17	86.60
554.34	65.54
554.51	107.66
554.67	84.26
554.84	42.13
555.00	112.35
555.17	128.73
555.33	46.81
555.50	7.02
555.67	51.49
555.83	70.22
556.00	32.77
556.16	124.05
556.33	112.35
556.50	138.09
556.66	25.75
556.83	49.15
556.99	93.62
557.16	88.94
557.32	7.02
557.49	86.60
557.65	88.94
557.82	107.66
557.98	58.51
558.15	81.92
558.32	51.49
558.48	93.62
558.65	65.54
558.81	65.54
558.98	18.72
559.14	67.88
559.31	95.96
559.47	23.41
559.64	44.47
559.80	67.88
559.97	117.03
560.13	30.43
560.30	95.96
560.46	53.83
560.63	81.92
560.79	72.56
560.96	91.28
561.12	60.85
561.29	4.68
561.45	77.24
561.61	105.32
561.78	121.71
561.94	60.85
562.11	112.35
562.27	112.35
562.44	23.41
562.60	72.56
562.77	72.56
562.93	79.58
563.10	100.64
563.26	110.01
563.42	135.75
563.59	93.62
563.75	98.30
563.92	105.32
564.08	95.96
564.24	88.94
564.41	119.37
564.57	56.17
564.74	67.88
564.90	138.09
565.07	86.60
565.23	60.85
565.39	84.26
565.56	135.75
565.72	42.13
565.88	67.88
566.05	42.13
566.21	149.79
566.38	98.30
566.54	98.30
566.70	79.58
566.87	154.48
567.03	114.69
567.19	189.58
567.36	98.30
567.52	63.19
567.68	79.58
567.85	39.79
568.01	67.88
568.17	67.88
568.34	98.30
568.50	140.43
568.66	117.03
568.83	58.51
568.99	37.45
569.15	25.75
569.32	128.73
569.48	56.17
569.64	53.83
569.81	16.38
569.97	60.85
570.13	42.13
570.30	58.51
570.46	84.26
570.62	88.94
570.78	72.56
570.95	46.81
571.11	39.79
571.27	98.30
571.43	119.37
571.60	74.90
571.76	72.56
571.92	135.75
572.09	67.88
572.25	46.81
572.41	154.48
572.57	100.64
572.74	93.62
572.90	121.71
573.06	114.69
573.22	93.62
573.38	58.51
573.55	44.47
573.71	105.32
573.87	32.77
574.03	117.03
574.20	74.90
574.36	133.41
574.52	67.88
574.68	60.85
574.84	84.26
575.01	46.81
575.17	121.71
575.33	37.45
575.49	56.17
575.65	65.54
575.82	95.96
575.98	124.05
576.14	170.86
576.30	93.62
576.46	42.13
576.62	102.98
576.79	91.28
576.95	21.06
577.11	67.88
577.27	42.13
577.43	39.79
577.59	67.88
577.75	0.00
577.92	56.17
578.08	4.68
578.24	124.05
578.40	23.41
578.56	100.64
578.72	44.47
578.88	37.45
579.04	42.13
579.21	79.58
579.37	72.56
579.53	42.13
579.69	131.07
579.85	51.49
580.01	93.62
580.17	46.81
580.33	67.88
580.49	63.19
580.65	77.24
580.82	119.37
580.98	159.16
581.14	100.64
581.30	81.92
581.46	142.77
581.62	81.92
581.78	124.05
581.94	63.19
582.10	56.17
582.26	9.36
582.42	58.51
582.58	56.17
582.74	44.47
582.90	86.60
583.06	56.17
583.22	18.72
583.38	128.73
583.54	18.72
583.70	58.51
583.86	91.28
584.02	37.45
584.18	70.22
584.34	105.32
584.50	49.15
584.66	63.19
584.82	119.37
584.98	67.88
585.14	28.09
585.30	60.85
585.46	37.45
585.62	0.00
585.78	95.96
585.94	72.56
586.10	72.56
586.26	0.00
586.42	81.92
586.58	65.54
586.74	79.58
586.90	56.17
587.06	56.17
587.22	84.26
587.38	60.85
587.54	79.58
587.70	112.35
587.86	86.60
588.02	126.39
588.18	67.88
588.34	70.22
588.49	81.92
588.65	51.49
588.81	74.90
588.97	35.11
589.13	102.98
589.29	88.94
589.45	44.47
589.61	35.11
589.77	63.19
589.93	107.66
590.08	98.30
590.24	124.05
590.40	91.28
590.56	91.28
590.72	110.01
590.88	117.03
591.04	88.94
591.20	44.47
591.35	170.86
591.51	107.66
591.67	63.19
591.83	30.43
591.99	74.90
592.15	114.69
592.31	49.15
592.46	42.13
592.62	126.39
592.78	81.92
592.94	23.41
593.10	14.04
593.26	46.81
593.41	107.66
593.57	98.30
593.73	32.77
593.89	56.17
594.05	110.01
594.20	91.28
594.36	84.26
594.52	63.19
594.68	88.94
594.84	74.90
594.99	18.72
595.15	0.00
595.31	30.43
595.47	135.75
595.62	60.85
595.78	128.73
595.94	84.26
596.10	65.54
596.25	42.13
596.41	98.30
596.57	72.56
596.73	53.83
596.88	21.06
597.04	93.62
597.20	131.07
597.36	21.06
597.51	74.90
597.67	98.30
597.83	91.28
597.99	67.88
598.14	74.90
598.30	37.45
598.46	42.13
598.61	72.56
598.77	114.69
598.93	16.38
599.09	102.98
599.24	93.62
599.40	25.75
599.56	107.66
599.71	91.28
599.87	98.30
600.03	46.81
600.18	42.13
600.34	88.94
600.50	0.00
600.65	161.50
600.81	46.81
600.97	53.83
601.12	21.06
601.28	58.51
601.44	93.62
601.59	51.49
601.75	110.01
601.91	21.06
602.06	30.43
602.22	28.09
602.37	53.83
602.53	105.32
602.69	0.00
602.84	88.94
603.00	56.17
603.16	70.22
603.31	107.66
603.47	16.38
603.62	0.00
603.78	70.22
603.94	49.15
604.09	49.15
604.25	91.28
604.40	65.54
604.56	0.00
604.71	102.98
604.87	86.60
605.03	126.39
605.18	35.11
605.34	44.47
605.49	14.04
605.65	105.32
605.80	11.70
605.96	107.66
606.12	72.56
606.27	156.82
606.43	102.98
606.58	117.03
606.74	49.15
606.89	77.24
607.05	63.19
607.20	81.92
607.36	46.81
607.51	98.30
607.67	11.70
607.82	67.88
607.98	70.22
608.13	51.49
608.29	53.83
608.44	81.92
608.60	14.04
608.75	133.41
608.91	133.41
609.06	100.64
609.22	88.94
609.37	149.79
609.53	44.47
609.68	0.00
609.84	117.03
609.99	44.47
610.15	72.56
610.30	105.32
610.46	117.03
610.61	49.15
610.76	37.45
610.92	67.88
611.07	18.72
611.23	39.79
611.38	42.13
611.54	65.54
611.69	105.32
611.84	37.45
612.00	9.36
612.15	46.81
612.31	110.01
612.46	49.15
612.62	11.70
612.77	95.96
612.92	4.68
613.08	65.54
613.23	46.81
613.39	49.15
613.54	102.98
613.69	23.41
613.85	9.36
614.00	128.73
614.15	93.62
614.31	46.81
614.46	65.54
614.62	53.83
614.77	46.81
614.92	102.98
615.08	91.28
615.23	105.32
615.38	70.22
615.54	67.88
615.69	124.05
615.84	140.43
616.00	107.66
616.15	72.56
616.30	135.75
616.46	110.01
616.61	39.79
616.76	88.94
616.92	86.60
617.07	23.41
617.22	23.41
617.37	63.19
617.53	110.01
617.68	74.90
617.83	102.98
617.99	65.54
618.14	39.79
618.29	37.45
618.45	74.90
618.60	42.13
618.75	58.51
618.90	79.58
619.06	58.51
619.21	119.37
619.36	79.58
619.51	49.15
619.67	121.71
619.82	63.19
619.97	70.22
620.12	81.92
620.28	117.03
620.43	105.32
620.58	56.17
620.73	30.43
620.89	18.72
621.04	18.72
621.19	81.92
621.34	58.51
621.49	25.75
621.65	49.15
621.80	65.54
621.95	131.07
622.10	84.26
622.25	11.70
622.41	0.00
622.56	32.77
622.71	79.58
622.86	70.22
623.01	0.00
623.16	74.90
623.32	51.49
623.47	138.09
623.62	16.38
623.77	67.88
623.92	56.17
624.07	102.98
624.23	84.26
624.38	37.45
624.53	70.22
624.68	46.81
624.83	42.13
624.98	32.77
625.13	72.56
625.29	72.56
625.44	107.66
625.59	0.00
625.74	84.26
625.89	93.62
626.04	60.85
626.19	42.13
626.34	39.79
626.49	70.22
626.65	42.13
626.80	49.15
626.95	161.50
627.10	9.36
627.25	72.56
627.40	70.22
627.55	46.81
627.70	128.73
627.85	30.43
628.00	53.83
628.15	91.28
628.30	56.17
628.45	133.41
628.60	81.92
628.76	0.00
628.91	25.75
629.06	102.98
629.21	65.54
629.36	86.60
629.51	70.22
629.66	18.72
629.81	9.36
629.96	58.51
630.11	56.17
630.26	112.35
630.41	110.01
630.56	114.69
630.71	37.45
630.86	0.00
631.01	0.00
631.16	110.01
631.31	49.15
631.46	46.81
631.61	30.43
631.76	98.30
631.91	105.32
632.06	60.85
632.21	58.51
632.36	119.37
632.51	42.13
632.66	60.85
632.81	60.85
632.96	21.06
633.10	30.43
633.25	91.28
633.40	81.92
633.55	95.96
633.70	74.90
633.85	46.81
634.00	0.00
634.15	110.01
634.30	110.01
634.45	25.75
634.60	128.73
634.75	114.69
634.90	81.92
635.05	70.22
635.19	102.98
635.34	77.24
635.49	63.19
635.64	63.19
635.79	0.00
635.94	65.54
636.09	51.49
636.24	86.60
636.39	79.58
636.53	0.00
636.68	35.11
636.83	74.90
636.98	56.17
637.13	28.09
637.28	74.90
637.43	56.17
637.57	81.92
637.72	159.16
637.87	0.00
638.02	74.90
638.17	93.62
638.32	44.47
638.46	133.41
638.61	51.49
638.76	63.19
638.91	25.75
639.06	102.98
639.20	32.77
639.35	7.02
639.50	49.15
639.65	46.81
639.80	16.38
639.94	67.88
640.09	18.72
640.24	23.41
640.39	86.60
640.54	18.72
640.68	79.58
640.83	58.51
640.98	102.98
641.13	32.77
641.27	11.70
641.42	72.56
641.57	53.83
641.72	56.17
641.86	23.41
642.01	81.92
642.16	81.92
642.31	91.28
642.45	70.22
642.60	72.56
642.75	30.43
642.90	67.88
643.04	58.51
643.19	60.85
643.34	32.77
643.48	37.45
643.63	77.24
643.78	79.58
643.93	74.90
644.07	28.09
644.22	81.92
644.37	63.19
644.51	70.22
644.66	93.62
644.81	88.94
644.95	81.92
645.10	16.38
645.25	0.00
645.39	39.79
645.54	0.00
645.69	112.35
645.83	7.02
645.98	79.58
646.13	51.49
646.27	88.94
646.42	112.35
646.57	37.45
646.71	119.37
646.86	67.88
647.00	88.94
647.15	56.17
647.30	37.45
647.44	60.85
647.59	44.47
647.74	44.47
647.88	21.06
648.03	145.11
648.17	32.77
648.32	46.81
648.47	81.92
648.61	98.30
648.76	65.54
648.90	51.49
649.05	56.17
649.20	44.47
649.34	53.83
649.49	70.22
649.63	28.09
649.78	102.98
649.92	32.77
650.07	18.72
650.21	98.30
650.36	42.13
650.51	70.22
650.65	81.92
650.80	2.34
650.94	16.38
651.09	23.41
651.23	51.49
651.38	79.58
651.52	77.24
651.67	105.32
651.81	159.16
651.96	56.17
652.10	131.07
652.25	53.83
652.39	65.54
652.54	53.83
652.68	67.88
652.83	0.00
652.97	105.32
653.12	0.00
653.26	37.45
653.41	0.00
653.55	0.00
653.70	30.43
653.84	18.72
653.99	0.00
654.13	58.51
654.27	44.47
654.42	23.41
654.56	35.11
654.71	79.58
654.85	0.00
655.00	84.26
655.14	0.00
655.29	30.43
655.43	58.51
655.57	56.17
655.72	58.51
655.86	32.77
656.01	65.54
656.15	81.92
656.30	53.83
656.44	2.34
656.58	49.15
656.73	152.13
656.87	91.28
657.01	81.92
657.16	58.51
657.30	67.88
657.45	119.37
657.59	63.19
657.73	21.06
657.88	74.90
658.02	86.60
658.16	72.56
658.31	70.22
658.45	74.90
658.60	21.06
658.74	21.06
658.88	4.68
659.03	35.11
659.17	25.75
659.31	65.54
659.46	58.51
659.60	42.13
659.74	21.06
659.89	30.43
660.03	88.94
660.17	88.94
660.32	65.54
660.46	102.98
660.60	25.75
660.74	88.94
660.89	74.90
661.03	72.56
661.17	117.03
661.32	46.81
661.46	131.07
661.60	70.22
661.74	67.88
661.89	74.90
662.03	142.77
662.17	25.75
662.31	37.45
662.46	72.56
662.60	58.51
662.74	95.96
662.88	2.34
663.03	46.81
663.17	37.45
663.31	0.00
663.45	4.68
663.60	37.45
663.74	46.81
663.88	72.56
664.02	39.79
664.17	32.77
664.31	63.19
664.45	46.81
664.59	46.81
664.73	14.04
664.88	14.04
665.02	56.17
665.16	60.85
665.30	65.54
665.44	0.00
665.59	58.51
665.73	88.94
665.87	102.98
666.01	65.54
666.15	51.49
666.29	65.54
666.44	58.51
666.58	14.04
666.72	49.15
666.86	7.02
667.00	67.88
667.14	56.17
667.28	93.62
667.43	28.09
667.57	28.09
667.71	98.30
667.85	51.49
667.99	70.22
668.13	81.92
668.27	16.38
668.41	25.75
668.56	14.04
668.70	56.17
668.84	21.06
668.98	44.47
669.12	46.81
669.26	56.17
669.40	114.69
669.54	56.17
669.68	86.60
669.82	30.43
669.96	0.00
670.10	79.58
670.25	49.15
670.39	152.13
670.53	28.09
670.67	11.70
670.81	39.79
670.95	79.58
671.09	44.47
671.23	32.77
671.37	11.70
671.51	2.34
671.65	28.09
671.79	49.15
671.93	42.13
672.07	72.56
672.21	0.00
672.35	28.09
672.49	51.49
672.63	9.36
672.77	42.13
672.91	46.81
673.05	46.81
673.19	84.26
673.33	77.24
673.47	88.94
673.61	35.11
673.75	79.58
673.89	0.00
674.03	23.41
674.17	84.26
674.31	32.77
674.45	65.54
674.59	91.28
674.73	4.68
674.87	126.39
675.01	0.00
675.15	21.06
675.29	0.00
675.43	51.49
675.56	44.47
675.70	14.04
675.84	77.24
675.98	60.85
676.12	67.88
676.26	42.13
676.40	37.45
676.54	63.19
676.68	58.51
676.82	28.09
676.96	60.85
677.10	86.60
677.23	60.85
677.37	49.15
677.51	74.90
677.65	95.96
677.79	16.38
677.93	70.22
678.07	67.88
678.21	16.38
678.34	112.35
678.48	98.30
678.62	67.88
678.76	39.79
678.90	37.45
679.04	28.09
679.18	21.06
679.31	72.56
679.45	32.77
679.59	81.92
679.73	35.11
679.87	88.94
680.00	2.34
680.14	46.81
680.28	72.56
680.42	2.34
680.56	0.00
680.70	79.58
680.83	86.60
680.97	53.83
681.11	60.85
681.25	44.47
681.39	25.75
681.52	107.66
681.66	0.00
681.80	0.00
681.94	53.83
682.07	0.00
682.21	58.51
682.35	51.49
682.49	2.34
682.62	51.49
682.76	4.68
682.90	58.51
683.04	77.24
683.17	56.17
683.31	70.22
683.45	2.34
683.59	46.81
683.72	21.06
683.86	39.79
684.00	88.94
684.13	35.11
684.27	21.06
684.41	23.41
684.55	49.15
684.68	0.00
684.82	37.45
684.96	110.01
685.09	0.00
685.23	28.09
685.37	9.36
685.50	21.06
685.64	77.24
685.78	37.45
685.91	42.13
686.05	0.00
686.19	0.00
686.32	53.83
686.46	0.00
686.60	67.88
686.73	112.35
686.87	30.43
687.01	16.38
687.14	30.43
687.28	35.11
687.42	42.13
687.55	105.32
687.69	0.00
687.82	28.09
687.96	51.49
688.10	0.00
688.23	74.90
688.37	74.90
688.50	107.66
688.64	58.51
688.78	23.41
688.91	51.49
689.05	70.22
689.18	105.32
689.32	100.64
689.46	70.22
689.59	56.17
689.73	0.00
689.86	126.39
690.00	77.24
690.13	49.15
690.27	32.77
690.41	0.00
690.54	44.47
690.68	53.83
690.81	86.60
690.95	105.32
691.08	58.51
691.22	18.72
691.35	32.77
691.49	81.92
691.62	70.22
691.76	0.00
691.89	121.71
692.03	44.47
692.16	37.45
692.30	60.85
692.43	11.70
692.57	30.43
692.70	53.83
692.84	0.00
692.97	72.56
693.11	91.28
693.24	44.47
693.38	77.24
693.51	23.41
693.65	110.01
693.78	4.68
693.92	93.62
694.05	88.94
694.19	0.00
694.32	11.70
694.45	53.83
694.59	95.96
694.72	58.51
694.86	37.45
694.99	28.09
695.13	39.79
695.26	79.58
695.39	28.09
695.53	145.11
695.66	30.43
695.80	42.13
695.93	81.92
696.07	70.22
696.20	60.85
696.33	107.66
696.47	0.00
696.60	100.64
696.73	65.54
696.87	44.47
697.00	25.75
697.14	35.11
697.27	0.00
697.40	0.00
697.54	91.28
697.67	44.47
697.80	35.11
697.94	0.00
698.07	23.41
698.21	56.17
698.34	84.26
698.47	53.83
698.61	53.83
698.74	7.02
698.87	67.88
699.01	42.13
699.14	128.73
699.27	30.43
699.40	4.68
699.54	58.51
699.67	25.75
699.80	25.75
699.94	42.13
700.07	30.43
700.20	14.04
700.34	32.77
700.47	39.79
700.60	79.58
700.73	14.04
700.87	74.90
701.00	21.06
701.13	65.54
701.26	72.56
701.40	32.77
701.53	32.77
701.66	23.41
701.79	74.90
701.93	117.03
702.06	14.04
702.19	7.02
702.32	0.00
702.46	42.13
702.59	0.00
702.72	39.79
702.85	7.02
702.99	0.00
703.12	39.79
703.25	28.09
703.38	0.00
703.51	23.41
703.65	51.49
703.78	0.00
703.91	88.94
704.04	46.81
704.17	11.70
704.31	65.54
704.44	2.34
704.57	0.00
704.70	0.00
704.83	93.62
704.96	0.00
705.10	35.11
705.23	58.51
>>>>>End Processed Spectral Data<<<<<
