SpectraSuite Data File
++++++++++++++++++++++++++++++++++++
Date: Fri Oct 04 12:13:34 GMT-05:00 2013
User: price-jones
Dark Spectrum Present: No
Reference Spectrum Present: No
Number of Sampled Component Spectra: 1
Spectrometers: USB2+H05261
Integration Time (usec): 10000 (USB2+H05261)
Spectra Averaged: 1 (USB2+H05261)
Boxcar Smoothing: 0 (USB2+H05261)
Correct for Electrical Dark: No (USB2+H05261)
Strobe/Lamp Enabled: No (USB2+H05261)
Correct for Detector Non-linearity: No (USB2+H05261)
Correct for Stray Light: No (USB2+H05261)
Number of Pixels in Processed Spectrum: 2048
>>>>>Begin Processed Spectral Data<<<<<
365.73	7.02
365.92	7.02
366.12	7.02
366.32	0.00
366.52	0.00
366.72	0.00
366.91	0.00
367.11	0.00
367.31	0.00
367.51	0.00
367.70	0.00
367.90	0.00
368.10	0.00
368.30	0.00
368.49	0.00
368.69	0.00
368.89	0.00
369.09	0.00
369.28	0.00
369.48	0.00
369.68	0.00
369.87	0.00
370.07	0.00
370.27	0.00
370.47	0.00
370.66	0.00
370.86	65.54
371.06	0.00
371.25	14.04
371.45	0.00
371.65	16.38
371.84	0.00
372.04	0.00
372.24	28.09
372.44	0.00
372.63	0.00
372.83	58.51
373.03	102.98
373.22	58.51
373.42	0.00
373.62	28.09
373.81	63.19
374.01	14.04
374.21	56.17
374.40	105.32
374.60	58.51
374.79	77.24
374.99	74.90
375.19	65.54
375.38	18.72
375.58	16.38
375.78	77.24
375.97	18.72
376.17	67.88
376.37	44.47
376.56	0.00
376.76	58.51
376.95	21.06
377.15	0.00
377.35	46.81
377.54	72.56
377.74	28.09
377.93	9.36
378.13	81.92
378.33	0.00
378.52	0.00
378.72	0.00
378.91	37.45
379.11	79.58
379.31	81.92
379.50	30.43
379.70	0.00
379.89	0.00
380.09	0.00
380.28	2.34
380.48	63.19
380.68	0.00
380.87	11.70
381.07	46.81
381.26	0.00
381.46	0.00
381.65	11.70
381.85	53.83
382.04	0.00
382.24	60.85
382.43	4.68
382.63	0.00
382.83	23.41
383.02	0.00
383.22	0.00
383.41	16.38
383.61	25.75
383.80	46.81
384.00	63.19
384.19	4.68
384.39	23.41
384.58	0.00
384.78	37.45
384.97	35.11
385.17	0.00
385.36	79.58
385.56	49.15
385.75	14.04
385.95	39.79
386.14	0.00
386.34	0.00
386.53	74.90
386.72	7.02
386.92	46.81
387.11	0.00
387.31	16.38
387.50	107.66
387.70	0.00
387.89	44.47
388.09	7.02
388.28	0.00
388.48	58.51
388.67	11.70
388.86	0.00
389.06	88.94
389.25	58.51
389.45	49.15
389.64	0.00
389.84	0.00
390.03	0.00
390.22	0.00
390.42	7.02
390.61	32.77
390.81	0.00
391.00	37.45
391.19	4.68
391.39	18.72
391.58	37.45
391.78	0.00
391.97	0.00
392.16	4.68
392.36	0.00
392.55	21.06
392.75	63.19
392.94	21.06
393.13	46.81
393.33	46.81
393.52	18.72
393.71	0.00
393.91	49.15
394.10	0.00
394.29	18.72
394.49	0.00
394.68	42.13
394.88	0.00
395.07	72.56
395.26	39.79
395.46	49.15
395.65	0.00
395.84	49.15
396.04	0.00
396.23	67.88
396.42	72.56
396.62	25.75
396.81	0.00
397.00	30.43
397.19	44.47
397.39	100.64
397.58	0.00
397.77	0.00
397.97	11.70
398.16	42.13
398.35	53.83
398.55	25.75
398.74	0.00
398.93	81.92
399.12	35.11
399.32	0.00
399.51	18.72
399.70	53.83
399.90	23.41
400.09	0.00
400.28	81.92
400.47	44.47
400.67	56.17
400.86	32.77
401.05	49.15
401.24	0.00
401.44	0.00
401.63	4.68
401.82	18.72
402.01	39.79
402.21	42.13
402.40	0.00
402.59	63.19
402.78	0.00
402.97	0.00
403.17	42.13
403.36	16.38
403.55	23.41
403.74	32.77
403.93	0.00
404.13	37.45
404.32	0.00
404.51	25.75
404.70	30.43
404.89	46.81
405.09	28.09
405.28	30.43
405.47	2.34
405.66	51.49
405.85	28.09
406.05	23.41
406.24	14.04
406.43	35.11
406.62	28.09
406.81	14.04
407.00	18.72
407.20	79.58
407.39	23.41
407.58	0.00
407.77	2.34
407.96	81.92
408.15	0.00
408.34	65.54
408.54	72.56
408.73	7.02
408.92	28.09
409.11	44.47
409.30	0.00
409.49	86.60
409.68	32.77
409.87	0.00
410.07	67.88
410.26	0.00
410.45	0.00
410.64	35.11
410.83	25.75
411.02	14.04
411.21	81.92
411.40	117.03
411.59	14.04
411.78	30.43
411.98	18.72
412.17	42.13
412.36	0.00
412.55	67.88
412.74	39.79
412.93	51.49
413.12	58.51
413.31	16.38
413.50	72.56
413.69	86.60
413.88	0.00
414.07	0.00
414.26	81.92
414.45	39.79
414.64	0.00
414.83	14.04
415.02	14.04
415.22	39.79
415.41	56.17
415.60	93.62
415.79	53.83
415.98	70.22
416.17	60.85
416.36	23.41
416.55	32.77
416.74	74.90
416.93	72.56
417.12	46.81
417.31	7.02
417.50	51.49
417.69	88.94
417.88	46.81
418.07	0.00
418.26	0.00
418.45	117.03
418.64	4.68
418.83	58.51
419.02	117.03
419.21	63.19
419.39	65.54
419.58	28.09
419.77	46.81
419.96	4.68
420.15	0.00
420.34	11.70
420.53	58.51
420.72	0.00
420.91	77.24
421.10	138.09
421.29	138.09
421.48	53.83
421.67	86.60
421.86	16.38
422.05	28.09
422.24	53.83
422.43	35.11
422.61	11.70
422.80	37.45
422.99	0.00
423.18	95.96
423.37	30.43
423.56	0.00
423.75	28.09
423.94	81.92
424.13	0.00
424.32	0.00
424.50	7.02
424.69	70.22
424.88	49.15
425.07	70.22
425.26	60.85
425.45	0.00
425.64	46.81
425.83	0.00
426.01	21.06
426.20	51.49
426.39	25.75
426.58	53.83
426.77	32.77
426.96	53.83
427.15	67.88
427.33	9.36
427.52	100.64
427.71	37.45
427.90	35.11
428.09	51.49
428.28	39.79
428.46	39.79
428.65	0.00
428.84	14.04
429.03	102.98
429.22	98.30
429.40	32.77
429.59	28.09
429.78	105.32
429.97	124.05
430.16	67.88
430.34	35.11
430.53	0.00
430.72	74.90
430.91	53.83
431.10	0.00
431.28	44.47
431.47	30.43
431.66	28.09
431.85	35.11
432.03	65.54
432.22	14.04
432.41	72.56
432.60	30.43
432.79	0.00
432.97	18.72
433.16	35.11
433.35	67.88
433.54	72.56
433.72	105.32
433.91	28.09
434.10	70.22
434.28	2.34
434.47	0.00
434.66	0.00
434.85	39.79
435.03	23.41
435.22	86.60
435.41	77.24
435.59	0.00
435.78	0.00
435.97	18.72
436.16	98.30
436.34	30.43
436.53	102.98
436.72	4.68
436.90	88.94
437.09	44.47
437.28	105.32
437.46	67.88
437.65	70.22
437.84	46.81
438.02	46.81
438.21	72.56
438.40	88.94
438.58	49.15
438.77	7.02
438.96	35.11
439.14	84.26
439.33	0.00
439.52	152.13
439.70	39.79
439.89	28.09
440.08	21.06
440.26	16.38
440.45	86.60
440.63	56.17
440.82	56.17
441.01	35.11
441.19	84.26
441.38	44.47
441.57	0.00
441.75	67.88
441.94	63.19
442.12	107.66
442.31	37.45
442.50	65.54
442.68	42.13
442.87	58.51
443.05	102.98
443.24	18.72
443.43	32.77
443.61	44.47
443.80	53.83
443.98	18.72
444.17	0.00
444.35	60.85
444.54	16.38
444.73	67.88
444.91	0.00
445.10	42.13
445.28	23.41
445.47	21.06
445.65	35.11
445.84	35.11
446.02	0.00
446.21	56.17
446.39	0.00
446.58	7.02
446.77	30.43
446.95	53.83
447.14	0.00
447.32	23.41
447.51	88.94
447.69	16.38
447.88	0.00
448.06	77.24
448.25	30.43
448.43	25.75
448.62	35.11
448.80	98.30
448.99	70.22
449.17	63.19
449.36	77.24
449.54	67.88
449.73	4.68
449.91	145.11
450.10	21.06
450.28	86.60
450.46	53.83
450.65	28.09
450.83	21.06
451.02	23.41
451.20	28.09
451.39	0.00
451.57	0.00
451.76	35.11
451.94	128.73
452.13	74.90
452.31	86.60
452.49	28.09
452.68	98.30
452.86	98.30
453.05	65.54
453.23	126.39
453.42	46.81
453.60	49.15
453.78	112.35
453.97	44.47
454.15	0.00
454.34	77.24
454.52	44.47
454.70	67.88
454.89	0.00
455.07	35.11
455.26	74.90
455.44	63.19
455.62	51.49
455.81	39.79
455.99	23.41
456.17	67.88
456.36	35.11
456.54	49.15
456.73	0.00
456.91	39.79
457.09	88.94
457.28	112.35
457.46	25.75
457.64	93.62
457.83	145.11
458.01	51.49
458.19	49.15
458.38	32.77
458.56	4.68
458.74	102.98
458.93	39.79
459.11	37.45
459.29	98.30
459.48	77.24
459.66	53.83
459.84	60.85
460.03	46.81
460.21	42.13
460.39	70.22
460.57	46.81
460.76	9.36
460.94	0.00
461.12	30.43
461.31	46.81
461.49	25.75
461.67	37.45
461.85	79.58
462.04	2.34
462.22	77.24
462.40	60.85
462.59	72.56
462.77	0.00
462.95	56.17
463.13	0.00
463.32	2.34
463.50	63.19
463.68	107.66
463.86	0.00
464.05	46.81
464.23	91.28
464.41	7.02
464.59	2.34
464.78	58.51
464.96	105.32
465.14	16.38
465.32	23.41
465.50	14.04
465.69	0.00
465.87	0.00
466.05	63.19
466.23	42.13
466.41	11.70
466.60	147.45
466.78	95.96
466.96	98.30
467.14	72.56
467.32	60.85
467.51	39.79
467.69	49.15
467.87	28.09
468.05	2.34
468.23	14.04
468.41	63.19
468.60	0.00
468.78	91.28
468.96	74.90
469.14	37.45
469.32	0.00
469.50	88.94
469.69	95.96
469.87	81.92
470.05	60.85
470.23	81.92
470.41	84.26
470.59	37.45
470.77	58.51
470.95	93.62
471.14	70.22
471.32	100.64
471.50	81.92
471.68	110.01
471.86	18.72
472.04	51.49
472.22	91.28
472.40	93.62
472.58	44.47
472.77	49.15
472.95	86.60
473.13	126.39
473.31	28.09
473.49	56.17
473.67	81.92
473.85	84.26
474.03	49.15
474.21	11.70
474.39	63.19
474.57	70.22
474.75	140.43
474.93	18.72
475.12	81.92
475.30	112.35
475.48	28.09
475.66	128.73
475.84	63.19
476.02	53.83
476.20	44.47
476.38	81.92
476.56	77.24
476.74	32.77
476.92	126.39
477.10	35.11
477.28	133.41
477.46	58.51
477.64	72.56
477.82	0.00
478.00	51.49
478.18	46.81
478.36	72.56
478.54	133.41
478.72	11.70
478.90	37.45
479.08	4.68
479.26	102.98
479.44	53.83
479.62	119.37
479.80	91.28
479.98	35.11
480.16	67.88
480.34	42.13
480.52	58.51
480.70	4.68
480.88	74.90
481.06	163.84
481.24	21.06
481.41	32.77
481.59	32.77
481.77	74.90
481.95	58.51
482.13	86.60
482.31	63.19
482.49	46.81
482.67	65.54
482.85	37.45
483.03	86.60
483.21	110.01
483.39	88.94
483.57	91.28
483.74	88.94
483.92	46.81
484.10	95.96
484.28	11.70
484.46	53.83
484.64	84.26
484.82	77.24
485.00	44.47
485.18	39.79
485.35	67.88
485.53	16.38
485.71	2.34
485.89	105.32
486.07	79.58
486.25	140.43
486.43	91.28
486.61	37.45
486.78	65.54
486.96	81.92
487.14	110.01
487.32	93.62
487.50	37.45
487.68	37.45
487.85	70.22
488.03	21.06
488.21	37.45
488.39	72.56
488.57	70.22
488.75	65.54
488.92	39.79
489.10	147.45
489.28	37.45
489.46	53.83
489.64	49.15
489.81	51.49
489.99	74.90
490.17	117.03
490.35	35.11
490.53	72.56
490.70	44.47
490.88	88.94
491.06	53.83
491.24	88.94
491.41	58.51
491.59	21.06
491.77	11.70
491.95	0.00
492.13	35.11
492.30	56.17
492.48	142.77
492.66	84.26
492.84	18.72
493.01	72.56
493.19	77.24
493.37	42.13
493.54	110.01
493.72	119.37
493.90	39.79
494.08	110.01
494.25	105.32
494.43	56.17
494.61	72.56
494.79	25.75
494.96	84.26
495.14	98.30
495.32	70.22
495.49	91.28
495.67	86.60
495.85	110.01
496.02	93.62
496.20	79.58
496.38	37.45
496.55	53.83
496.73	163.84
496.91	81.92
497.09	56.17
497.26	35.11
497.44	44.47
497.62	93.62
497.79	67.88
497.97	107.66
498.14	121.71
498.32	86.60
498.50	84.26
498.67	65.54
498.85	114.69
499.03	65.54
499.20	77.24
499.38	135.75
499.56	114.69
499.73	39.79
499.91	128.73
500.08	91.28
500.26	60.85
500.44	74.90
500.61	133.41
500.79	51.49
500.97	107.66
501.14	79.58
501.32	39.79
501.49	86.60
501.67	65.54
501.84	37.45
502.02	91.28
502.20	117.03
502.37	74.90
502.55	81.92
502.72	67.88
502.90	77.24
503.07	35.11
503.25	140.43
503.43	67.88
503.60	49.15
503.78	35.11
503.95	128.73
504.13	72.56
504.30	74.90
504.48	121.71
504.65	58.51
504.83	119.37
505.01	72.56
505.18	72.56
505.36	95.96
505.53	121.71
505.71	159.16
505.88	7.02
506.06	18.72
506.23	56.17
506.41	100.64
506.58	88.94
506.76	58.51
506.93	9.36
507.11	32.77
507.28	58.51
507.46	0.00
507.63	25.75
507.81	44.47
507.98	67.88
508.16	72.56
508.33	58.51
508.50	23.41
508.68	74.90
508.85	56.17
509.03	25.75
509.20	91.28
509.38	65.54
509.55	49.15
509.73	63.19
509.90	67.88
510.08	110.01
510.25	91.28
510.42	100.64
510.60	37.45
510.77	135.75
510.95	138.09
511.12	114.69
511.30	166.18
511.47	140.43
511.64	121.71
511.82	46.81
511.99	93.62
512.17	58.51
512.34	60.85
512.51	60.85
512.69	100.64
512.86	93.62
513.04	98.30
513.21	95.96
513.38	84.26
513.56	142.77
513.73	100.64
513.90	72.56
514.08	86.60
514.25	53.83
514.43	135.75
514.60	102.98
514.77	63.19
514.95	77.24
515.12	161.50
515.29	74.90
515.47	65.54
515.64	39.79
515.81	37.45
515.99	105.32
516.16	100.64
516.33	42.13
516.51	81.92
516.68	88.94
516.85	65.54
517.03	84.26
517.20	74.90
517.37	77.24
517.54	70.22
517.72	51.49
517.89	79.58
518.06	79.58
518.24	35.11
518.41	70.22
518.58	98.30
518.75	152.13
518.93	88.94
519.10	114.69
519.27	131.07
519.45	105.32
519.62	42.13
519.79	74.90
519.96	70.22
520.14	159.16
520.31	86.60
520.48	16.38
520.65	23.41
520.83	79.58
521.00	81.92
521.17	105.32
521.34	67.88
521.52	121.71
521.69	105.32
521.86	63.19
522.03	58.51
522.20	86.60
522.38	117.03
522.55	79.58
522.72	72.56
522.89	77.24
523.07	67.88
523.24	84.26
523.41	0.00
523.58	56.17
523.75	98.30
523.92	65.54
524.10	0.00
524.27	102.98
524.44	110.01
524.61	117.03
524.78	16.38
524.96	121.71
525.13	93.62
525.30	74.90
525.47	126.39
525.64	102.98
525.81	168.52
525.98	60.85
526.16	44.47
526.33	74.90
526.50	110.01
526.67	9.36
526.84	100.64
527.01	124.05
527.18	28.09
527.36	35.11
527.53	16.38
527.70	112.35
527.87	39.79
528.04	79.58
528.21	63.19
528.38	4.68
528.55	81.92
528.72	79.58
528.89	79.58
529.07	128.73
529.24	100.64
529.41	91.28
529.58	88.94
529.75	84.26
529.92	77.24
530.09	121.71
530.26	67.88
530.43	58.51
530.60	145.11
530.77	39.79
530.94	98.30
531.11	35.11
531.28	88.94
531.46	114.69
531.63	72.56
531.80	191.92
531.97	121.71
532.14	0.00
532.31	93.62
532.48	44.47
532.65	53.83
532.82	37.45
532.99	35.11
533.16	46.81
533.33	79.58
533.50	124.05
533.67	70.22
533.84	142.77
534.01	142.77
534.18	63.19
534.35	107.66
534.52	60.85
534.69	114.69
534.86	102.98
535.03	112.35
535.20	163.84
535.37	67.88
535.54	88.94
535.71	88.94
535.88	14.04
536.05	126.39
536.22	44.47
536.38	30.43
536.55	135.75
536.72	51.49
536.89	56.17
537.06	124.05
537.23	112.35
537.40	70.22
537.57	107.66
537.74	53.83
537.91	51.49
538.08	88.94
538.25	110.01
538.42	28.09
538.59	138.09
538.75	149.79
538.92	86.60
539.09	86.60
539.26	102.98
539.43	74.90
539.60	93.62
539.77	77.24
539.94	86.60
540.11	51.49
540.28	0.00
540.44	74.90
540.61	88.94
540.78	39.79
540.95	16.38
541.12	63.19
541.29	133.41
541.46	95.96
541.62	23.41
541.79	65.54
541.96	140.43
542.13	65.54
542.30	107.66
542.47	39.79
542.63	107.66
542.80	51.49
542.97	63.19
543.14	65.54
543.31	114.69
543.48	107.66
543.64	0.00
543.81	163.84
543.98	70.22
544.15	142.77
544.32	142.77
544.48	124.05
544.65	91.28
544.82	49.15
544.99	114.69
545.16	60.85
545.32	152.13
545.49	86.60
545.66	81.92
545.83	93.62
546.00	86.60
546.16	142.77
546.33	128.73
546.50	126.39
546.67	105.32
546.83	147.45
547.00	84.26
547.17	58.51
547.34	81.92
547.50	93.62
547.67	107.66
547.84	91.28
548.00	58.51
548.17	77.24
548.34	44.47
548.51	84.26
548.67	39.79
548.84	65.54
549.01	95.96
549.18	88.94
549.34	81.92
549.51	28.09
549.68	124.05
549.84	121.71
550.01	95.96
550.18	4.68
550.34	131.07
550.51	93.62
550.68	74.90
550.84	133.41
551.01	81.92
551.18	79.58
551.34	95.96
551.51	67.88
551.68	74.90
551.84	79.58
552.01	105.32
552.18	77.24
552.34	77.24
552.51	58.51
552.68	95.96
552.84	42.13
553.01	126.39
553.18	98.30
553.34	114.69
553.51	93.62
553.67	77.24
553.84	156.82
554.01	72.56
554.17	95.96
554.34	173.20
554.51	161.50
554.67	124.05
554.84	77.24
555.00	30.43
555.17	93.62
555.33	180.22
555.50	135.75
555.67	77.24
555.83	79.58
556.00	23.41
556.16	177.88
556.33	173.20
556.50	107.66
556.66	135.75
556.83	72.56
556.99	67.88
557.16	25.75
557.32	79.58
557.49	58.51
557.65	93.62
557.82	67.88
557.98	102.98
558.15	77.24
558.32	32.77
558.48	149.79
558.65	49.15
558.81	74.90
558.98	98.30
559.14	25.75
559.31	173.20
559.47	105.32
559.64	37.45
559.80	58.51
559.97	98.30
560.13	70.22
560.30	124.05
560.46	79.58
560.63	60.85
560.79	91.28
560.96	93.62
561.12	49.15
561.29	105.32
561.45	16.38
561.61	32.77
561.78	39.79
561.94	81.92
562.11	39.79
562.27	93.62
562.44	77.24
562.60	128.73
562.77	119.37
562.93	119.37
563.10	175.54
563.26	67.88
563.42	65.54
563.59	0.00
563.75	88.94
563.92	35.11
564.08	102.98
564.24	79.58
564.41	21.06
564.57	147.45
564.74	11.70
564.90	95.96
565.07	53.83
565.23	86.60
565.39	131.07
565.56	100.64
565.72	79.58
565.88	44.47
566.05	2.34
566.21	93.62
566.38	131.07
566.54	56.17
566.70	79.58
566.87	53.83
567.03	58.51
567.19	105.32
567.36	88.94
567.52	25.75
567.68	84.26
567.85	128.73
568.01	28.09
568.17	102.98
568.34	25.75
568.50	110.01
568.66	60.85
568.83	107.66
568.99	53.83
569.15	65.54
569.32	110.01
569.48	93.62
569.64	42.13
569.81	53.83
569.97	105.32
570.13	124.05
570.30	53.83
570.46	42.13
570.62	95.96
570.78	58.51
570.95	74.90
571.11	30.43
571.27	107.66
571.43	117.03
571.60	81.92
571.76	95.96
571.92	84.26
572.09	93.62
572.25	126.39
572.41	44.47
572.57	114.69
572.74	70.22
572.90	11.70
573.06	74.90
573.22	42.13
573.38	121.71
573.55	77.24
573.71	84.26
573.87	72.56
574.03	100.64
574.20	67.88
574.36	53.83
574.52	16.38
574.68	105.32
574.84	84.26
575.01	112.35
575.17	32.77
575.33	131.07
575.49	121.71
575.65	53.83
575.82	105.32
575.98	0.00
576.14	88.94
576.30	114.69
576.46	53.83
576.62	58.51
576.79	42.13
576.95	140.43
577.11	4.68
577.27	53.83
577.43	138.09
577.59	49.15
577.75	14.04
577.92	86.60
578.08	88.94
578.24	51.49
578.40	93.62
578.56	149.79
578.72	107.66
578.88	51.49
579.04	25.75
579.21	32.77
579.37	114.69
579.53	9.36
579.69	112.35
579.85	28.09
580.01	135.75
580.17	84.26
580.33	49.15
580.49	46.81
580.65	49.15
580.82	156.82
580.98	70.22
581.14	65.54
581.30	149.79
581.46	138.09
581.62	53.83
581.78	102.98
581.94	58.51
582.10	58.51
582.26	84.26
582.42	84.26
582.58	4.68
582.74	58.51
582.90	135.75
583.06	70.22
583.22	60.85
583.38	74.90
583.54	98.30
583.70	86.60
583.86	74.90
584.02	95.96
584.18	126.39
584.34	112.35
584.50	88.94
584.66	95.96
584.82	100.64
584.98	56.17
585.14	53.83
585.30	100.64
585.46	53.83
585.62	72.56
585.78	67.88
585.94	60.85
586.10	0.00
586.26	102.98
586.42	131.07
586.58	46.81
586.74	39.79
586.90	72.56
587.06	112.35
587.22	84.26
587.38	105.32
587.54	65.54
587.70	37.45
587.86	18.72
588.02	53.83
588.18	30.43
588.34	56.17
588.49	142.77
588.65	107.66
588.81	93.62
588.97	49.15
589.13	32.77
589.29	117.03
589.45	58.51
589.61	58.51
589.77	51.49
589.93	35.11
590.08	63.19
590.24	67.88
590.40	25.75
590.56	100.64
590.72	51.49
590.88	81.92
591.04	72.56
591.20	46.81
591.35	117.03
591.51	70.22
591.67	35.11
591.83	53.83
591.99	51.49
592.15	53.83
592.31	77.24
592.46	84.26
592.62	46.81
592.78	102.98
592.94	77.24
593.10	70.22
593.26	105.32
593.41	135.75
593.57	72.56
593.73	65.54
593.89	49.15
594.05	63.19
594.20	0.00
594.36	72.56
594.52	145.11
594.68	49.15
594.84	88.94
594.99	18.72
595.15	35.11
595.31	35.11
595.47	133.41
595.62	119.37
595.78	112.35
595.94	98.30
596.10	51.49
596.25	102.98
596.41	84.26
596.57	67.88
596.73	28.09
596.88	124.05
597.04	44.47
597.20	128.73
597.36	23.41
597.51	56.17
597.67	46.81
597.83	86.60
597.99	110.01
598.14	23.41
598.30	128.73
598.46	63.19
598.61	72.56
598.77	51.49
598.93	42.13
599.09	70.22
599.24	53.83
599.40	128.73
599.56	117.03
599.71	81.92
599.87	30.43
600.03	46.81
600.18	79.58
600.34	0.00
600.50	72.56
600.65	119.37
600.81	117.03
600.97	60.85
601.12	74.90
601.28	79.58
601.44	39.79
601.59	149.79
601.75	32.77
601.91	0.00
602.06	51.49
602.22	39.79
602.37	0.00
602.53	46.81
602.69	133.41
602.84	65.54
603.00	56.17
603.16	110.01
603.31	70.22
603.47	60.85
603.62	107.66
603.78	30.43
603.94	37.45
604.09	30.43
604.25	110.01
604.40	117.03
604.56	65.54
604.71	79.58
604.87	86.60
605.03	30.43
605.18	77.24
605.34	79.58
605.49	67.88
605.65	53.83
605.80	0.00
605.96	119.37
606.12	81.92
606.27	86.60
606.43	74.90
606.58	74.90
606.74	79.58
606.89	100.64
607.05	0.00
607.20	117.03
607.36	65.54
607.51	138.09
607.67	70.22
607.82	72.56
607.98	74.90
608.13	105.32
608.29	100.64
608.44	163.84
608.60	98.30
608.75	95.96
608.91	107.66
609.06	46.81
609.22	81.92
609.37	9.36
609.53	81.92
609.68	46.81
609.84	58.51
609.99	124.05
610.15	58.51
610.30	58.51
610.46	70.22
610.61	53.83
610.76	51.49
610.92	91.28
611.07	53.83
611.23	84.26
611.38	128.73
611.54	173.20
611.69	74.90
611.84	74.90
612.00	65.54
612.15	35.11
612.31	51.49
612.46	56.17
612.62	25.75
612.77	88.94
612.92	72.56
613.08	117.03
613.23	58.51
613.39	74.90
613.54	42.13
613.69	107.66
613.85	84.26
614.00	65.54
614.15	105.32
614.31	93.62
614.46	72.56
614.62	67.88
614.77	72.56
614.92	114.69
615.08	58.51
615.23	86.60
615.38	121.71
615.54	88.94
615.69	58.51
615.84	70.22
616.00	72.56
616.15	72.56
616.30	0.00
616.46	112.35
616.61	39.79
616.76	46.81
616.92	37.45
617.07	74.90
617.22	95.96
617.37	14.04
617.53	60.85
617.68	56.17
617.83	95.96
617.99	67.88
618.14	142.77
618.29	74.90
618.45	11.70
618.60	70.22
618.75	21.06
618.90	91.28
619.06	84.26
619.21	81.92
619.36	58.51
619.51	44.47
619.67	93.62
619.82	74.90
619.97	91.28
620.12	44.47
620.28	84.26
620.43	42.13
620.58	98.30
620.73	117.03
620.89	112.35
621.04	77.24
621.19	39.79
621.34	67.88
621.49	147.45
621.65	81.92
621.80	32.77
621.95	105.32
622.10	145.11
622.25	110.01
622.41	93.62
622.56	79.58
622.71	42.13
622.86	37.45
623.01	65.54
623.16	42.13
623.32	124.05
623.47	44.47
623.62	91.28
623.77	42.13
623.92	84.26
624.07	30.43
624.23	77.24
624.38	152.13
624.53	28.09
624.68	79.58
624.83	81.92
624.98	35.11
625.13	60.85
625.29	44.47
625.44	37.45
625.59	42.13
625.74	30.43
625.89	98.30
626.04	147.45
626.19	53.83
626.34	72.56
626.49	65.54
626.65	81.92
626.80	77.24
626.95	77.24
627.10	39.79
627.25	107.66
627.40	56.17
627.55	0.00
627.70	105.32
627.85	65.54
628.00	112.35
628.15	84.26
628.30	95.96
628.45	107.66
628.60	72.56
628.76	37.45
628.91	117.03
629.06	30.43
629.21	95.96
629.36	107.66
629.51	37.45
629.66	51.49
629.81	11.70
629.96	95.96
630.11	86.60
630.26	65.54
630.41	112.35
630.56	100.64
630.71	46.81
630.86	46.81
631.01	117.03
631.16	46.81
631.31	39.79
631.46	58.51
631.61	65.54
631.76	74.90
631.91	70.22
632.06	4.68
632.21	28.09
632.36	42.13
632.51	37.45
632.66	37.45
632.81	23.41
632.96	18.72
633.10	70.22
633.25	9.36
633.40	58.51
633.55	56.17
633.70	110.01
633.85	100.64
634.00	37.45
634.15	114.69
634.30	58.51
634.45	121.71
634.60	42.13
634.75	65.54
634.90	28.09
635.05	0.00
635.19	81.92
635.34	110.01
635.49	30.43
635.64	39.79
635.79	53.83
635.94	56.17
636.09	32.77
636.24	51.49
636.39	95.96
636.53	25.75
636.68	42.13
636.83	65.54
636.98	91.28
637.13	79.58
637.28	124.05
637.43	77.24
637.57	124.05
637.72	149.79
637.87	37.45
638.02	86.60
638.17	9.36
638.32	35.11
638.46	63.19
638.61	84.26
638.76	63.19
638.91	138.09
639.06	35.11
639.20	126.39
639.35	28.09
639.50	9.36
639.65	112.35
639.80	53.83
639.94	51.49
640.09	91.28
640.24	0.00
640.39	60.85
640.54	37.45
640.68	70.22
640.83	46.81
640.98	46.81
641.13	21.06
641.27	18.72
641.42	67.88
641.57	91.28
641.72	84.26
641.86	72.56
642.01	86.60
642.16	49.15
642.31	51.49
642.45	46.81
642.60	51.49
642.75	23.41
642.90	25.75
643.04	0.00
643.19	65.54
643.34	0.00
643.48	51.49
643.63	39.79
643.78	107.66
643.93	65.54
644.07	39.79
644.22	39.79
644.37	93.62
644.51	9.36
644.66	9.36
644.81	100.64
644.95	128.73
645.10	60.85
645.25	114.69
645.39	9.36
645.54	35.11
645.69	0.00
645.83	30.43
645.98	70.22
646.13	131.07
646.27	9.36
646.42	49.15
646.57	30.43
646.71	28.09
646.86	63.19
647.00	35.11
647.15	79.58
647.30	58.51
647.44	56.17
647.59	44.47
647.74	65.54
647.88	56.17
648.03	37.45
648.17	124.05
648.32	88.94
648.47	63.19
648.61	84.26
648.76	35.11
648.90	23.41
649.05	0.00
649.20	39.79
649.34	81.92
649.49	102.98
649.63	28.09
649.78	18.72
649.92	16.38
650.07	110.01
650.21	44.47
650.36	77.24
650.51	88.94
650.65	77.24
650.80	102.98
650.94	86.60
651.09	86.60
651.23	81.92
651.38	65.54
651.52	35.11
651.67	77.24
651.81	100.64
651.96	56.17
652.10	23.41
652.25	70.22
652.39	98.30
652.54	79.58
652.68	60.85
652.83	44.47
652.97	86.60
653.12	67.88
653.26	16.38
653.41	58.51
653.55	0.00
653.70	84.26
653.84	60.85
653.99	0.00
654.13	0.00
654.27	93.62
654.42	28.09
654.56	149.79
654.71	53.83
654.85	81.92
655.00	46.81
655.14	56.17
655.29	11.70
655.43	49.15
655.57	63.19
655.72	60.85
655.86	95.96
656.01	0.00
656.15	81.92
656.30	88.94
656.44	67.88
656.58	32.77
656.73	60.85
656.87	42.13
657.01	39.79
657.16	72.56
657.30	0.00
657.45	86.60
657.59	79.58
657.73	14.04
657.88	51.49
658.02	49.15
658.16	28.09
658.31	2.34
658.45	32.77
658.60	30.43
658.74	156.82
658.88	74.90
659.03	18.72
659.17	98.30
659.31	32.77
659.46	16.38
659.60	14.04
659.74	67.88
659.89	112.35
660.03	88.94
660.17	65.54
660.32	0.00
660.46	84.26
660.60	110.01
660.74	70.22
660.89	7.02
661.03	11.70
661.17	14.04
661.32	51.49
661.46	86.60
661.60	9.36
661.74	84.26
661.89	133.41
662.03	72.56
662.17	79.58
662.31	56.17
662.46	53.83
662.60	49.15
662.74	18.72
662.88	93.62
663.03	95.96
663.17	114.69
663.31	112.35
663.45	112.35
663.60	0.00
663.74	98.30
663.88	63.19
664.02	110.01
664.17	37.45
664.31	25.75
664.45	49.15
664.59	110.01
664.73	23.41
664.88	51.49
665.02	72.56
665.16	56.17
665.30	74.90
665.44	110.01
665.59	18.72
665.73	0.00
665.87	0.00
666.01	42.13
666.15	21.06
666.29	28.09
666.44	0.00
666.58	86.60
666.72	7.02
666.86	14.04
667.00	67.88
667.14	14.04
667.28	28.09
667.43	28.09
667.57	46.81
667.71	56.17
667.85	30.43
667.99	74.90
668.13	77.24
668.27	14.04
668.41	58.51
668.56	135.75
668.70	44.47
668.84	58.51
668.98	84.26
669.12	81.92
669.26	51.49
669.40	37.45
669.54	4.68
669.68	0.00
669.82	110.01
669.96	53.83
670.10	37.45
670.25	56.17
670.39	28.09
670.53	98.30
670.67	37.45
670.81	42.13
670.95	102.98
671.09	86.60
671.23	37.45
671.37	53.83
671.51	93.62
671.65	46.81
671.79	42.13
671.93	51.49
672.07	135.75
672.21	46.81
672.35	67.88
672.49	42.13
672.63	30.43
672.77	65.54
672.91	44.47
673.05	72.56
673.19	14.04
673.33	44.47
673.47	28.09
673.61	35.11
673.75	100.64
673.89	102.98
674.03	49.15
674.17	0.00
674.31	72.56
674.45	4.68
674.59	65.54
674.73	49.15
674.87	60.85
675.01	35.11
675.15	42.13
675.29	25.75
675.43	65.54
675.56	98.30
675.70	60.85
675.84	0.00
675.98	32.77
676.12	77.24
676.26	44.47
676.40	16.38
676.54	35.11
676.68	95.96
676.82	95.96
676.96	2.34
677.10	28.09
677.23	135.75
677.37	77.24
677.51	39.79
677.65	18.72
677.79	88.94
677.93	9.36
678.07	11.70
678.21	42.13
678.34	77.24
678.48	49.15
678.62	11.70
678.76	46.81
678.90	51.49
679.04	37.45
679.18	4.68
679.31	37.45
679.45	95.96
679.59	7.02
679.73	77.24
679.87	53.83
680.00	98.30
680.14	28.09
680.28	74.90
680.42	25.75
680.56	49.15
680.70	81.92
680.83	84.26
680.97	0.00
681.11	46.81
681.25	46.81
681.39	95.96
681.52	25.75
681.66	23.41
681.80	91.28
681.94	60.85
682.07	35.11
682.21	11.70
682.35	42.13
682.49	18.72
682.62	63.19
682.76	100.64
682.90	4.68
683.04	14.04
683.17	86.60
683.31	79.58
683.45	81.92
683.59	16.38
683.72	28.09
683.86	0.00
684.00	53.83
684.13	39.79
684.27	32.77
684.41	39.79
684.55	7.02
684.68	56.17
684.82	93.62
684.96	18.72
685.09	39.79
685.23	46.81
685.37	58.51
685.50	0.00
685.64	0.00
685.78	77.24
685.91	30.43
686.05	79.58
686.19	60.85
686.32	0.00
686.46	30.43
686.60	4.68
686.73	126.39
686.87	21.06
687.01	42.13
687.14	84.26
687.28	56.17
687.42	28.09
687.55	49.15
687.69	0.00
687.82	9.36
687.96	0.00
688.10	72.56
688.23	72.56
688.37	37.45
688.50	16.38
688.64	32.77
688.78	0.00
688.91	21.06
689.05	0.00
689.18	25.75
689.32	95.96
689.46	4.68
689.59	84.26
689.73	44.47
689.86	51.49
690.00	7.02
690.13	46.81
690.27	4.68
690.41	58.51
690.54	11.70
690.68	84.26
690.81	37.45
690.95	84.26
691.08	14.04
691.22	23.41
691.35	46.81
691.49	30.43
691.62	14.04
691.76	56.17
691.89	60.85
692.03	46.81
692.16	51.49
692.30	0.00
692.43	56.17
692.57	0.00
692.70	81.92
692.84	81.92
692.97	37.45
693.11	32.77
693.24	16.38
693.38	28.09
693.51	74.90
693.65	51.49
693.78	74.90
693.92	63.19
694.05	37.45
694.19	51.49
694.32	135.75
694.45	95.96
694.59	4.68
694.72	16.38
694.86	14.04
694.99	49.15
695.13	112.35
695.26	63.19
695.39	30.43
695.53	60.85
695.66	72.56
695.80	72.56
695.93	0.00
696.07	0.00
696.20	51.49
696.33	58.51
696.47	0.00
696.60	44.47
696.73	53.83
696.87	105.32
697.00	28.09
697.14	0.00
697.27	63.19
697.40	9.36
697.54	39.79
697.67	135.75
697.80	23.41
697.94	25.75
698.07	44.47
698.21	23.41
698.34	72.56
698.47	23.41
698.61	30.43
698.74	14.04
698.87	88.94
699.01	74.90
699.14	0.00
699.27	0.00
699.40	9.36
699.54	46.81
699.67	11.70
699.80	0.00
699.94	11.70
700.07	58.51
700.20	46.81
700.34	60.85
700.47	0.00
700.60	93.62
700.73	2.34
700.87	32.77
701.00	51.49
701.13	18.72
701.26	44.47
701.40	46.81
701.53	35.11
701.66	93.62
701.79	0.00
701.93	0.00
702.06	0.00
702.19	2.34
702.32	21.06
702.46	9.36
702.59	126.39
702.72	86.60
702.85	25.75
702.99	4.68
703.12	72.56
703.25	18.72
703.38	0.00
703.51	23.41
703.65	86.60
703.78	65.54
703.91	37.45
704.04	51.49
704.17	0.00
704.31	0.00
704.44	58.51
704.57	0.00
704.70	0.00
704.83	91.28
704.96	46.81
705.10	49.15
705.23	91.28
>>>>>End Processed Spectral Data<<<<<
