SpectraSuite Data File
++++++++++++++++++++++++++++++++++++
Date: Fri Oct 04 12:13:26 GMT-05:00 2013
User: price-jones
Dark Spectrum Present: No
Reference Spectrum Present: No
Number of Sampled Component Spectra: 1
Spectrometers: USB2+H05261
Integration Time (usec): 10000 (USB2+H05261)
Spectra Averaged: 1 (USB2+H05261)
Boxcar Smoothing: 0 (USB2+H05261)
Correct for Electrical Dark: No (USB2+H05261)
Strobe/Lamp Enabled: No (USB2+H05261)
Correct for Detector Non-linearity: No (USB2+H05261)
Correct for Stray Light: No (USB2+H05261)
Number of Pixels in Processed Spectrum: 2048
>>>>>Begin Processed Spectral Data<<<<<
365.73	0.00
365.92	0.00
366.12	0.00
366.32	0.00
366.52	0.00
366.72	0.00
366.91	0.00
367.11	0.00
367.31	0.00
367.51	0.00
367.70	0.00
367.90	0.00
368.10	0.00
368.30	0.00
368.49	0.00
368.69	0.00
368.89	0.00
369.09	0.00
369.28	0.00
369.48	0.00
369.68	0.00
369.87	0.00
370.07	0.00
370.27	0.00
370.47	0.00
370.66	0.00
370.86	0.00
371.06	0.00
371.25	0.00
371.45	14.04
371.65	0.00
371.84	0.00
372.04	53.83
372.24	42.13
372.44	0.00
372.63	37.45
372.83	0.00
373.03	0.00
373.22	18.72
373.42	25.75
373.62	65.54
373.81	0.00
374.01	0.00
374.21	42.13
374.40	2.34
374.60	60.85
374.79	2.34
374.99	25.75
375.19	32.77
375.38	21.06
375.58	0.00
375.78	74.90
375.97	53.83
376.17	72.56
376.37	0.00
376.56	7.02
376.76	0.00
376.95	58.51
377.15	39.79
377.35	37.45
377.54	14.04
377.74	79.58
377.93	88.94
378.13	0.00
378.33	53.83
378.52	0.00
378.72	0.00
378.91	0.00
379.11	0.00
379.31	35.11
379.50	4.68
379.70	0.00
379.89	53.83
380.09	0.00
380.28	21.06
380.48	23.41
380.68	14.04
380.87	0.00
381.07	35.11
381.26	0.00
381.46	9.36
381.65	0.00
381.85	2.34
382.04	53.83
382.24	65.54
382.43	4.68
382.63	28.09
382.83	0.00
383.02	37.45
383.22	0.00
383.41	60.85
383.61	16.38
383.80	35.11
384.00	0.00
384.19	14.04
384.39	30.43
384.58	63.19
384.78	23.41
384.97	0.00
385.17	9.36
385.36	30.43
385.56	14.04
385.75	0.00
385.95	28.09
386.14	0.00
386.34	30.43
386.53	0.00
386.72	28.09
386.92	35.11
387.11	72.56
387.31	46.81
387.50	7.02
387.70	37.45
387.89	0.00
388.09	30.43
388.28	23.41
388.48	74.90
388.67	51.49
388.86	77.24
389.06	7.02
389.25	42.13
389.45	58.51
389.64	39.79
389.84	7.02
390.03	37.45
390.22	0.00
390.42	0.00
390.61	70.22
390.81	0.00
391.00	0.00
391.19	23.41
391.39	0.00
391.58	60.85
391.78	2.34
391.97	49.15
392.16	42.13
392.36	42.13
392.55	0.00
392.75	0.00
392.94	42.13
393.13	0.00
393.33	58.51
393.52	60.85
393.71	18.72
393.91	79.58
394.10	32.77
394.29	77.24
394.49	7.02
394.68	72.56
394.88	77.24
395.07	67.88
395.26	35.11
395.46	0.00
395.65	0.00
395.84	72.56
396.04	128.73
396.23	0.00
396.42	0.00
396.62	74.90
396.81	23.41
397.00	35.11
397.19	0.00
397.39	37.45
397.58	46.81
397.77	2.34
397.97	79.58
398.16	0.00
398.35	2.34
398.55	9.36
398.74	0.00
398.93	46.81
399.12	28.09
399.32	63.19
399.51	21.06
399.70	0.00
399.90	25.75
400.09	25.75
400.28	0.00
400.47	2.34
400.67	32.77
400.86	32.77
401.05	0.00
401.24	0.00
401.44	0.00
401.63	0.00
401.82	0.00
402.01	0.00
402.21	28.09
402.40	37.45
402.59	58.51
402.78	16.38
402.97	35.11
403.17	11.70
403.36	0.00
403.55	16.38
403.74	2.34
403.93	4.68
404.13	51.49
404.32	14.04
404.51	28.09
404.70	58.51
404.89	58.51
405.09	81.92
405.28	51.49
405.47	70.22
405.66	9.36
405.85	95.96
406.05	0.00
406.24	30.43
406.43	39.79
406.62	35.11
406.81	30.43
407.00	32.77
407.20	77.24
407.39	0.00
407.58	49.15
407.77	65.54
407.96	37.45
408.15	25.75
408.34	56.17
408.54	86.60
408.73	30.43
408.92	23.41
409.11	42.13
409.30	67.88
409.49	9.36
409.68	14.04
409.87	51.49
410.07	37.45
410.26	0.00
410.45	0.00
410.64	0.00
410.83	0.00
411.02	28.09
411.21	16.38
411.40	21.06
411.59	11.70
411.78	2.34
411.98	21.06
412.17	16.38
412.36	0.00
412.55	53.83
412.74	25.75
412.93	0.00
413.12	0.00
413.31	58.51
413.50	65.54
413.69	18.72
413.88	44.47
414.07	0.00
414.26	4.68
414.45	105.32
414.64	39.79
414.83	39.79
415.02	88.94
415.22	28.09
415.41	0.00
415.60	0.00
415.79	72.56
415.98	81.92
416.17	60.85
416.36	84.26
416.55	0.00
416.74	46.81
416.93	51.49
417.12	63.19
417.31	28.09
417.50	23.41
417.69	42.13
417.88	46.81
418.07	28.09
418.26	77.24
418.45	35.11
418.64	0.00
418.83	51.49
419.02	0.00
419.21	2.34
419.39	35.11
419.58	0.00
419.77	0.00
419.96	74.90
420.15	39.79
420.34	9.36
420.53	91.28
420.72	0.00
420.91	0.00
421.10	35.11
421.29	0.00
421.48	0.00
421.67	53.83
421.86	46.81
422.05	35.11
422.24	23.41
422.43	4.68
422.61	67.88
422.80	102.98
422.99	72.56
423.18	100.64
423.37	0.00
423.56	4.68
423.75	0.00
423.94	23.41
424.13	7.02
424.32	28.09
424.50	72.56
424.69	18.72
424.88	9.36
425.07	37.45
425.26	35.11
425.45	16.38
425.64	51.49
425.83	32.77
426.01	0.00
426.20	60.85
426.39	42.13
426.58	0.00
426.77	37.45
426.96	0.00
427.15	0.00
427.33	32.77
427.52	53.83
427.71	0.00
427.90	28.09
428.09	0.00
428.28	0.00
428.46	0.00
428.65	70.22
428.84	65.54
429.03	79.58
429.22	9.36
429.40	35.11
429.59	0.00
429.78	67.88
429.97	72.56
430.16	7.02
430.34	88.94
430.53	9.36
430.72	28.09
430.91	42.13
431.10	53.83
431.28	21.06
431.47	49.15
431.66	56.17
431.85	0.00
432.03	7.02
432.22	0.00
432.41	32.77
432.60	0.00
432.79	0.00
432.97	39.79
433.16	25.75
433.35	21.06
433.54	30.43
433.72	0.00
433.91	23.41
434.10	70.22
434.28	28.09
434.47	9.36
434.66	67.88
434.85	4.68
435.03	0.00
435.22	28.09
435.41	11.70
435.59	23.41
435.78	72.56
435.97	56.17
436.16	32.77
436.34	16.38
436.53	23.41
436.72	39.79
436.90	95.96
437.09	93.62
437.28	95.96
437.46	25.75
437.65	67.88
437.84	0.00
438.02	30.43
438.21	60.85
438.40	102.98
438.58	7.02
438.77	28.09
438.96	88.94
439.14	25.75
439.33	0.00
439.52	0.00
439.70	4.68
439.89	39.79
440.08	25.75
440.26	0.00
440.45	0.00
440.63	63.19
440.82	11.70
441.01	60.85
441.19	28.09
441.38	44.47
441.57	11.70
441.75	0.00
441.94	53.83
442.12	72.56
442.31	25.75
442.50	0.00
442.68	42.13
442.87	39.79
443.05	32.77
443.24	0.00
443.43	0.00
443.61	46.81
443.80	72.56
443.98	0.00
444.17	46.81
444.35	18.72
444.54	107.66
444.73	35.11
444.91	32.77
445.10	0.00
445.28	63.19
445.47	0.00
445.65	51.49
445.84	42.13
446.02	51.49
446.21	42.13
446.39	28.09
446.58	0.00
446.77	0.00
446.95	39.79
447.14	14.04
447.32	39.79
447.51	49.15
447.69	0.00
447.88	28.09
448.06	49.15
448.25	32.77
448.43	11.70
448.62	37.45
448.80	28.09
448.99	42.13
449.17	0.00
449.36	0.00
449.54	2.34
449.73	35.11
449.91	35.11
450.10	37.45
450.28	14.04
450.46	39.79
450.65	0.00
450.83	39.79
451.02	58.51
451.20	79.58
451.39	30.43
451.57	0.00
451.76	77.24
451.94	0.00
452.13	0.00
452.31	7.02
452.49	58.51
452.68	25.75
452.86	100.64
453.05	60.85
453.23	0.00
453.42	39.79
453.60	46.81
453.78	0.00
453.97	67.88
454.15	9.36
454.34	60.85
454.52	0.00
454.70	0.00
454.89	0.00
455.07	16.38
455.26	44.47
455.44	32.77
455.62	51.49
455.81	0.00
455.99	51.49
456.17	44.47
456.36	39.79
456.54	18.72
456.73	42.13
456.91	14.04
457.09	84.26
457.28	39.79
457.46	28.09
457.64	72.56
457.83	7.02
458.01	42.13
458.19	0.00
458.38	0.00
458.56	0.00
458.74	0.00
458.93	32.77
459.11	30.43
459.29	28.09
459.48	60.85
459.66	93.62
459.84	49.15
460.03	53.83
460.21	0.00
460.39	21.06
460.57	39.79
460.76	21.06
460.94	102.98
461.12	35.11
461.31	63.19
461.49	4.68
461.67	0.00
461.85	70.22
462.04	25.75
462.22	112.35
462.40	74.90
462.59	23.41
462.77	58.51
462.95	58.51
463.13	28.09
463.32	102.98
463.50	32.77
463.68	53.83
463.86	0.00
464.05	65.54
464.23	67.88
464.41	51.49
464.59	0.00
464.78	7.02
464.96	46.81
465.14	74.90
465.32	37.45
465.50	16.38
465.69	9.36
465.87	42.13
466.05	4.68
466.23	0.00
466.41	37.45
466.60	74.90
466.78	0.00
466.96	18.72
467.14	56.17
467.32	51.49
467.51	32.77
467.69	42.13
467.87	0.00
468.05	35.11
468.23	46.81
468.41	0.00
468.60	0.00
468.78	65.54
468.96	0.00
469.14	51.49
469.32	117.03
469.50	65.54
469.69	4.68
469.87	0.00
470.05	53.83
470.23	0.00
470.41	4.68
470.59	4.68
470.77	67.88
470.95	23.41
471.14	30.43
471.32	0.00
471.50	37.45
471.68	0.00
471.86	21.06
472.04	37.45
472.22	4.68
472.40	42.13
472.58	93.62
472.77	32.77
472.95	88.94
473.13	117.03
473.31	70.22
473.49	21.06
473.67	0.00
473.85	25.75
474.03	84.26
474.21	25.75
474.39	18.72
474.57	51.49
474.75	58.51
474.93	35.11
475.12	21.06
475.30	32.77
475.48	18.72
475.66	60.85
475.84	14.04
476.02	4.68
476.20	53.83
476.38	11.70
476.56	56.17
476.74	37.45
476.92	53.83
477.10	112.35
477.28	0.00
477.46	4.68
477.64	42.13
477.82	37.45
478.00	0.00
478.18	51.49
478.36	60.85
478.54	0.00
478.72	0.00
478.90	0.00
479.08	112.35
479.26	11.70
479.44	65.54
479.62	16.38
479.80	28.09
479.98	23.41
480.16	39.79
480.34	0.00
480.52	51.49
480.70	18.72
480.88	30.43
481.06	49.15
481.24	11.70
481.41	135.75
481.59	93.62
481.77	39.79
481.95	51.49
482.13	58.51
482.31	28.09
482.49	0.00
482.67	0.00
482.85	23.41
483.03	0.00
483.21	9.36
483.39	0.00
483.57	58.51
483.74	56.17
483.92	70.22
484.10	0.00
484.28	0.00
484.46	117.03
484.64	14.04
484.82	49.15
485.00	35.11
485.18	7.02
485.35	0.00
485.53	11.70
485.71	11.70
485.89	0.00
486.07	7.02
486.25	11.70
486.43	0.00
486.61	42.13
486.78	28.09
486.96	107.66
487.14	56.17
487.32	0.00
487.50	102.98
487.68	9.36
487.85	23.41
488.03	21.06
488.21	65.54
488.39	65.54
488.57	65.54
488.75	0.00
488.92	28.09
489.10	21.06
489.28	77.24
489.46	28.09
489.64	56.17
489.81	58.51
489.99	11.70
490.17	16.38
490.35	37.45
490.53	0.00
490.70	32.77
490.88	67.88
491.06	11.70
491.24	18.72
491.41	44.47
491.59	77.24
491.77	84.26
491.95	9.36
492.13	65.54
492.30	110.01
492.48	0.00
492.66	65.54
492.84	117.03
493.01	37.45
493.19	44.47
493.37	18.72
493.54	49.15
493.72	0.00
493.90	0.00
494.08	0.00
494.25	0.00
494.43	70.22
494.61	0.00
494.79	9.36
494.96	25.75
495.14	0.00
495.32	63.19
495.49	30.43
495.67	0.00
495.85	30.43
496.02	0.00
496.20	84.26
496.38	30.43
496.55	28.09
496.73	46.81
496.91	11.70
497.09	25.75
497.26	46.81
497.44	72.56
497.62	65.54
497.79	70.22
497.97	74.90
498.14	42.13
498.32	191.92
498.50	35.11
498.67	25.75
498.85	67.88
499.03	0.00
499.20	21.06
499.38	32.77
499.56	25.75
499.73	74.90
499.91	65.54
500.08	51.49
500.26	14.04
500.44	16.38
500.61	7.02
500.79	86.60
500.97	60.85
501.14	14.04
501.32	0.00
501.49	9.36
501.67	74.90
501.84	72.56
502.02	60.85
502.20	0.00
502.37	0.00
502.55	65.54
502.72	121.71
502.90	0.00
503.07	70.22
503.25	0.00
503.43	58.51
503.60	11.70
503.78	79.58
503.95	39.79
504.13	51.49
504.30	100.64
504.48	18.72
504.65	70.22
504.83	32.77
505.01	81.92
505.18	9.36
505.36	74.90
505.53	114.69
505.71	58.51
505.88	11.70
506.06	25.75
506.23	32.77
506.41	46.81
506.58	28.09
506.76	46.81
506.93	0.00
507.11	0.00
507.28	67.88
507.46	14.04
507.63	65.54
507.81	42.13
507.98	46.81
508.16	53.83
508.33	14.04
508.50	0.00
508.68	93.62
508.85	79.58
509.03	65.54
509.20	35.11
509.38	51.49
509.55	25.75
509.73	25.75
509.90	39.79
510.08	79.58
510.25	35.11
510.42	0.00
510.60	9.36
510.77	23.41
510.95	35.11
511.12	37.45
511.30	56.17
511.47	2.34
511.64	9.36
511.82	16.38
511.99	0.00
512.17	21.06
512.34	53.83
512.51	107.66
512.69	0.00
512.86	100.64
513.04	0.00
513.21	0.00
513.38	37.45
513.56	42.13
513.73	0.00
513.90	39.79
514.08	37.45
514.25	23.41
514.43	11.70
514.60	51.49
514.77	65.54
514.95	0.00
515.12	51.49
515.29	63.19
515.47	65.54
515.64	0.00
515.81	35.11
515.99	67.88
516.16	42.13
516.33	51.49
516.51	0.00
516.68	63.19
516.85	30.43
517.03	37.45
517.20	4.68
517.37	77.24
517.54	60.85
517.72	58.51
517.89	77.24
518.06	0.00
518.24	0.00
518.41	91.28
518.58	0.00
518.75	21.06
518.93	86.60
519.10	42.13
519.27	63.19
519.45	18.72
519.62	30.43
519.79	58.51
519.96	67.88
520.14	46.81
520.31	0.00
520.48	51.49
520.65	49.15
520.83	21.06
521.00	44.47
521.17	0.00
521.34	46.81
521.52	86.60
521.69	88.94
521.86	58.51
522.03	77.24
522.20	67.88
522.38	0.00
522.55	56.17
522.72	18.72
522.89	23.41
523.07	30.43
523.24	28.09
523.41	2.34
523.58	42.13
523.75	0.00
523.92	14.04
524.10	39.79
524.27	42.13
524.44	23.41
524.61	91.28
524.78	112.35
524.96	117.03
525.13	21.06
525.30	58.51
525.47	56.17
525.64	23.41
525.81	74.90
525.98	79.58
526.16	14.04
526.33	7.02
526.50	32.77
526.67	100.64
526.84	21.06
527.01	51.49
527.18	39.79
527.36	60.85
527.53	37.45
527.70	25.75
527.87	28.09
528.04	32.77
528.21	58.51
528.38	44.47
528.55	2.34
528.72	4.68
528.89	46.81
529.07	60.85
529.24	0.00
529.41	0.00
529.58	79.58
529.75	37.45
529.92	0.00
530.09	32.77
530.26	0.00
530.43	86.60
530.60	0.00
530.77	35.11
530.94	44.47
531.11	30.43
531.28	0.00
531.46	49.15
531.63	7.02
531.80	7.02
531.97	56.17
532.14	28.09
532.31	86.60
532.48	51.49
532.65	79.58
532.82	18.72
532.99	21.06
533.16	0.00
533.33	42.13
533.50	14.04
533.67	56.17
533.84	0.00
534.01	30.43
534.18	88.94
534.35	35.11
534.52	28.09
534.69	0.00
534.86	93.62
535.03	46.81
535.20	84.26
535.37	42.13
535.54	23.41
535.71	88.94
535.88	102.98
536.05	42.13
536.22	16.38
536.38	93.62
536.55	74.90
536.72	49.15
536.89	0.00
537.06	18.72
537.23	44.47
537.40	7.02
537.57	46.81
537.74	46.81
537.91	0.00
538.08	42.13
538.25	30.43
538.42	23.41
538.59	23.41
538.75	9.36
538.92	91.28
539.09	16.38
539.26	91.28
539.43	58.51
539.60	51.49
539.77	86.60
539.94	77.24
540.11	72.56
540.28	95.96
540.44	9.36
540.61	51.49
540.78	98.30
540.95	37.45
541.12	32.77
541.29	32.77
541.46	65.54
541.62	30.43
541.79	81.92
541.96	0.00
542.13	11.70
542.30	35.11
542.47	58.51
542.63	42.13
542.80	77.24
542.97	128.73
543.14	39.79
543.31	9.36
543.48	9.36
543.64	0.00
543.81	0.00
543.98	53.83
544.15	77.24
544.32	0.00
544.48	110.01
544.65	4.68
544.82	21.06
544.99	39.79
545.16	0.00
545.32	58.51
545.49	21.06
545.66	0.00
545.83	30.43
546.00	0.00
546.16	16.38
546.33	14.04
546.50	84.26
546.67	51.49
546.83	56.17
547.00	88.94
547.17	77.24
547.34	14.04
547.50	21.06
547.67	65.54
547.84	46.81
548.00	81.92
548.17	30.43
548.34	32.77
548.51	35.11
548.67	65.54
548.84	63.19
549.01	74.90
549.18	46.81
549.34	44.47
549.51	84.26
549.68	42.13
549.84	0.00
550.01	63.19
550.18	11.70
550.34	42.13
550.51	49.15
550.68	53.83
550.84	0.00
551.01	60.85
551.18	56.17
551.34	25.75
551.51	9.36
551.68	65.54
551.84	2.34
552.01	32.77
552.18	0.00
552.34	58.51
552.51	9.36
552.68	9.36
552.84	30.43
553.01	35.11
553.18	0.00
553.34	84.26
553.51	7.02
553.67	28.09
553.84	56.17
554.01	79.58
554.17	30.43
554.34	42.13
554.51	44.47
554.67	0.00
554.84	79.58
555.00	0.00
555.17	67.88
555.33	2.34
555.50	35.11
555.67	21.06
555.83	46.81
556.00	93.62
556.16	49.15
556.33	72.56
556.50	91.28
556.66	42.13
556.83	0.00
556.99	72.56
557.16	2.34
557.32	0.00
557.49	0.00
557.65	53.83
557.82	2.34
557.98	53.83
558.15	56.17
558.32	77.24
558.48	23.41
558.65	4.68
558.81	79.58
558.98	107.66
559.14	37.45
559.31	37.45
559.47	81.92
559.64	42.13
559.80	28.09
559.97	65.54
560.13	35.11
560.30	72.56
560.46	46.81
560.63	126.39
560.79	0.00
560.96	35.11
561.12	0.00
561.29	23.41
561.45	58.51
561.61	0.00
561.78	14.04
561.94	51.49
562.11	51.49
562.27	42.13
562.44	98.30
562.60	14.04
562.77	49.15
562.93	7.02
563.10	93.62
563.26	53.83
563.42	72.56
563.59	0.00
563.75	60.85
563.92	51.49
564.08	0.00
564.24	7.02
564.41	32.77
564.57	65.54
564.74	44.47
564.90	110.01
565.07	37.45
565.23	9.36
565.39	32.77
565.56	93.62
565.72	9.36
565.88	65.54
566.05	124.05
566.21	81.92
566.38	37.45
566.54	81.92
566.70	56.17
566.87	42.13
567.03	32.77
567.19	4.68
567.36	18.72
567.52	72.56
567.68	11.70
567.85	58.51
568.01	102.98
568.17	70.22
568.34	21.06
568.50	32.77
568.66	79.58
568.83	14.04
568.99	28.09
569.15	79.58
569.32	117.03
569.48	84.26
569.64	51.49
569.81	9.36
569.97	11.70
570.13	35.11
570.30	131.07
570.46	25.75
570.62	88.94
570.78	77.24
570.95	14.04
571.11	98.30
571.27	72.56
571.43	39.79
571.60	9.36
571.76	79.58
571.92	30.43
572.09	0.00
572.25	32.77
572.41	74.90
572.57	18.72
572.74	0.00
572.90	39.79
573.06	49.15
573.22	70.22
573.38	35.11
573.55	60.85
573.71	93.62
573.87	28.09
574.03	21.06
574.20	25.75
574.36	25.75
574.52	9.36
574.68	70.22
574.84	7.02
575.01	84.26
575.17	23.41
575.33	42.13
575.49	39.79
575.65	0.00
575.82	32.77
575.98	58.51
576.14	11.70
576.30	37.45
576.46	35.11
576.62	16.38
576.79	79.58
576.95	95.96
577.11	74.90
577.27	0.00
577.43	51.49
577.59	100.64
577.75	0.00
577.92	18.72
578.08	58.51
578.24	56.17
578.40	63.19
578.56	44.47
578.72	58.51
578.88	28.09
579.04	74.90
579.21	28.09
579.37	4.68
579.53	2.34
579.69	74.90
579.85	42.13
580.01	39.79
580.17	51.49
580.33	58.51
580.49	30.43
580.65	107.66
580.82	39.79
580.98	25.75
581.14	32.77
581.30	88.94
581.46	77.24
581.62	65.54
581.78	28.09
581.94	32.77
582.10	53.83
582.26	0.00
582.42	95.96
582.58	23.41
582.74	51.49
582.90	56.17
583.06	14.04
583.22	11.70
583.38	53.83
583.54	81.92
583.70	2.34
583.86	58.51
584.02	79.58
584.18	79.58
584.34	74.90
584.50	168.52
584.66	1032.18
584.82	2401.39
584.98	3141.00
585.14	2689.28
585.30	1734.34
585.46	1179.63
585.62	767.70
585.78	287.89
585.94	194.26
586.10	91.28
586.26	32.77
586.42	42.13
586.58	58.51
586.74	11.70
586.90	0.00
587.06	119.37
587.22	86.60
587.38	67.88
587.54	107.66
587.70	215.33
587.86	245.76
588.02	290.23
588.18	194.26
588.34	74.90
588.49	49.15
588.65	65.54
588.81	32.77
588.97	51.49
589.13	58.51
589.29	63.19
589.45	0.00
589.61	32.77
589.77	77.24
589.93	0.00
590.08	0.00
590.24	0.00
590.40	0.00
590.56	70.22
590.72	0.00
590.88	37.45
591.04	32.77
591.20	0.00
591.35	0.00
591.51	53.83
591.67	0.00
591.83	107.66
591.99	0.00
592.15	9.36
592.31	23.41
592.46	70.22
592.62	0.00
592.78	58.51
592.94	58.51
593.10	25.75
593.26	58.51
593.41	93.62
593.57	0.00
593.73	74.90
593.89	201.29
594.05	337.04
594.20	379.17
594.36	362.78
594.52	215.33
594.68	191.92
594.84	110.01
594.99	72.56
595.15	93.62
595.31	60.85
595.47	107.66
595.62	0.00
595.78	21.06
595.94	58.51
596.10	28.09
596.25	49.15
596.41	79.58
596.57	86.60
596.73	53.83
596.88	35.11
597.04	72.56
597.20	95.96
597.36	133.41
597.51	95.96
597.67	74.90
597.83	91.28
597.99	30.43
598.14	121.71
598.30	105.32
598.46	51.49
598.61	0.00
598.77	0.00
598.93	14.04
599.09	79.58
599.24	0.00
599.40	60.85
599.56	49.15
599.71	21.06
599.87	51.49
600.03	30.43
600.18	46.81
600.34	37.45
600.50	0.00
600.65	42.13
600.81	60.85
600.97	28.09
601.12	67.88
601.28	0.00
601.44	2.34
601.59	63.19
601.75	14.04
601.91	46.81
602.06	18.72
602.22	60.85
602.37	91.28
602.53	105.32
602.69	184.90
602.84	145.11
603.00	121.71
603.16	21.06
603.31	117.03
603.47	58.51
603.62	86.60
603.78	14.04
603.94	112.35
604.09	25.75
604.25	37.45
604.40	46.81
604.56	44.47
604.71	74.90
604.87	56.17
605.03	39.79
605.18	16.38
605.34	0.00
605.49	77.24
605.65	16.38
605.80	11.70
605.96	67.88
606.12	86.60
606.27	23.41
606.43	95.96
606.58	65.54
606.74	91.28
606.89	187.24
607.05	280.86
607.20	390.87
607.36	400.23
607.51	212.99
607.67	152.13
607.82	196.60
607.98	131.07
608.13	25.75
608.29	58.51
608.44	74.90
608.60	28.09
608.75	32.77
608.91	72.56
609.06	248.10
609.22	468.11
609.37	596.84
609.53	561.73
609.68	346.40
609.84	273.84
609.99	201.29
610.15	163.84
610.30	65.54
610.46	35.11
610.61	102.98
610.76	84.26
610.92	44.47
611.07	0.00
611.23	100.64
611.38	0.00
611.54	86.60
611.69	81.92
611.84	28.09
612.00	60.85
612.15	37.45
612.31	32.77
612.46	131.07
612.62	2.34
612.77	37.45
612.92	60.85
613.08	14.04
613.23	70.22
613.39	53.83
613.54	79.58
613.69	266.82
613.85	660.03
614.00	990.05
614.15	903.45
614.31	655.35
614.46	552.37
614.62	367.46
614.77	243.42
614.92	163.84
615.08	60.85
615.23	102.98
615.38	23.41
615.54	95.96
615.69	79.58
615.84	184.90
616.00	229.37
616.15	330.02
616.30	276.18
616.46	243.42
616.61	138.09
616.76	102.98
616.92	98.30
617.07	58.51
617.22	67.88
617.37	74.90
617.53	0.00
617.68	28.09
617.83	67.88
617.99	91.28
618.14	84.26
618.29	46.81
618.45	65.54
618.60	46.81
618.75	32.77
618.90	0.00
619.06	0.00
619.21	0.00
619.36	65.54
619.51	28.09
619.67	60.85
619.82	32.77
619.97	44.47
620.12	74.90
620.28	16.38
620.43	35.11
620.58	30.43
620.73	65.54
620.89	14.04
621.04	30.43
621.19	142.77
621.34	142.77
621.49	163.84
621.65	201.29
621.80	196.60
621.95	133.41
622.10	98.30
622.25	70.22
622.41	0.00
622.56	58.51
622.71	18.72
622.86	60.85
623.01	102.98
623.16	159.16
623.32	21.06
623.47	79.58
623.62	21.06
623.77	49.15
623.92	4.68
624.07	23.41
624.23	23.41
624.38	56.17
624.53	86.60
624.68	110.01
624.83	56.17
624.98	0.00
625.13	56.17
625.29	53.83
625.44	58.51
625.59	7.02
625.74	14.04
625.89	23.41
626.04	159.16
626.19	325.33
626.34	582.79
626.49	470.45
626.65	318.31
626.80	248.10
626.95	189.58
627.10	72.56
627.25	117.03
627.40	119.37
627.55	100.64
627.70	74.90
627.85	32.77
628.00	42.13
628.15	0.00
628.30	56.17
628.45	95.96
628.60	79.58
628.76	2.34
628.91	0.00
629.06	79.58
629.21	35.11
629.36	11.70
629.51	25.75
629.66	53.83
629.81	23.41
629.96	49.15
630.11	131.07
630.26	105.32
630.41	145.11
630.56	119.37
630.71	30.43
630.86	60.85
631.01	110.01
631.16	18.72
631.31	88.94
631.46	46.81
631.61	21.06
631.76	42.13
631.91	79.58
632.06	60.85
632.21	100.64
632.36	32.77
632.51	32.77
632.66	7.02
632.81	86.60
632.96	222.35
633.10	348.74
633.25	362.78
633.40	341.72
633.55	238.73
633.70	203.63
633.85	166.18
634.00	63.19
634.15	18.72
634.30	39.79
634.45	0.00
634.60	81.92
634.75	18.72
634.90	30.43
635.05	0.00
635.19	18.72
635.34	4.68
635.49	74.90
635.64	0.00
635.79	119.37
635.94	67.88
636.09	46.81
636.24	58.51
636.39	53.83
636.53	21.06
636.68	74.90
636.83	0.00
636.98	0.00
637.13	46.81
637.28	0.00
637.43	112.35
637.57	46.81
637.72	138.09
637.87	393.21
638.02	653.01
638.17	608.54
638.32	557.05
638.46	339.38
638.61	255.12
638.76	152.13
638.91	98.30
639.06	35.11
639.20	0.00
639.35	0.00
639.50	14.04
639.65	236.39
639.80	648.33
639.94	905.79
640.09	1055.58
640.24	791.10
640.39	505.56
640.54	414.27
640.68	177.88
640.83	145.11
640.98	95.96
641.13	44.47
641.27	91.28
641.42	110.01
641.57	72.56
641.72	0.00
641.86	63.19
642.01	32.77
642.16	28.09
642.31	37.45
642.45	4.68
642.60	32.77
642.75	30.43
642.90	53.83
643.04	14.04
643.19	0.00
643.34	84.26
643.48	81.92
643.63	65.54
643.78	84.26
643.93	32.77
644.07	70.22
644.22	37.45
644.37	0.00
644.51	49.15
644.66	37.45
644.81	0.00
644.95	32.77
645.10	0.00
645.25	0.00
645.39	42.13
645.54	35.11
645.69	91.28
645.83	0.00
645.98	32.77
646.13	32.77
646.27	4.68
646.42	0.00
646.57	0.00
646.71	39.79
646.86	44.47
647.00	77.24
647.15	65.54
647.30	30.43
647.44	49.15
647.59	11.70
647.74	23.41
647.88	65.54
648.03	21.06
648.17	65.54
648.32	84.26
648.47	42.13
648.61	25.75
648.76	58.51
648.90	65.54
649.05	25.75
649.20	0.00
649.34	35.11
649.49	0.00
649.63	0.00
649.78	30.43
649.92	74.90
650.07	135.75
650.21	243.42
650.36	486.83
650.51	601.52
650.65	418.96
650.80	290.23
650.94	241.08
651.09	142.77
651.23	37.45
651.38	16.38
651.52	39.79
651.67	30.43
651.81	60.85
651.96	4.68
652.10	51.49
652.25	0.00
652.39	21.06
652.54	107.66
652.68	86.60
652.83	86.60
652.97	161.50
653.12	201.29
653.26	163.84
653.41	128.73
653.55	93.62
653.70	84.26
653.84	49.15
653.99	95.96
654.13	0.00
654.27	0.00
654.42	91.28
654.56	32.77
654.71	93.62
654.85	0.00
655.00	0.00
655.14	86.60
655.29	88.94
655.43	21.06
655.57	81.92
655.72	21.06
655.86	23.41
656.01	35.11
656.15	79.58
656.30	0.00
656.44	0.00
656.58	0.00
656.73	14.04
656.87	58.51
657.01	81.92
657.16	105.32
657.30	32.77
657.45	0.00
657.59	37.45
657.73	32.77
657.88	39.79
658.02	25.75
658.16	7.02
658.31	39.79
658.45	63.19
658.60	51.49
658.74	0.00
658.88	35.11
659.03	81.92
659.17	0.00
659.31	39.79
659.46	220.01
659.60	180.22
659.74	276.18
659.89	276.18
660.03	227.03
660.17	196.60
660.32	91.28
660.46	53.83
660.60	46.81
660.74	51.49
660.89	9.36
661.03	18.72
661.17	44.47
661.32	14.04
661.46	23.41
661.60	2.34
661.74	98.30
661.89	56.17
662.03	11.70
662.17	51.49
662.31	23.41
662.46	32.77
662.60	86.60
662.74	16.38
662.88	0.00
663.03	37.45
663.17	74.90
663.31	0.00
663.45	51.49
663.60	110.01
663.74	63.19
663.88	0.00
664.02	53.83
664.17	4.68
664.31	58.51
664.45	0.00
664.59	16.38
664.73	35.11
664.88	7.02
665.02	28.09
665.16	91.28
665.30	42.13
665.44	2.34
665.59	39.79
665.73	0.00
665.87	23.41
666.01	0.00
666.15	11.70
666.29	30.43
666.44	53.83
666.58	77.24
666.72	91.28
666.86	37.45
667.00	0.00
667.14	70.22
667.28	65.54
667.43	259.80
667.57	358.10
667.71	437.68
667.85	404.91
667.99	304.27
668.13	212.99
668.27	119.37
668.41	93.62
668.56	28.09
668.70	51.49
668.84	25.75
668.98	37.45
669.12	63.19
669.26	53.83
669.40	16.38
669.54	46.81
669.68	91.28
669.82	53.83
669.96	56.17
670.10	30.43
670.25	0.00
670.39	18.72
670.53	37.45
670.67	42.13
670.81	67.88
670.95	77.24
671.09	67.88
671.23	149.79
671.37	257.46
671.51	238.73
671.65	362.78
671.79	210.65
671.93	126.39
672.07	114.69
672.21	58.51
672.35	79.58
672.49	56.17
672.63	16.38
672.77	32.77
672.91	11.70
673.05	25.75
673.19	25.75
673.33	67.88
673.47	37.45
673.61	56.17
673.75	30.43
673.89	18.72
674.03	28.09
674.17	35.11
674.31	74.90
674.45	53.83
674.59	0.00
674.73	7.02
674.87	21.06
675.01	49.15
675.15	81.92
675.29	0.00
675.43	21.06
675.56	0.00
675.70	53.83
675.84	14.04
675.98	93.62
676.12	0.00
676.26	51.49
676.40	65.54
676.54	0.00
676.68	11.70
676.82	49.15
676.96	0.00
677.10	21.06
677.23	77.24
677.37	0.00
677.51	37.45
677.65	46.81
677.79	23.41
677.93	37.45
678.07	105.32
678.21	30.43
678.34	14.04
678.48	0.00
678.62	0.00
678.76	0.00
678.90	93.62
679.04	49.15
679.18	53.83
679.31	0.00
679.45	0.00
679.59	74.90
679.73	35.11
679.87	56.17
680.00	0.00
680.14	28.09
680.28	0.00
680.42	77.24
680.56	79.58
680.70	11.70
680.83	72.56
680.97	72.56
681.11	100.64
681.25	0.00
681.39	67.88
681.52	9.36
681.66	0.00
681.80	0.00
681.94	0.00
682.07	58.51
682.21	18.72
682.35	11.70
682.49	18.72
682.62	53.83
682.76	88.94
682.90	30.43
683.04	18.72
683.17	51.49
683.31	58.51
683.45	67.88
683.59	49.15
683.72	0.00
683.86	7.02
684.00	46.81
684.13	49.15
684.27	14.04
684.41	16.38
684.55	0.00
684.68	65.54
684.82	16.38
684.96	42.13
685.09	0.00
685.23	30.43
685.37	37.45
685.50	60.85
685.64	2.34
685.78	0.00
685.91	0.00
686.05	30.43
686.19	49.15
686.32	25.75
686.46	0.00
686.60	0.00
686.73	0.00
686.87	53.83
687.01	7.02
687.14	9.36
687.28	0.00
687.42	0.00
687.55	44.47
687.69	81.92
687.82	0.00
687.96	74.90
688.10	70.22
688.23	16.38
688.37	7.02
688.50	4.68
688.64	11.70
688.78	65.54
688.91	14.04
689.05	14.04
689.18	11.70
689.32	18.72
689.46	32.77
689.59	39.79
689.73	11.70
689.86	35.11
690.00	4.68
690.13	63.19
690.27	0.00
690.41	0.00
690.54	44.47
690.68	18.72
690.81	4.68
690.95	121.71
691.08	0.00
691.22	2.34
691.35	0.00
691.49	0.00
691.62	18.72
691.76	0.00
691.89	30.43
692.03	56.17
692.16	2.34
692.30	7.02
692.43	46.81
692.57	154.48
692.70	182.56
692.84	227.03
692.97	217.67
693.11	121.71
693.24	131.07
693.38	114.69
693.51	77.24
693.65	86.60
693.78	60.85
693.92	60.85
694.05	0.00
694.19	30.43
694.32	42.13
694.45	25.75
694.59	107.66
694.72	28.09
694.86	35.11
694.99	39.79
695.13	21.06
695.26	0.00
695.39	0.00
695.53	46.81
695.66	88.94
695.80	2.34
695.93	84.26
696.07	18.72
696.20	21.06
696.33	0.00
696.47	0.00
696.60	49.15
696.73	49.15
696.87	107.66
697.00	107.66
697.14	0.00
697.27	18.72
697.40	51.49
697.54	4.68
697.67	102.98
697.80	32.77
697.94	0.00
698.07	37.45
698.21	0.00
698.34	32.77
698.47	0.00
698.61	39.79
698.74	100.64
698.87	0.00
699.01	0.00
699.14	28.09
699.27	0.00
699.40	46.81
699.54	65.54
699.67	11.70
699.80	28.09
699.94	14.04
700.07	84.26
700.20	0.00
700.34	23.41
700.47	42.13
700.60	9.36
700.73	0.00
700.87	63.19
701.00	42.13
701.13	81.92
701.26	0.00
701.40	37.45
701.53	0.00
701.66	0.00
701.79	0.00
701.93	0.00
702.06	23.41
702.19	79.58
702.32	39.79
702.46	0.00
702.59	25.75
702.72	32.77
702.85	112.35
702.99	262.14
703.12	379.17
703.25	360.44
703.38	264.48
703.51	318.31
703.65	168.52
703.78	159.16
703.91	100.64
704.04	67.88
704.17	39.79
704.31	9.36
704.44	16.38
704.57	100.64
704.70	7.02
704.83	32.77
704.96	51.49
705.10	42.13
705.23	18.72
>>>>>End Processed Spectral Data<<<<<
