SpectraSuite Data File
++++++++++++++++++++++++++++++++++++
Date: Fri Oct 04 12:13:41 GMT-05:00 2013
User: price-jones
Dark Spectrum Present: No
Reference Spectrum Present: No
Number of Sampled Component Spectra: 1
Spectrometers: USB2+H05261
Integration Time (usec): 10000 (USB2+H05261)
Spectra Averaged: 1 (USB2+H05261)
Boxcar Smoothing: 0 (USB2+H05261)
Correct for Electrical Dark: No (USB2+H05261)
Strobe/Lamp Enabled: No (USB2+H05261)
Correct for Detector Non-linearity: No (USB2+H05261)
Correct for Stray Light: No (USB2+H05261)
Number of Pixels in Processed Spectrum: 2048
>>>>>Begin Processed Spectral Data<<<<<
365.73	30.43
365.92	30.43
366.12	30.43
366.32	0.00
366.52	0.00
366.72	0.00
366.91	0.00
367.11	0.00
367.31	0.00
367.51	0.00
367.70	0.00
367.90	0.00
368.10	0.00
368.30	0.00
368.49	0.00
368.69	0.00
368.89	0.00
369.09	0.00
369.28	0.00
369.48	0.00
369.68	0.00
369.87	0.00
370.07	0.00
370.27	0.00
370.47	0.00
370.66	0.00
370.86	0.00
371.06	21.06
371.25	25.75
371.45	0.00
371.65	25.75
371.84	0.00
372.04	0.00
372.24	4.68
372.44	23.41
372.63	95.96
372.83	0.00
373.03	0.00
373.22	0.00
373.42	42.13
373.62	79.58
373.81	44.47
374.01	72.56
374.21	51.49
374.40	74.90
374.60	79.58
374.79	0.00
374.99	18.72
375.19	37.45
375.38	23.41
375.58	42.13
375.78	30.43
375.97	0.00
376.17	0.00
376.37	25.75
376.56	44.47
376.76	56.17
376.95	35.11
377.15	42.13
377.35	44.47
377.54	72.56
377.74	35.11
377.93	16.38
378.13	0.00
378.33	0.00
378.52	84.26
378.72	28.09
378.91	0.00
379.11	0.00
379.31	39.79
379.50	67.88
379.70	18.72
379.89	58.51
380.09	30.43
380.28	58.51
380.48	9.36
380.68	7.02
380.87	56.17
381.07	11.70
381.26	60.85
381.46	102.98
381.65	0.00
381.85	0.00
382.04	0.00
382.24	0.00
382.43	0.00
382.63	18.72
382.83	32.77
383.02	51.49
383.22	7.02
383.41	23.41
383.61	32.77
383.80	0.00
384.00	16.38
384.19	56.17
384.39	0.00
384.58	67.88
384.78	32.77
384.97	37.45
385.17	56.17
385.36	102.98
385.56	0.00
385.75	0.00
385.95	0.00
386.14	67.88
386.34	30.43
386.53	0.00
386.72	0.00
386.92	28.09
387.11	67.88
387.31	79.58
387.50	0.00
387.70	65.54
387.89	9.36
388.09	25.75
388.28	35.11
388.48	9.36
388.67	14.04
388.86	37.45
389.06	39.79
389.25	0.00
389.45	0.00
389.64	0.00
389.84	0.00
390.03	58.51
390.22	51.49
390.42	16.38
390.61	2.34
390.81	0.00
391.00	60.85
391.19	0.00
391.39	0.00
391.58	53.83
391.78	0.00
391.97	2.34
392.16	0.00
392.36	2.34
392.55	133.41
392.75	44.47
392.94	0.00
393.13	0.00
393.33	30.43
393.52	60.85
393.71	51.49
393.91	46.81
394.10	44.47
394.29	30.43
394.49	4.68
394.68	60.85
394.88	53.83
395.07	0.00
395.26	49.15
395.46	0.00
395.65	0.00
395.84	39.79
396.04	81.92
396.23	60.85
396.42	14.04
396.62	56.17
396.81	44.47
397.00	16.38
397.19	51.49
397.39	2.34
397.58	39.79
397.77	0.00
397.97	2.34
398.16	0.00
398.35	67.88
398.55	0.00
398.74	0.00
398.93	30.43
399.12	98.30
399.32	77.24
399.51	37.45
399.70	44.47
399.90	23.41
400.09	16.38
400.28	37.45
400.47	0.00
400.67	37.45
400.86	84.26
401.05	74.90
401.24	32.77
401.44	51.49
401.63	0.00
401.82	79.58
402.01	11.70
402.21	42.13
402.40	30.43
402.59	0.00
402.78	4.68
402.97	0.00
403.17	16.38
403.36	49.15
403.55	42.13
403.74	65.54
403.93	9.36
404.13	110.01
404.32	63.19
404.51	58.51
404.70	9.36
404.89	0.00
405.09	0.00
405.28	9.36
405.47	25.75
405.66	0.00
405.85	74.90
406.05	30.43
406.24	39.79
406.43	86.60
406.62	37.45
406.81	28.09
407.00	23.41
407.20	4.68
407.39	0.00
407.58	0.00
407.77	58.51
407.96	0.00
408.15	2.34
408.34	44.47
408.54	28.09
408.73	53.83
408.92	58.51
409.11	56.17
409.30	23.41
409.49	81.92
409.68	4.68
409.87	42.13
410.07	11.70
410.26	70.22
410.45	0.00
410.64	133.41
410.83	11.70
411.02	56.17
411.21	35.11
411.40	79.58
411.59	98.30
411.78	7.02
411.98	56.17
412.17	56.17
412.36	46.81
412.55	35.11
412.74	84.26
412.93	37.45
413.12	7.02
413.31	37.45
413.50	53.83
413.69	21.06
413.88	53.83
414.07	32.77
414.26	49.15
414.45	58.51
414.64	0.00
414.83	39.79
415.02	2.34
415.22	30.43
415.41	72.56
415.60	7.02
415.79	2.34
415.98	93.62
416.17	86.60
416.36	37.45
416.55	63.19
416.74	58.51
416.93	2.34
417.12	16.38
417.31	88.94
417.50	23.41
417.69	60.85
417.88	95.96
418.07	23.41
418.26	79.58
418.45	46.81
418.64	91.28
418.83	32.77
419.02	28.09
419.21	18.72
419.39	42.13
419.58	21.06
419.77	56.17
419.96	74.90
420.15	51.49
420.34	18.72
420.53	39.79
420.72	9.36
420.91	7.02
421.10	46.81
421.29	0.00
421.48	65.54
421.67	53.83
421.86	28.09
422.05	63.19
422.24	65.54
422.43	49.15
422.61	53.83
422.80	0.00
422.99	65.54
423.18	0.00
423.37	67.88
423.56	0.00
423.75	23.41
423.94	2.34
424.13	35.11
424.32	0.00
424.50	0.00
424.69	74.90
424.88	67.88
425.07	30.43
425.26	58.51
425.45	65.54
425.64	46.81
425.83	11.70
426.01	110.01
426.20	49.15
426.39	14.04
426.58	44.47
426.77	0.00
426.96	32.77
427.15	37.45
427.33	124.05
427.52	42.13
427.71	70.22
427.90	72.56
428.09	51.49
428.28	44.47
428.46	0.00
428.65	60.85
428.84	65.54
429.03	77.24
429.22	49.15
429.40	42.13
429.59	0.00
429.78	67.88
429.97	0.00
430.16	0.00
430.34	53.83
430.53	30.43
430.72	42.13
430.91	126.39
431.10	9.36
431.28	32.77
431.47	53.83
431.66	42.13
431.85	0.00
432.03	65.54
432.22	23.41
432.41	35.11
432.60	79.58
432.79	16.38
432.97	11.70
433.16	72.56
433.35	100.64
433.54	95.96
433.72	67.88
433.91	72.56
434.10	74.90
434.28	28.09
434.47	42.13
434.66	65.54
434.85	30.43
435.03	105.32
435.22	0.00
435.41	7.02
435.59	91.28
435.78	39.79
435.97	53.83
436.16	2.34
436.34	51.49
436.53	46.81
436.72	9.36
436.90	86.60
437.09	60.85
437.28	77.24
437.46	14.04
437.65	70.22
437.84	0.00
438.02	7.02
438.21	21.06
438.40	131.07
438.58	70.22
438.77	67.88
438.96	14.04
439.14	91.28
439.33	14.04
439.52	88.94
439.70	112.35
439.89	49.15
440.08	30.43
440.26	42.13
440.45	44.47
440.63	95.96
440.82	28.09
441.01	46.81
441.19	0.00
441.38	0.00
441.57	84.26
441.75	112.35
441.94	51.49
442.12	51.49
442.31	18.72
442.50	16.38
442.68	39.79
442.87	11.70
443.05	105.32
443.24	74.90
443.43	0.00
443.61	65.54
443.80	23.41
443.98	46.81
444.17	23.41
444.35	60.85
444.54	95.96
444.73	72.56
444.91	77.24
445.10	46.81
445.28	60.85
445.47	35.11
445.65	25.75
445.84	91.28
446.02	37.45
446.21	105.32
446.39	46.81
446.58	14.04
446.77	74.90
446.95	51.49
447.14	58.51
447.32	42.13
447.51	18.72
447.69	84.26
447.88	77.24
448.06	35.11
448.25	30.43
448.43	35.11
448.62	72.56
448.80	44.47
448.99	56.17
449.17	28.09
449.36	117.03
449.54	56.17
449.73	4.68
449.91	49.15
450.10	110.01
450.28	149.79
450.46	70.22
450.65	81.92
450.83	60.85
451.02	0.00
451.20	39.79
451.39	37.45
451.57	25.75
451.76	56.17
451.94	79.58
452.13	88.94
452.31	53.83
452.49	37.45
452.68	42.13
452.86	51.49
453.05	84.26
453.23	0.00
453.42	93.62
453.60	53.83
453.78	37.45
453.97	0.00
454.15	18.72
454.34	100.64
454.52	7.02
454.70	53.83
454.89	107.66
455.07	30.43
455.26	65.54
455.44	84.26
455.62	63.19
455.81	65.54
455.99	93.62
456.17	91.28
456.36	14.04
456.54	49.15
456.73	107.66
456.91	51.49
457.09	84.26
457.28	77.24
457.46	121.71
457.64	4.68
457.83	4.68
458.01	84.26
458.19	56.17
458.38	72.56
458.56	14.04
458.74	0.00
458.93	79.58
459.11	51.49
459.29	51.49
459.48	100.64
459.66	142.77
459.84	53.83
460.03	67.88
460.21	100.64
460.39	72.56
460.57	112.35
460.76	121.71
460.94	100.64
461.12	51.49
461.31	0.00
461.49	44.47
461.67	0.00
461.85	23.41
462.04	79.58
462.22	117.03
462.40	37.45
462.59	42.13
462.77	0.00
462.95	0.00
463.13	42.13
463.32	63.19
463.50	23.41
463.68	93.62
463.86	32.77
464.05	67.88
464.23	42.13
464.41	0.00
464.59	105.32
464.78	56.17
464.96	60.85
465.14	93.62
465.32	102.98
465.50	14.04
465.69	117.03
465.87	79.58
466.05	35.11
466.23	39.79
466.41	46.81
466.60	37.45
466.78	25.75
466.96	105.32
467.14	100.64
467.32	70.22
467.51	117.03
467.69	63.19
467.87	95.96
468.05	28.09
468.23	74.90
468.41	37.45
468.60	58.51
468.78	112.35
468.96	37.45
469.14	72.56
469.32	39.79
469.50	0.00
469.69	56.17
469.87	0.00
470.05	51.49
470.23	74.90
470.41	0.00
470.59	28.09
470.77	30.43
470.95	2.34
471.14	119.37
471.32	117.03
471.50	95.96
471.68	23.41
471.86	79.58
472.04	88.94
472.22	65.54
472.40	39.79
472.58	81.92
472.77	0.00
472.95	63.19
473.13	135.75
473.31	32.77
473.49	67.88
473.67	72.56
473.85	46.81
474.03	7.02
474.21	100.64
474.39	86.60
474.57	58.51
474.75	60.85
474.93	65.54
475.12	72.56
475.30	37.45
475.48	39.79
475.66	53.83
475.84	63.19
476.02	0.00
476.20	35.11
476.38	65.54
476.56	100.64
476.74	0.00
476.92	79.58
477.10	84.26
477.28	65.54
477.46	18.72
477.64	126.39
477.82	18.72
478.00	39.79
478.18	49.15
478.36	72.56
478.54	166.18
478.72	46.81
478.90	18.72
479.08	72.56
479.26	42.13
479.44	35.11
479.62	84.26
479.80	65.54
479.98	44.47
480.16	84.26
480.34	72.56
480.52	46.81
480.70	67.88
480.88	25.75
481.06	98.30
481.24	44.47
481.41	65.54
481.59	0.00
481.77	107.66
481.95	46.81
482.13	79.58
482.31	121.71
482.49	32.77
482.67	56.17
482.85	161.50
483.03	7.02
483.21	70.22
483.39	39.79
483.57	46.81
483.74	81.92
483.92	53.83
484.10	4.68
484.28	0.00
484.46	107.66
484.64	32.77
484.82	0.00
485.00	91.28
485.18	95.96
485.35	60.85
485.53	60.85
485.71	110.01
485.89	49.15
486.07	56.17
486.25	79.58
486.43	60.85
486.61	30.43
486.78	18.72
486.96	42.13
487.14	0.00
487.32	56.17
487.50	156.82
487.68	18.72
487.85	60.85
488.03	44.47
488.21	110.01
488.39	21.06
488.57	9.36
488.75	16.38
488.92	107.66
489.10	49.15
489.28	46.81
489.46	32.77
489.64	88.94
489.81	70.22
489.99	93.62
490.17	105.32
490.35	86.60
490.53	84.26
490.70	98.30
490.88	145.11
491.06	65.54
491.24	35.11
491.41	14.04
491.59	28.09
491.77	140.43
491.95	70.22
492.13	79.58
492.30	42.13
492.48	91.28
492.66	53.83
492.84	86.60
493.01	74.90
493.19	32.77
493.37	133.41
493.54	86.60
493.72	98.30
493.90	56.17
494.08	121.71
494.25	102.98
494.43	51.49
494.61	124.05
494.79	72.56
494.96	91.28
495.14	107.66
495.32	72.56
495.49	0.00
495.67	128.73
495.85	56.17
496.02	168.52
496.20	107.66
496.38	86.60
496.55	60.85
496.73	84.26
496.91	65.54
497.09	93.62
497.26	70.22
497.44	44.47
497.62	65.54
497.79	14.04
497.97	28.09
498.14	86.60
498.32	51.49
498.50	67.88
498.67	84.26
498.85	124.05
499.03	102.98
499.20	63.19
499.38	21.06
499.56	77.24
499.73	42.13
499.91	128.73
500.08	37.45
500.26	56.17
500.44	91.28
500.61	107.66
500.79	70.22
500.97	86.60
501.14	98.30
501.32	53.83
501.49	56.17
501.67	84.26
501.84	74.90
502.02	138.09
502.20	112.35
502.37	107.66
502.55	21.06
502.72	46.81
502.90	93.62
503.07	72.56
503.25	7.02
503.43	56.17
503.60	70.22
503.78	28.09
503.95	84.26
504.13	70.22
504.30	56.17
504.48	74.90
504.65	63.19
504.83	105.32
505.01	39.79
505.18	77.24
505.36	117.03
505.53	86.60
505.71	95.96
505.88	147.45
506.06	95.96
506.23	126.39
506.41	81.92
506.58	72.56
506.76	28.09
506.93	30.43
507.11	95.96
507.28	91.28
507.46	37.45
507.63	46.81
507.81	53.83
507.98	67.88
508.16	138.09
508.33	79.58
508.50	0.00
508.68	14.04
508.85	16.38
509.03	56.17
509.20	105.32
509.38	58.51
509.55	86.60
509.73	95.96
509.90	112.35
510.08	9.36
510.25	72.56
510.42	53.83
510.60	30.43
510.77	63.19
510.95	84.26
511.12	56.17
511.30	23.41
511.47	37.45
511.64	131.07
511.82	51.49
511.99	51.49
512.17	149.79
512.34	140.43
512.51	63.19
512.69	60.85
512.86	112.35
513.04	58.51
513.21	18.72
513.38	39.79
513.56	114.69
513.73	44.47
513.90	30.43
514.08	72.56
514.25	93.62
514.43	126.39
514.60	98.30
514.77	42.13
514.95	35.11
515.12	53.83
515.29	77.24
515.47	95.96
515.64	58.51
515.81	37.45
515.99	72.56
516.16	128.73
516.33	86.60
516.51	49.15
516.68	18.72
516.85	67.88
517.03	114.69
517.20	105.32
517.37	107.66
517.54	114.69
517.72	105.32
517.89	63.19
518.06	117.03
518.24	112.35
518.41	53.83
518.58	44.47
518.75	58.51
518.93	44.47
519.10	105.32
519.27	16.38
519.45	39.79
519.62	77.24
519.79	70.22
519.96	37.45
520.14	53.83
520.31	119.37
520.48	9.36
520.65	114.69
520.83	7.02
521.00	84.26
521.17	79.58
521.34	98.30
521.52	86.60
521.69	23.41
521.86	114.69
522.03	56.17
522.20	117.03
522.38	124.05
522.55	49.15
522.72	79.58
522.89	49.15
523.07	21.06
523.24	91.28
523.41	49.15
523.58	124.05
523.75	51.49
523.92	105.32
524.10	35.11
524.27	156.82
524.44	56.17
524.61	65.54
524.78	81.92
524.96	100.64
525.13	39.79
525.30	53.83
525.47	117.03
525.64	74.90
525.81	63.19
525.98	49.15
526.16	70.22
526.33	58.51
526.50	105.32
526.67	119.37
526.84	91.28
527.01	117.03
527.18	56.17
527.36	112.35
527.53	119.37
527.70	93.62
527.87	100.64
528.04	124.05
528.21	100.64
528.38	67.88
528.55	91.28
528.72	39.79
528.89	91.28
529.07	117.03
529.24	79.58
529.41	88.94
529.58	60.85
529.75	46.81
529.92	72.56
530.09	0.00
530.26	14.04
530.43	110.01
530.60	67.88
530.77	131.07
530.94	98.30
531.11	110.01
531.28	100.64
531.46	88.94
531.63	105.32
531.80	100.64
531.97	58.51
532.14	95.96
532.31	114.69
532.48	88.94
532.65	100.64
532.82	100.64
532.99	98.30
533.16	44.47
533.33	93.62
533.50	18.72
533.67	175.54
533.84	117.03
534.01	37.45
534.18	156.82
534.35	128.73
534.52	70.22
534.69	65.54
534.86	110.01
535.03	67.88
535.20	81.92
535.37	65.54
535.54	196.60
535.71	91.28
535.88	56.17
536.05	107.66
536.22	81.92
536.38	95.96
536.55	119.37
536.72	98.30
536.89	117.03
537.06	58.51
537.23	23.41
537.40	117.03
537.57	112.35
537.74	53.83
537.91	114.69
538.08	53.83
538.25	32.77
538.42	98.30
538.59	140.43
538.75	110.01
538.92	110.01
539.09	74.90
539.26	138.09
539.43	72.56
539.60	28.09
539.77	0.00
539.94	98.30
540.11	81.92
540.28	16.38
540.44	84.26
540.61	121.71
540.78	152.13
540.95	72.56
541.12	93.62
541.29	46.81
541.46	107.66
541.62	98.30
541.79	25.75
541.96	121.71
542.13	72.56
542.30	105.32
542.47	81.92
542.63	67.88
542.80	53.83
542.97	121.71
543.14	63.19
543.31	95.96
543.48	74.90
543.64	163.84
543.81	23.41
543.98	105.32
544.15	88.94
544.32	72.56
544.48	63.19
544.65	161.50
544.82	51.49
544.99	46.81
545.16	110.01
545.32	110.01
545.49	95.96
545.66	49.15
545.83	25.75
546.00	56.17
546.16	119.37
546.33	114.69
546.50	88.94
546.67	117.03
546.83	49.15
547.00	128.73
547.17	81.92
547.34	25.75
547.50	51.49
547.67	21.06
547.84	42.13
548.00	102.98
548.17	58.51
548.34	126.39
548.51	105.32
548.67	159.16
548.84	42.13
549.01	93.62
549.18	35.11
549.34	42.13
549.51	79.58
549.68	156.82
549.84	131.07
550.01	77.24
550.18	39.79
550.34	147.45
550.51	60.85
550.68	102.98
550.84	112.35
551.01	49.15
551.18	67.88
551.34	77.24
551.51	56.17
551.68	135.75
551.84	107.66
552.01	46.81
552.18	72.56
552.34	72.56
552.51	140.43
552.68	131.07
552.84	98.30
553.01	98.30
553.18	70.22
553.34	152.13
553.51	72.56
553.67	91.28
553.84	119.37
554.01	58.51
554.17	105.32
554.34	105.32
554.51	28.09
554.67	65.54
554.84	70.22
555.00	46.81
555.17	51.49
555.33	128.73
555.50	117.03
555.67	21.06
555.83	16.38
556.00	49.15
556.16	84.26
556.33	11.70
556.50	35.11
556.66	98.30
556.83	60.85
556.99	67.88
557.16	0.00
557.32	51.49
557.49	60.85
557.65	135.75
557.82	88.94
557.98	133.41
558.15	49.15
558.32	0.00
558.48	124.05
558.65	74.90
558.81	51.49
558.98	7.02
559.14	65.54
559.31	107.66
559.47	121.71
559.64	56.17
559.80	79.58
559.97	81.92
560.13	44.47
560.30	23.41
560.46	81.92
560.63	39.79
560.79	65.54
560.96	107.66
561.12	0.00
561.29	60.85
561.45	84.26
561.61	133.41
561.78	145.11
561.94	131.07
562.11	121.71
562.27	93.62
562.44	60.85
562.60	58.51
562.77	128.73
562.93	107.66
563.10	67.88
563.26	117.03
563.42	79.58
563.59	49.15
563.75	11.70
563.92	49.15
564.08	28.09
564.24	0.00
564.41	98.30
564.57	60.85
564.74	67.88
564.90	84.26
565.07	63.19
565.23	70.22
565.39	0.00
565.56	110.01
565.72	93.62
565.88	77.24
566.05	93.62
566.21	84.26
566.38	100.64
566.54	180.22
566.70	124.05
566.87	152.13
567.03	126.39
567.19	79.58
567.36	107.66
567.52	114.69
567.68	86.60
567.85	86.60
568.01	81.92
568.17	46.81
568.34	98.30
568.50	77.24
568.66	53.83
568.83	88.94
568.99	72.56
569.15	65.54
569.32	77.24
569.48	65.54
569.64	0.00
569.81	98.30
569.97	49.15
570.13	49.15
570.30	42.13
570.46	86.60
570.62	28.09
570.78	44.47
570.95	67.88
571.11	107.66
571.27	81.92
571.43	51.49
571.60	91.28
571.76	81.92
571.92	159.16
572.09	140.43
572.25	112.35
572.41	58.51
572.57	107.66
572.74	93.62
572.90	32.77
573.06	56.17
573.22	25.75
573.38	112.35
573.55	112.35
573.71	100.64
573.87	46.81
574.03	107.66
574.20	114.69
574.36	63.19
574.52	86.60
574.68	65.54
574.84	112.35
575.01	79.58
575.17	79.58
575.33	42.13
575.49	25.75
575.65	110.01
575.82	37.45
575.98	105.32
576.14	0.00
576.30	39.79
576.46	42.13
576.62	46.81
576.79	100.64
576.95	86.60
577.11	42.13
577.27	42.13
577.43	110.01
577.59	107.66
577.75	95.96
577.92	102.98
578.08	67.88
578.24	79.58
578.40	23.41
578.56	11.70
578.72	102.98
578.88	70.22
579.04	124.05
579.21	112.35
579.37	0.00
579.53	77.24
579.69	86.60
579.85	105.32
580.01	74.90
580.17	86.60
580.33	16.38
580.49	44.47
580.65	42.13
580.82	124.05
580.98	114.69
581.14	91.28
581.30	163.84
581.46	65.54
581.62	117.03
581.78	100.64
581.94	32.77
582.10	121.71
582.26	93.62
582.42	93.62
582.58	107.66
582.74	72.56
582.90	114.69
583.06	0.00
583.22	58.51
583.38	100.64
583.54	124.05
583.70	112.35
583.86	37.45
584.02	105.32
584.18	81.92
584.34	112.35
584.50	81.92
584.66	58.51
584.82	56.17
584.98	105.32
585.14	100.64
585.30	95.96
585.46	86.60
585.62	81.92
585.78	44.47
585.94	93.62
586.10	63.19
586.26	84.26
586.42	105.32
586.58	77.24
586.74	98.30
586.90	88.94
587.06	49.15
587.22	46.81
587.38	56.17
587.54	0.00
587.70	58.51
587.86	145.11
588.02	72.56
588.18	14.04
588.34	11.70
588.49	102.98
588.65	84.26
588.81	58.51
588.97	44.47
589.13	16.38
589.29	79.58
589.45	77.24
589.61	67.88
589.77	67.88
589.93	58.51
590.08	46.81
590.24	11.70
590.40	37.45
590.56	140.43
590.72	42.13
590.88	51.49
591.04	25.75
591.20	77.24
591.35	63.19
591.51	53.83
591.67	100.64
591.83	23.41
591.99	39.79
592.15	72.56
592.31	35.11
592.46	0.00
592.62	133.41
592.78	93.62
592.94	86.60
593.10	86.60
593.26	0.00
593.41	77.24
593.57	81.92
593.73	84.26
593.89	79.58
594.05	35.11
594.20	63.19
594.36	74.90
594.52	30.43
594.68	110.01
594.84	77.24
594.99	100.64
595.15	49.15
595.31	39.79
595.47	145.11
595.62	53.83
595.78	88.94
595.94	100.64
596.10	77.24
596.25	133.41
596.41	67.88
596.57	102.98
596.73	0.00
596.88	7.02
597.04	44.47
597.20	23.41
597.36	14.04
597.51	117.03
597.67	131.07
597.83	23.41
597.99	65.54
598.14	88.94
598.30	77.24
598.46	39.79
598.61	30.43
598.77	16.38
598.93	93.62
599.09	67.88
599.24	100.64
599.40	88.94
599.56	112.35
599.71	140.43
599.87	25.75
600.03	65.54
600.18	35.11
600.34	67.88
600.50	0.00
600.65	51.49
600.81	147.45
600.97	88.94
601.12	4.68
601.28	72.56
601.44	84.26
601.59	18.72
601.75	53.83
601.91	0.00
602.06	93.62
602.22	63.19
602.37	84.26
602.53	56.17
602.69	63.19
602.84	100.64
603.00	65.54
603.16	51.49
603.31	95.96
603.47	67.88
603.62	107.66
603.78	77.24
603.94	46.81
604.09	91.28
604.25	2.34
604.40	95.96
604.56	105.32
604.71	74.90
604.87	42.13
605.03	60.85
605.18	126.39
605.34	42.13
605.49	16.38
605.65	72.56
605.80	60.85
605.96	18.72
606.12	63.19
606.27	67.88
606.43	39.79
606.58	119.37
606.74	112.35
606.89	49.15
607.05	86.60
607.20	46.81
607.36	98.30
607.51	21.06
607.67	51.49
607.82	51.49
607.98	70.22
608.13	67.88
608.29	58.51
608.44	88.94
608.60	49.15
608.75	84.26
608.91	72.56
609.06	133.41
609.22	56.17
609.37	102.98
609.53	23.41
609.68	72.56
609.84	112.35
609.99	86.60
610.15	37.45
610.30	37.45
610.46	53.83
610.61	18.72
610.76	35.11
610.92	7.02
611.07	70.22
611.23	124.05
611.38	60.85
611.54	100.64
611.69	72.56
611.84	70.22
612.00	0.00
612.15	56.17
612.31	11.70
612.46	117.03
612.62	102.98
612.77	138.09
612.92	88.94
613.08	60.85
613.23	42.13
613.39	37.45
613.54	98.30
613.69	0.00
613.85	79.58
614.00	11.70
614.15	86.60
614.31	21.06
614.46	86.60
614.62	0.00
614.77	53.83
614.92	91.28
615.08	11.70
615.23	56.17
615.38	98.30
615.54	44.47
615.69	28.09
615.84	95.96
616.00	140.43
616.15	84.26
616.30	98.30
616.46	28.09
616.61	14.04
616.76	60.85
616.92	77.24
617.07	16.38
617.22	60.85
617.37	114.69
617.53	60.85
617.68	65.54
617.83	53.83
617.99	30.43
618.14	53.83
618.29	67.88
618.45	81.92
618.60	60.85
618.75	32.77
618.90	91.28
619.06	70.22
619.21	142.77
619.36	91.28
619.51	77.24
619.67	126.39
619.82	25.75
619.97	37.45
620.12	0.00
620.28	0.00
620.43	74.90
620.58	81.92
620.73	65.54
620.89	88.94
621.04	72.56
621.19	105.32
621.34	67.88
621.49	95.96
621.65	91.28
621.80	91.28
621.95	0.00
622.10	58.51
622.25	126.39
622.41	37.45
622.56	25.75
622.71	93.62
622.86	133.41
623.01	39.79
623.16	25.75
623.32	88.94
623.47	0.00
623.62	0.00
623.77	25.75
623.92	23.41
624.07	166.18
624.23	0.00
624.38	42.13
624.53	39.79
624.68	58.51
624.83	70.22
624.98	44.47
625.13	51.49
625.29	25.75
625.44	79.58
625.59	74.90
625.74	35.11
625.89	112.35
626.04	30.43
626.19	14.04
626.34	58.51
626.49	117.03
626.65	39.79
626.80	23.41
626.95	145.11
627.10	74.90
627.25	100.64
627.40	84.26
627.55	72.56
627.70	100.64
627.85	56.17
628.00	16.38
628.15	93.62
628.30	100.64
628.45	105.32
628.60	91.28
628.76	42.13
628.91	58.51
629.06	28.09
629.21	105.32
629.36	100.64
629.51	37.45
629.66	67.88
629.81	21.06
629.96	72.56
630.11	0.00
630.26	42.13
630.41	37.45
630.56	9.36
630.71	77.24
630.86	102.98
631.01	58.51
631.16	46.81
631.31	25.75
631.46	4.68
631.61	70.22
631.76	88.94
631.91	114.69
632.06	131.07
632.21	32.77
632.36	105.32
632.51	37.45
632.66	0.00
632.81	0.00
632.96	37.45
633.10	114.69
633.25	28.09
633.40	84.26
633.55	56.17
633.70	135.75
633.85	53.83
634.00	81.92
634.15	56.17
634.30	30.43
634.45	14.04
634.60	30.43
634.75	0.00
634.90	102.98
635.05	39.79
635.19	58.51
635.34	0.00
635.49	93.62
635.64	11.70
635.79	88.94
635.94	0.00
636.09	32.77
636.24	81.92
636.39	23.41
636.53	30.43
636.68	46.81
636.83	35.11
636.98	98.30
637.13	77.24
637.28	110.01
637.43	7.02
637.57	23.41
637.72	23.41
637.87	16.38
638.02	37.45
638.17	46.81
638.32	9.36
638.46	93.62
638.61	72.56
638.76	18.72
638.91	28.09
639.06	21.06
639.20	105.32
639.35	124.05
639.50	105.32
639.65	81.92
639.80	0.00
639.94	81.92
640.09	79.58
640.24	49.15
640.39	72.56
640.54	56.17
640.68	44.47
640.83	65.54
640.98	112.35
641.13	88.94
641.27	14.04
641.42	28.09
641.57	58.51
641.72	53.83
641.86	0.00
642.01	7.02
642.16	79.58
642.31	35.11
642.45	98.30
642.60	74.90
642.75	37.45
642.90	46.81
643.04	88.94
643.19	102.98
643.34	56.17
643.48	0.00
643.63	60.85
643.78	18.72
643.93	39.79
644.07	11.70
644.22	88.94
644.37	114.69
644.51	77.24
644.66	63.19
644.81	51.49
644.95	30.43
645.10	79.58
645.25	42.13
645.39	65.54
645.54	74.90
645.69	58.51
645.83	95.96
645.98	91.28
646.13	81.92
646.27	93.62
646.42	149.79
646.57	100.64
646.71	51.49
646.86	35.11
647.00	72.56
647.15	32.77
647.30	77.24
647.44	58.51
647.59	18.72
647.74	0.00
647.88	81.92
648.03	56.17
648.17	110.01
648.32	49.15
648.47	88.94
648.61	25.75
648.76	79.58
648.90	100.64
649.05	0.00
649.20	91.28
649.34	67.88
649.49	53.83
649.63	23.41
649.78	100.64
649.92	51.49
650.07	79.58
650.21	0.00
650.36	18.72
650.51	18.72
650.65	119.37
650.80	49.15
650.94	16.38
651.09	65.54
651.23	0.00
651.38	121.71
651.52	112.35
651.67	42.13
651.81	37.45
651.96	37.45
652.10	23.41
652.25	18.72
652.39	21.06
652.54	25.75
652.68	49.15
652.83	42.13
652.97	49.15
653.12	0.00
653.26	16.38
653.41	79.58
653.55	37.45
653.70	35.11
653.84	18.72
653.99	77.24
654.13	9.36
654.27	30.43
654.42	58.51
654.56	70.22
654.71	32.77
654.85	63.19
655.00	44.47
655.14	2.34
655.29	39.79
655.43	105.32
655.57	42.13
655.72	42.13
655.86	67.88
656.01	107.66
656.15	63.19
656.30	25.75
656.44	88.94
656.58	74.90
656.73	67.88
656.87	18.72
657.01	56.17
657.16	72.56
657.30	49.15
657.45	60.85
657.59	32.77
657.73	0.00
657.88	58.51
658.02	35.11
658.16	0.00
658.31	0.00
658.45	23.41
658.60	32.77
658.74	49.15
658.88	46.81
659.03	49.15
659.17	42.13
659.31	56.17
659.46	32.77
659.60	46.81
659.74	121.71
659.89	72.56
660.03	0.00
660.17	58.51
660.32	70.22
660.46	77.24
660.60	124.05
660.74	117.03
660.89	67.88
661.03	37.45
661.17	21.06
661.32	0.00
661.46	95.96
661.60	4.68
661.74	86.60
661.89	86.60
662.03	7.02
662.17	56.17
662.31	9.36
662.46	102.98
662.60	46.81
662.74	0.00
662.88	60.85
663.03	72.56
663.17	140.43
663.31	100.64
663.45	114.69
663.60	4.68
663.74	114.69
663.88	63.19
664.02	30.43
664.17	77.24
664.31	9.36
664.45	126.39
664.59	102.98
664.73	2.34
664.88	67.88
665.02	44.47
665.16	84.26
665.30	77.24
665.44	81.92
665.59	42.13
665.73	0.00
665.87	98.30
666.01	35.11
666.15	79.58
666.29	11.70
666.44	46.81
666.58	98.30
666.72	60.85
666.86	86.60
667.00	60.85
667.14	65.54
667.28	18.72
667.43	65.54
667.57	0.00
667.71	14.04
667.85	63.19
667.99	98.30
668.13	58.51
668.27	35.11
668.41	23.41
668.56	4.68
668.70	44.47
668.84	11.70
668.98	58.51
669.12	49.15
669.26	51.49
669.40	77.24
669.54	56.17
669.68	58.51
669.82	42.13
669.96	9.36
670.10	58.51
670.25	58.51
670.39	21.06
670.53	56.17
670.67	65.54
670.81	60.85
670.95	28.09
671.09	2.34
671.23	37.45
671.37	30.43
671.51	46.81
671.65	91.28
671.79	9.36
671.93	74.90
672.07	81.92
672.21	51.49
672.35	65.54
672.49	49.15
672.63	51.49
672.77	72.56
672.91	147.45
673.05	63.19
673.19	25.75
673.33	128.73
673.47	23.41
673.61	77.24
673.75	11.70
673.89	81.92
674.03	0.00
674.17	28.09
674.31	74.90
674.45	98.30
674.59	112.35
674.73	0.00
674.87	28.09
675.01	39.79
675.15	18.72
675.29	42.13
675.43	67.88
675.56	63.19
675.70	18.72
675.84	37.45
675.98	77.24
676.12	79.58
676.26	56.17
676.40	84.26
676.54	70.22
676.68	16.38
676.82	60.85
676.96	72.56
677.10	49.15
677.23	0.00
677.37	0.00
677.51	37.45
677.65	46.81
677.79	16.38
677.93	67.88
678.07	23.41
678.21	16.38
678.34	23.41
678.48	74.90
678.62	23.41
678.76	86.60
678.90	0.00
679.04	18.72
679.18	70.22
679.31	67.88
679.45	60.85
679.59	91.28
679.73	39.79
679.87	0.00
680.00	25.75
680.14	63.19
680.28	88.94
680.42	0.00
680.56	25.75
680.70	49.15
680.83	84.26
680.97	0.00
681.11	140.43
681.25	18.72
681.39	142.77
681.52	135.75
681.66	91.28
681.80	86.60
681.94	11.70
682.07	112.35
682.21	0.00
682.35	35.11
682.49	30.43
682.62	0.00
682.76	0.00
682.90	72.56
683.04	56.17
683.17	81.92
683.31	51.49
683.45	0.00
683.59	100.64
683.72	11.70
683.86	7.02
684.00	60.85
684.13	93.62
684.27	60.85
684.41	14.04
684.55	35.11
684.68	25.75
684.82	140.43
684.96	67.88
685.09	18.72
685.23	60.85
685.37	14.04
685.50	18.72
685.64	77.24
685.78	30.43
685.91	51.49
686.05	102.98
686.19	2.34
686.32	25.75
686.46	0.00
686.60	14.04
686.73	0.00
686.87	128.73
687.01	39.79
687.14	0.00
687.28	0.00
687.42	16.38
687.55	49.15
687.69	18.72
687.82	14.04
687.96	72.56
688.10	67.88
688.23	65.54
688.37	67.88
688.50	25.75
688.64	93.62
688.78	79.58
688.91	0.00
689.05	18.72
689.18	44.47
689.32	23.41
689.46	51.49
689.59	56.17
689.73	0.00
689.86	39.79
690.00	46.81
690.13	42.13
690.27	0.00
690.41	46.81
690.54	39.79
690.68	37.45
690.81	72.56
690.95	35.11
691.08	72.56
691.22	11.70
691.35	70.22
691.49	23.41
691.62	28.09
691.76	18.72
691.89	46.81
692.03	0.00
692.16	0.00
692.30	35.11
692.43	60.85
692.57	70.22
692.70	46.81
692.84	18.72
692.97	56.17
693.11	14.04
693.24	56.17
693.38	4.68
693.51	7.02
693.65	4.68
693.78	14.04
693.92	121.71
694.05	30.43
694.19	0.00
694.32	67.88
694.45	35.11
694.59	63.19
694.72	37.45
694.86	25.75
694.99	28.09
695.13	102.98
695.26	70.22
695.39	114.69
695.53	37.45
695.66	7.02
695.80	53.83
695.93	23.41
696.07	126.39
696.20	114.69
696.33	7.02
696.47	42.13
696.60	102.98
696.73	63.19
696.87	0.00
697.00	42.13
697.14	0.00
697.27	21.06
697.40	0.00
697.54	21.06
697.67	63.19
697.80	107.66
697.94	77.24
698.07	16.38
698.21	67.88
698.34	0.00
698.47	28.09
698.61	84.26
698.74	72.56
698.87	11.70
699.01	35.11
699.14	58.51
699.27	7.02
699.40	65.54
699.54	37.45
699.67	58.51
699.80	84.26
699.94	0.00
700.07	4.68
700.20	2.34
700.34	84.26
700.47	16.38
700.60	42.13
700.73	25.75
700.87	51.49
701.00	0.00
701.13	42.13
701.26	30.43
701.40	79.58
701.53	56.17
701.66	0.00
701.79	0.00
701.93	0.00
702.06	44.47
702.19	56.17
702.32	81.92
702.46	37.45
702.59	0.00
702.72	11.70
702.85	84.26
702.99	32.77
703.12	0.00
703.25	53.83
703.38	51.49
703.51	49.15
703.65	37.45
703.78	93.62
703.91	105.32
704.04	0.00
704.17	98.30
704.31	37.45
704.44	44.47
704.57	35.11
704.70	79.58
704.83	0.00
704.96	35.11
705.10	9.36
705.23	91.28
>>>>>End Processed Spectral Data<<<<<
