SpectraSuite Data File
++++++++++++++++++++++++++++++++++++
Date: Fri Oct 04 12:13:27 GMT-05:00 2013
User: price-jones
Dark Spectrum Present: No
Reference Spectrum Present: No
Number of Sampled Component Spectra: 1
Spectrometers: USB2+H05261
Integration Time (usec): 10000 (USB2+H05261)
Spectra Averaged: 1 (USB2+H05261)
Boxcar Smoothing: 0 (USB2+H05261)
Correct for Electrical Dark: No (USB2+H05261)
Strobe/Lamp Enabled: No (USB2+H05261)
Correct for Detector Non-linearity: No (USB2+H05261)
Correct for Stray Light: No (USB2+H05261)
Number of Pixels in Processed Spectrum: 2048
>>>>>Begin Processed Spectral Data<<<<<
365.73	0.00
365.92	0.00
366.12	0.00
366.32	0.00
366.52	0.00
366.72	0.00
366.91	0.00
367.11	0.00
367.31	0.00
367.51	0.00
367.70	0.00
367.90	0.00
368.10	0.00
368.30	0.00
368.49	0.00
368.69	0.00
368.89	0.00
369.09	0.00
369.28	0.00
369.48	0.00
369.68	0.00
369.87	0.00
370.07	0.00
370.27	0.00
370.47	0.00
370.66	0.00
370.86	0.00
371.06	0.00
371.25	0.00
371.45	0.00
371.65	0.00
371.84	0.00
372.04	0.00
372.24	7.02
372.44	23.41
372.63	0.00
372.83	37.45
373.03	0.00
373.22	0.00
373.42	0.00
373.62	63.19
373.81	28.09
374.01	21.06
374.21	18.72
374.40	0.00
374.60	72.56
374.79	32.77
374.99	67.88
375.19	107.66
375.38	32.77
375.58	28.09
375.78	23.41
375.97	23.41
376.17	46.81
376.37	0.00
376.56	14.04
376.76	16.38
376.95	7.02
377.15	39.79
377.35	140.43
377.54	42.13
377.74	72.56
377.93	32.77
378.13	0.00
378.33	0.00
378.52	0.00
378.72	46.81
378.91	18.72
379.11	0.00
379.31	25.75
379.50	0.00
379.70	0.00
379.89	0.00
380.09	44.47
380.28	4.68
380.48	28.09
380.68	0.00
380.87	77.24
381.07	70.22
381.26	0.00
381.46	0.00
381.65	128.73
381.85	81.92
382.04	18.72
382.24	0.00
382.43	35.11
382.63	23.41
382.83	0.00
383.02	21.06
383.22	0.00
383.41	0.00
383.61	0.00
383.80	79.58
384.00	9.36
384.19	16.38
384.39	21.06
384.58	65.54
384.78	58.51
384.97	21.06
385.17	0.00
385.36	11.70
385.56	67.88
385.75	2.34
385.95	2.34
386.14	11.70
386.34	65.54
386.53	0.00
386.72	25.75
386.92	37.45
387.11	42.13
387.31	32.77
387.50	0.00
387.70	0.00
387.89	0.00
388.09	67.88
388.28	0.00
388.48	0.00
388.67	25.75
388.86	60.85
389.06	60.85
389.25	46.81
389.45	28.09
389.64	39.79
389.84	28.09
390.03	79.58
390.22	63.19
390.42	28.09
390.61	0.00
390.81	16.38
391.00	60.85
391.19	81.92
391.39	37.45
391.58	65.54
391.78	0.00
391.97	0.00
392.16	30.43
392.36	9.36
392.55	0.00
392.75	37.45
392.94	84.26
393.13	0.00
393.33	14.04
393.52	0.00
393.71	65.54
393.91	88.94
394.10	56.17
394.29	0.00
394.49	11.70
394.68	37.45
394.88	18.72
395.07	81.92
395.26	0.00
395.46	23.41
395.65	0.00
395.84	53.83
396.04	35.11
396.23	0.00
396.42	0.00
396.62	0.00
396.81	2.34
397.00	18.72
397.19	28.09
397.39	44.47
397.58	65.54
397.77	53.83
397.97	42.13
398.16	4.68
398.35	23.41
398.55	32.77
398.74	0.00
398.93	63.19
399.12	0.00
399.32	4.68
399.51	0.00
399.70	18.72
399.90	0.00
400.09	0.00
400.28	81.92
400.47	121.71
400.67	65.54
400.86	0.00
401.05	18.72
401.24	49.15
401.44	14.04
401.63	18.72
401.82	7.02
402.01	51.49
402.21	53.83
402.40	23.41
402.59	4.68
402.78	60.85
402.97	2.34
403.17	49.15
403.36	2.34
403.55	21.06
403.74	35.11
403.93	0.00
404.13	2.34
404.32	0.00
404.51	49.15
404.70	46.81
404.89	23.41
405.09	56.17
405.28	14.04
405.47	28.09
405.66	0.00
405.85	21.06
406.05	35.11
406.24	35.11
406.43	84.26
406.62	18.72
406.81	51.49
407.00	25.75
407.20	51.49
407.39	0.00
407.58	58.51
407.77	25.75
407.96	95.96
408.15	28.09
408.34	98.30
408.54	60.85
408.73	14.04
408.92	30.43
409.11	7.02
409.30	32.77
409.49	65.54
409.68	30.43
409.87	0.00
410.07	86.60
410.26	35.11
410.45	0.00
410.64	23.41
410.83	58.51
411.02	23.41
411.21	37.45
411.40	0.00
411.59	0.00
411.78	0.00
411.98	86.60
412.17	0.00
412.36	0.00
412.55	46.81
412.74	9.36
412.93	0.00
413.12	23.41
413.31	53.83
413.50	18.72
413.69	4.68
413.88	23.41
414.07	0.00
414.26	58.51
414.45	49.15
414.64	56.17
414.83	4.68
415.02	37.45
415.22	37.45
415.41	28.09
415.60	0.00
415.79	81.92
415.98	74.90
416.17	65.54
416.36	0.00
416.55	39.79
416.74	25.75
416.93	0.00
417.12	35.11
417.31	0.00
417.50	42.13
417.69	58.51
417.88	65.54
418.07	65.54
418.26	74.90
418.45	0.00
418.64	51.49
418.83	18.72
419.02	44.47
419.21	2.34
419.39	2.34
419.58	28.09
419.77	60.85
419.96	65.54
420.15	11.70
420.34	46.81
420.53	9.36
420.72	0.00
420.91	0.00
421.10	28.09
421.29	37.45
421.48	60.85
421.67	7.02
421.86	30.43
422.05	0.00
422.24	51.49
422.43	79.58
422.61	39.79
422.80	63.19
422.99	65.54
423.18	0.00
423.37	9.36
423.56	0.00
423.75	88.94
423.94	63.19
424.13	30.43
424.32	4.68
424.50	74.90
424.69	56.17
424.88	53.83
425.07	0.00
425.26	0.00
425.45	51.49
425.64	16.38
425.83	44.47
426.01	7.02
426.20	4.68
426.39	0.00
426.58	44.47
426.77	30.43
426.96	0.00
427.15	81.92
427.33	117.03
427.52	107.66
427.71	0.00
427.90	7.02
428.09	0.00
428.28	39.79
428.46	0.00
428.65	44.47
428.84	119.37
429.03	0.00
429.22	30.43
429.40	105.32
429.59	30.43
429.78	0.00
429.97	39.79
430.16	4.68
430.34	7.02
430.53	18.72
430.72	0.00
430.91	53.83
431.10	23.41
431.28	58.51
431.47	93.62
431.66	0.00
431.85	37.45
432.03	21.06
432.22	44.47
432.41	58.51
432.60	32.77
432.79	44.47
432.97	77.24
433.16	65.54
433.35	0.00
433.54	37.45
433.72	23.41
433.91	93.62
434.10	16.38
434.28	67.88
434.47	0.00
434.66	28.09
434.85	28.09
435.03	37.45
435.22	23.41
435.41	0.00
435.59	0.00
435.78	67.88
435.97	32.77
436.16	35.11
436.34	25.75
436.53	28.09
436.72	58.51
436.90	37.45
437.09	37.45
437.28	49.15
437.46	46.81
437.65	60.85
437.84	0.00
438.02	11.70
438.21	21.06
438.40	39.79
438.58	30.43
438.77	58.51
438.96	44.47
439.14	14.04
439.33	77.24
439.52	95.96
439.70	56.17
439.89	46.81
440.08	9.36
440.26	0.00
440.45	0.00
440.63	35.11
440.82	30.43
441.01	18.72
441.19	42.13
441.38	21.06
441.57	44.47
441.75	46.81
441.94	60.85
442.12	46.81
442.31	9.36
442.50	88.94
442.68	0.00
442.87	39.79
443.05	51.49
443.24	37.45
443.43	25.75
443.61	16.38
443.80	100.64
443.98	0.00
444.17	18.72
444.35	14.04
444.54	0.00
444.73	86.60
444.91	25.75
445.10	0.00
445.28	0.00
445.47	18.72
445.65	11.70
445.84	88.94
446.02	51.49
446.21	84.26
446.39	28.09
446.58	46.81
446.77	67.88
446.95	0.00
447.14	0.00
447.32	16.38
447.51	0.00
447.69	28.09
447.88	32.77
448.06	28.09
448.25	0.00
448.43	79.58
448.62	4.68
448.80	28.09
448.99	0.00
449.17	32.77
449.36	112.35
449.54	131.07
449.73	70.22
449.91	35.11
450.10	42.13
450.28	0.00
450.46	67.88
450.65	77.24
450.83	53.83
451.02	0.00
451.20	0.00
451.39	63.19
451.57	63.19
451.76	74.90
451.94	0.00
452.13	63.19
452.31	21.06
452.49	117.03
452.68	0.00
452.86	2.34
453.05	11.70
453.23	0.00
453.42	25.75
453.60	77.24
453.78	32.77
453.97	0.00
454.15	70.22
454.34	58.51
454.52	2.34
454.70	145.11
454.89	18.72
455.07	77.24
455.26	18.72
455.44	51.49
455.62	0.00
455.81	0.00
455.99	7.02
456.17	74.90
456.36	11.70
456.54	58.51
456.73	18.72
456.91	60.85
457.09	60.85
457.28	9.36
457.46	65.54
457.64	58.51
457.83	0.00
458.01	14.04
458.19	39.79
458.38	28.09
458.56	16.38
458.74	49.15
458.93	93.62
459.11	23.41
459.29	46.81
459.48	25.75
459.66	58.51
459.84	49.15
460.03	72.56
460.21	0.00
460.39	0.00
460.57	105.32
460.76	70.22
460.94	74.90
461.12	18.72
461.31	44.47
461.49	60.85
461.67	23.41
461.85	81.92
462.04	0.00
462.22	56.17
462.40	46.81
462.59	18.72
462.77	74.90
462.95	32.77
463.13	0.00
463.32	0.00
463.50	16.38
463.68	21.06
463.86	9.36
464.05	121.71
464.23	25.75
464.41	0.00
464.59	44.47
464.78	4.68
464.96	39.79
465.14	0.00
465.32	0.00
465.50	30.43
465.69	60.85
465.87	2.34
466.05	11.70
466.23	0.00
466.41	0.00
466.60	30.43
466.78	72.56
466.96	58.51
467.14	44.47
467.32	102.98
467.51	53.83
467.69	88.94
467.87	0.00
468.05	0.00
468.23	53.83
468.41	51.49
468.60	23.41
468.78	63.19
468.96	102.98
469.14	44.47
469.32	25.75
469.50	0.00
469.69	2.34
469.87	0.00
470.05	37.45
470.23	0.00
470.41	110.01
470.59	67.88
470.77	81.92
470.95	70.22
471.14	4.68
471.32	9.36
471.50	14.04
471.68	0.00
471.86	44.47
472.04	0.00
472.22	32.77
472.40	58.51
472.58	39.79
472.77	72.56
472.95	77.24
473.13	51.49
473.31	0.00
473.49	30.43
473.67	4.68
473.85	14.04
474.03	44.47
474.21	25.75
474.39	77.24
474.57	42.13
474.75	51.49
474.93	0.00
475.12	51.49
475.30	30.43
475.48	42.13
475.66	4.68
475.84	56.17
476.02	46.81
476.20	23.41
476.38	0.00
476.56	32.77
476.74	60.85
476.92	2.34
477.10	28.09
477.28	7.02
477.46	35.11
477.64	35.11
477.82	30.43
478.00	14.04
478.18	28.09
478.36	42.13
478.54	56.17
478.72	51.49
478.90	7.02
479.08	65.54
479.26	25.75
479.44	0.00
479.62	25.75
479.80	16.38
479.98	28.09
480.16	58.51
480.34	77.24
480.52	23.41
480.70	37.45
480.88	0.00
481.06	86.60
481.24	18.72
481.41	35.11
481.59	140.43
481.77	35.11
481.95	44.47
482.13	30.43
482.31	0.00
482.49	32.77
482.67	39.79
482.85	128.73
483.03	37.45
483.21	9.36
483.39	95.96
483.57	42.13
483.74	72.56
483.92	42.13
484.10	0.00
484.28	42.13
484.46	9.36
484.64	65.54
484.82	0.00
485.00	28.09
485.18	0.00
485.35	0.00
485.53	30.43
485.71	42.13
485.89	2.34
486.07	21.06
486.25	0.00
486.43	74.90
486.61	16.38
486.78	53.83
486.96	35.11
487.14	39.79
487.32	23.41
487.50	32.77
487.68	39.79
487.85	0.00
488.03	0.00
488.21	77.24
488.39	58.51
488.57	81.92
488.75	0.00
488.92	11.70
489.10	0.00
489.28	21.06
489.46	81.92
489.64	74.90
489.81	9.36
489.99	60.85
490.17	81.92
490.35	0.00
490.53	42.13
490.70	72.56
490.88	44.47
491.06	0.00
491.24	107.66
491.41	84.26
491.59	51.49
491.77	107.66
491.95	0.00
492.13	56.17
492.30	72.56
492.48	21.06
492.66	72.56
492.84	16.38
493.01	18.72
493.19	49.15
493.37	77.24
493.54	72.56
493.72	98.30
493.90	95.96
494.08	49.15
494.25	114.69
494.43	65.54
494.61	46.81
494.79	53.83
494.96	60.85
495.14	49.15
495.32	11.70
495.49	35.11
495.67	7.02
495.85	0.00
496.02	18.72
496.20	35.11
496.38	58.51
496.55	18.72
496.73	49.15
496.91	28.09
497.09	65.54
497.26	44.47
497.44	39.79
497.62	88.94
497.79	60.85
497.97	21.06
498.14	30.43
498.32	0.00
498.50	42.13
498.67	28.09
498.85	0.00
499.03	0.00
499.20	9.36
499.38	53.83
499.56	53.83
499.73	39.79
499.91	11.70
500.08	65.54
500.26	42.13
500.44	46.81
500.61	0.00
500.79	9.36
500.97	25.75
501.14	23.41
501.32	49.15
501.49	30.43
501.67	37.45
501.84	95.96
502.02	0.00
502.20	72.56
502.37	51.49
502.55	42.13
502.72	74.90
502.90	56.17
503.07	56.17
503.25	63.19
503.43	16.38
503.60	46.81
503.78	11.70
503.95	37.45
504.13	53.83
504.30	51.49
504.48	18.72
504.65	23.41
504.83	37.45
505.01	51.49
505.18	4.68
505.36	42.13
505.53	49.15
505.71	35.11
505.88	124.05
506.06	0.00
506.23	70.22
506.41	95.96
506.58	56.17
506.76	21.06
506.93	25.75
507.11	0.00
507.28	23.41
507.46	35.11
507.63	18.72
507.81	0.00
507.98	30.43
508.16	14.04
508.33	67.88
508.50	0.00
508.68	28.09
508.85	53.83
509.03	56.17
509.20	37.45
509.38	46.81
509.55	65.54
509.73	74.90
509.90	67.88
510.08	0.00
510.25	28.09
510.42	35.11
510.60	4.68
510.77	56.17
510.95	16.38
511.12	53.83
511.30	0.00
511.47	30.43
511.64	105.32
511.82	65.54
511.99	58.51
512.17	28.09
512.34	98.30
512.51	46.81
512.69	63.19
512.86	53.83
513.04	58.51
513.21	67.88
513.38	37.45
513.56	9.36
513.73	39.79
513.90	74.90
514.08	67.88
514.25	16.38
514.43	56.17
514.60	0.00
514.77	35.11
514.95	32.77
515.12	0.00
515.29	72.56
515.47	65.54
515.64	65.54
515.81	25.75
515.99	65.54
516.16	107.66
516.33	81.92
516.51	102.98
516.68	63.19
516.85	25.75
517.03	0.00
517.20	23.41
517.37	0.00
517.54	53.83
517.72	49.15
517.89	58.51
518.06	56.17
518.24	35.11
518.41	107.66
518.58	18.72
518.75	0.00
518.93	30.43
519.10	95.96
519.27	32.77
519.45	74.90
519.62	88.94
519.79	100.64
519.96	35.11
520.14	18.72
520.31	67.88
520.48	0.00
520.65	72.56
520.83	88.94
521.00	86.60
521.17	46.81
521.34	0.00
521.52	79.58
521.69	4.68
521.86	35.11
522.03	77.24
522.20	30.43
522.38	18.72
522.55	18.72
522.72	0.00
522.89	42.13
523.07	56.17
523.24	63.19
523.41	72.56
523.58	39.79
523.75	72.56
523.92	7.02
524.10	32.77
524.27	0.00
524.44	0.00
524.61	105.32
524.78	56.17
524.96	65.54
525.13	44.47
525.30	28.09
525.47	0.00
525.64	37.45
525.81	37.45
525.98	56.17
526.16	39.79
526.33	9.36
526.50	16.38
526.67	30.43
526.84	51.49
527.01	0.00
527.18	30.43
527.36	9.36
527.53	23.41
527.70	93.62
527.87	81.92
528.04	4.68
528.21	0.00
528.38	65.54
528.55	0.00
528.72	44.47
528.89	16.38
529.07	63.19
529.24	14.04
529.41	79.58
529.58	98.30
529.75	65.54
529.92	16.38
530.09	95.96
530.26	16.38
530.43	72.56
530.60	46.81
530.77	114.69
530.94	35.11
531.11	53.83
531.28	30.43
531.46	28.09
531.63	23.41
531.80	77.24
531.97	88.94
532.14	21.06
532.31	25.75
532.48	16.38
532.65	46.81
532.82	32.77
532.99	65.54
533.16	114.69
533.33	0.00
533.50	56.17
533.67	4.68
533.84	49.15
534.01	46.81
534.18	93.62
534.35	0.00
534.52	30.43
534.69	32.77
534.86	91.28
535.03	35.11
535.20	63.19
535.37	72.56
535.54	53.83
535.71	46.81
535.88	93.62
536.05	53.83
536.22	44.47
536.38	14.04
536.55	32.77
536.72	56.17
536.89	21.06
537.06	46.81
537.23	63.19
537.40	32.77
537.57	102.98
537.74	56.17
537.91	56.17
538.08	25.75
538.25	84.26
538.42	56.17
538.59	65.54
538.75	0.00
538.92	37.45
539.09	16.38
539.26	0.00
539.43	67.88
539.60	53.83
539.77	142.77
539.94	88.94
540.11	91.28
540.28	30.43
540.44	51.49
540.61	49.15
540.78	0.00
540.95	91.28
541.12	30.43
541.29	0.00
541.46	25.75
541.62	74.90
541.79	14.04
541.96	25.75
542.13	121.71
542.30	72.56
542.47	51.49
542.63	114.69
542.80	42.13
542.97	0.00
543.14	79.58
543.31	58.51
543.48	23.41
543.64	0.00
543.81	95.96
543.98	70.22
544.15	119.37
544.32	91.28
544.48	46.81
544.65	39.79
544.82	53.83
544.99	49.15
545.16	0.00
545.32	63.19
545.49	23.41
545.66	88.94
545.83	53.83
546.00	0.00
546.16	28.09
546.33	14.04
546.50	0.00
546.67	2.34
546.83	112.35
547.00	53.83
547.17	18.72
547.34	0.00
547.50	37.45
547.67	110.01
547.84	79.58
548.00	70.22
548.17	56.17
548.34	23.41
548.51	93.62
548.67	0.00
548.84	14.04
549.01	23.41
549.18	65.54
549.34	9.36
549.51	56.17
549.68	81.92
549.84	4.68
550.01	51.49
550.18	21.06
550.34	0.00
550.51	56.17
550.68	9.36
550.84	0.00
551.01	32.77
551.18	65.54
551.34	14.04
551.51	9.36
551.68	46.81
551.84	72.56
552.01	60.85
552.18	2.34
552.34	88.94
552.51	65.54
552.68	91.28
552.84	86.60
553.01	0.00
553.18	53.83
553.34	37.45
553.51	56.17
553.67	53.83
553.84	23.41
554.01	51.49
554.17	49.15
554.34	91.28
554.51	72.56
554.67	16.38
554.84	91.28
555.00	49.15
555.17	67.88
555.33	37.45
555.50	35.11
555.67	86.60
555.83	44.47
556.00	0.00
556.16	77.24
556.33	23.41
556.50	79.58
556.66	0.00
556.83	11.70
556.99	0.00
557.16	79.58
557.32	58.51
557.49	32.77
557.65	119.37
557.82	58.51
557.98	51.49
558.15	65.54
558.32	0.00
558.48	11.70
558.65	37.45
558.81	65.54
558.98	86.60
559.14	0.00
559.31	56.17
559.47	95.96
559.64	32.77
559.80	18.72
559.97	2.34
560.13	23.41
560.30	53.83
560.46	53.83
560.63	67.88
560.79	37.45
560.96	39.79
561.12	72.56
561.29	58.51
561.45	18.72
561.61	35.11
561.78	51.49
561.94	53.83
562.11	39.79
562.27	58.51
562.44	0.00
562.60	35.11
562.77	25.75
562.93	74.90
563.10	58.51
563.26	88.94
563.42	95.96
563.59	0.00
563.75	60.85
563.92	32.77
564.08	67.88
564.24	98.30
564.41	35.11
564.57	79.58
564.74	88.94
564.90	23.41
565.07	14.04
565.23	56.17
565.39	98.30
565.56	2.34
565.72	44.47
565.88	2.34
566.05	0.00
566.21	63.19
566.38	16.38
566.54	0.00
566.70	60.85
566.87	88.94
567.03	32.77
567.19	30.43
567.36	65.54
567.52	65.54
567.68	93.62
567.85	65.54
568.01	63.19
568.17	2.34
568.34	42.13
568.50	0.00
568.66	53.83
568.83	2.34
568.99	42.13
569.15	9.36
569.32	65.54
569.48	35.11
569.64	16.38
569.81	35.11
569.97	60.85
570.13	14.04
570.30	138.09
570.46	65.54
570.62	46.81
570.78	18.72
570.95	28.09
571.11	0.00
571.27	0.00
571.43	7.02
571.60	35.11
571.76	60.85
571.92	98.30
572.09	51.49
572.25	30.43
572.41	35.11
572.57	95.96
572.74	145.11
572.90	44.47
573.06	0.00
573.22	7.02
573.38	0.00
573.55	16.38
573.71	0.00
573.87	72.56
574.03	63.19
574.20	16.38
574.36	58.51
574.52	180.22
574.68	67.88
574.84	0.00
575.01	18.72
575.17	35.11
575.33	0.00
575.49	21.06
575.65	44.47
575.82	58.51
575.98	135.75
576.14	0.00
576.30	0.00
576.46	0.00
576.62	91.28
576.79	53.83
576.95	86.60
577.11	9.36
577.27	28.09
577.43	37.45
577.59	14.04
577.75	7.02
577.92	11.70
578.08	4.68
578.24	53.83
578.40	86.60
578.56	9.36
578.72	42.13
578.88	32.77
579.04	30.43
579.21	11.70
579.37	16.38
579.53	74.90
579.69	23.41
579.85	16.38
580.01	30.43
580.17	84.26
580.33	32.77
580.49	93.62
580.65	67.88
580.82	58.51
580.98	0.00
581.14	18.72
581.30	0.00
581.46	32.77
581.62	44.47
581.78	81.92
581.94	30.43
582.10	23.41
582.26	14.04
582.42	49.15
582.58	32.77
582.74	14.04
582.90	44.47
583.06	63.19
583.22	81.92
583.38	124.05
583.54	25.75
583.70	88.94
583.86	32.77
584.02	58.51
584.18	105.32
584.34	16.38
584.50	276.18
584.66	1270.91
584.82	2876.52
584.98	3826.78
585.14	3424.20
585.30	2195.42
585.46	1324.74
585.62	842.59
585.78	472.79
585.94	217.67
586.10	159.16
586.26	42.13
586.42	0.00
586.58	86.60
586.74	23.41
586.90	42.13
587.06	46.81
587.22	49.15
587.38	51.49
587.54	107.66
587.70	273.84
587.86	294.91
588.02	351.08
588.18	198.95
588.34	154.48
588.49	124.05
588.65	72.56
588.81	84.26
588.97	0.00
589.13	119.37
589.29	0.00
589.45	32.77
589.61	72.56
589.77	51.49
589.93	58.51
590.08	56.17
590.24	53.83
590.40	39.79
590.56	98.30
590.72	28.09
590.88	74.90
591.04	0.00
591.20	9.36
591.35	39.79
591.51	7.02
591.67	0.00
591.83	23.41
591.99	110.01
592.15	70.22
592.31	56.17
592.46	70.22
592.62	39.79
592.78	46.81
592.94	9.36
593.10	49.15
593.26	14.04
593.41	88.94
593.57	100.64
593.73	79.58
593.89	201.29
594.05	337.04
594.20	468.11
594.36	538.32
594.52	315.97
594.68	154.48
594.84	149.79
594.99	124.05
595.15	86.60
595.31	121.71
595.47	84.26
595.62	44.47
595.78	7.02
595.94	60.85
596.10	0.00
596.25	74.90
596.41	128.73
596.57	0.00
596.73	28.09
596.88	159.16
597.04	49.15
597.20	112.35
597.36	110.01
597.51	81.92
597.67	46.81
597.83	7.02
597.99	95.96
598.14	42.13
598.30	21.06
598.46	32.77
598.61	91.28
598.77	37.45
598.93	0.00
599.09	102.98
599.24	67.88
599.40	63.19
599.56	9.36
599.71	14.04
599.87	37.45
600.03	2.34
600.18	0.00
600.34	95.96
600.50	0.00
600.65	72.56
600.81	49.15
600.97	84.26
601.12	98.30
601.28	32.77
601.44	49.15
601.59	0.00
601.75	0.00
601.91	74.90
602.06	93.62
602.22	18.72
602.37	79.58
602.53	124.05
602.69	187.24
602.84	189.58
603.00	126.39
603.16	72.56
603.31	49.15
603.47	102.98
603.62	14.04
603.78	44.47
603.94	0.00
604.09	11.70
604.25	32.77
604.40	42.13
604.56	39.79
604.71	0.00
604.87	51.49
605.03	63.19
605.18	0.00
605.34	7.02
605.49	18.72
605.65	53.83
605.80	102.98
605.96	0.00
606.12	0.00
606.27	18.72
606.43	21.06
606.58	60.85
606.74	28.09
606.89	187.24
607.05	346.40
607.20	430.66
607.36	374.49
607.51	224.69
607.67	196.60
607.82	140.43
607.98	147.45
608.13	88.94
608.29	39.79
608.44	11.70
608.60	39.79
608.75	32.77
608.91	63.19
609.06	266.82
609.22	669.39
609.37	741.95
609.53	681.10
609.68	409.59
609.84	252.78
609.99	227.03
610.15	140.43
610.30	110.01
610.46	74.90
610.61	91.28
610.76	84.26
610.92	51.49
611.07	56.17
611.23	53.83
611.38	35.11
611.54	44.47
611.69	77.24
611.84	0.00
612.00	9.36
612.15	49.15
612.31	51.49
612.46	65.54
612.62	51.49
612.77	56.17
612.92	58.51
613.08	63.19
613.23	100.64
613.39	42.13
613.54	74.90
613.69	372.15
613.85	767.70
614.00	1172.61
614.15	1137.50
614.31	889.40
614.46	561.73
614.62	397.89
614.77	238.73
614.92	142.77
615.08	53.83
615.23	39.79
615.38	49.15
615.54	37.45
615.69	84.26
615.84	217.67
616.00	341.72
616.15	386.19
616.30	180.22
616.46	166.18
616.61	133.41
616.76	100.64
616.92	30.43
617.07	67.88
617.22	51.49
617.37	0.00
617.53	86.60
617.68	21.06
617.83	51.49
617.99	107.66
618.14	0.00
618.29	72.56
618.45	2.34
618.60	51.49
618.75	53.83
618.90	0.00
619.06	63.19
619.21	67.88
619.36	39.79
619.51	72.56
619.67	51.49
619.82	25.75
619.97	0.00
620.12	32.77
620.28	25.75
620.43	105.32
620.58	21.06
620.73	95.96
620.89	0.00
621.04	35.11
621.19	145.11
621.34	138.09
621.49	194.26
621.65	145.11
621.80	114.69
621.95	72.56
622.10	126.39
622.25	9.36
622.41	56.17
622.56	25.75
622.71	4.68
622.86	53.83
623.01	91.28
623.16	16.38
623.32	0.00
623.47	28.09
623.62	88.94
623.77	28.09
623.92	0.00
624.07	44.47
624.23	84.26
624.38	11.70
624.53	37.45
624.68	70.22
624.83	56.17
624.98	67.88
625.13	79.58
625.29	0.00
625.44	7.02
625.59	72.56
625.74	9.36
625.89	81.92
626.04	173.20
626.19	353.42
626.34	547.69
626.49	653.01
626.65	440.02
626.80	358.10
626.95	280.86
627.10	203.63
627.25	88.94
627.40	0.00
627.55	60.85
627.70	51.49
627.85	70.22
628.00	0.00
628.15	32.77
628.30	46.81
628.45	2.34
628.60	23.41
628.76	53.83
628.91	65.54
629.06	4.68
629.21	0.00
629.36	42.13
629.51	88.94
629.66	74.90
629.81	135.75
629.96	88.94
630.11	170.86
630.26	100.64
630.41	147.45
630.56	88.94
630.71	117.03
630.86	58.51
631.01	0.00
631.16	7.02
631.31	86.60
631.46	44.47
631.61	86.60
631.76	93.62
631.91	39.79
632.06	0.00
632.21	84.26
632.36	37.45
632.51	9.36
632.66	30.43
632.81	128.73
632.96	238.73
633.10	449.38
633.25	449.38
633.40	334.70
633.55	266.82
633.70	236.39
633.85	79.58
634.00	128.73
634.15	53.83
634.30	14.04
634.45	0.00
634.60	0.00
634.75	18.72
634.90	28.09
635.05	32.77
635.19	53.83
635.34	0.00
635.49	56.17
635.64	79.58
635.79	51.49
635.94	112.35
636.09	51.49
636.24	51.49
636.39	14.04
636.53	53.83
636.68	0.00
636.83	51.49
636.98	77.24
637.13	102.98
637.28	42.13
637.43	9.36
637.57	79.58
637.72	189.58
637.87	498.53
638.02	739.61
638.17	760.67
638.32	521.94
638.46	414.27
638.61	285.55
638.76	201.29
638.91	91.28
639.06	70.22
639.20	63.19
639.35	4.68
639.50	117.03
639.65	294.91
639.80	800.46
639.94	1118.78
640.09	1191.33
640.24	898.77
640.39	662.37
640.54	451.72
640.68	205.97
640.83	201.29
640.98	72.56
641.13	42.13
641.27	0.00
641.42	88.94
641.57	114.69
641.72	114.69
641.86	58.51
642.01	14.04
642.16	42.13
642.31	23.41
642.45	49.15
642.60	0.00
642.75	18.72
642.90	42.13
643.04	16.38
643.19	95.96
643.34	11.70
643.48	18.72
643.63	25.75
643.78	46.81
643.93	46.81
644.07	79.58
644.22	37.45
644.37	18.72
644.51	11.70
644.66	46.81
644.81	56.17
644.95	11.70
645.10	18.72
645.25	32.77
645.39	35.11
645.54	44.47
645.69	0.00
645.83	35.11
645.98	4.68
646.13	0.00
646.27	46.81
646.42	37.45
646.57	0.00
646.71	79.58
646.86	42.13
647.00	23.41
647.15	25.75
647.30	58.51
647.44	53.83
647.59	46.81
647.74	28.09
647.88	2.34
648.03	16.38
648.17	0.00
648.32	18.72
648.47	11.70
648.61	0.00
648.76	110.01
648.90	9.36
649.05	0.00
649.20	25.75
649.34	23.41
649.49	14.04
649.63	0.00
649.78	77.24
649.92	0.00
650.07	126.39
650.21	301.93
650.36	587.47
650.51	648.33
650.65	514.92
650.80	330.02
650.94	250.44
651.09	142.77
651.23	138.09
651.38	145.11
651.52	65.54
651.67	0.00
651.81	30.43
651.96	77.24
652.10	28.09
652.25	25.75
652.39	9.36
652.54	46.81
652.68	2.34
652.83	168.52
652.97	168.52
653.12	222.35
653.26	189.58
653.41	119.37
653.55	117.03
653.70	53.83
653.84	140.43
653.99	102.98
654.13	93.62
654.27	21.06
654.42	77.24
654.56	86.60
654.71	11.70
654.85	63.19
655.00	74.90
655.14	37.45
655.29	0.00
655.43	72.56
655.57	0.00
655.72	46.81
655.86	65.54
656.01	51.49
656.15	4.68
656.30	0.00
656.44	51.49
656.58	0.00
656.73	56.17
656.87	0.00
657.01	11.70
657.16	2.34
657.30	72.56
657.45	21.06
657.59	63.19
657.73	28.09
657.88	70.22
658.02	67.88
658.16	0.00
658.31	21.06
658.45	37.45
658.60	49.15
658.74	93.62
658.88	77.24
659.03	58.51
659.17	49.15
659.31	77.24
659.46	156.82
659.60	273.84
659.74	311.29
659.89	287.89
660.03	198.95
660.17	156.82
660.32	114.69
660.46	28.09
660.60	0.00
660.74	49.15
660.89	128.73
661.03	28.09
661.17	18.72
661.32	4.68
661.46	46.81
661.60	42.13
661.74	79.58
661.89	53.83
662.03	23.41
662.17	53.83
662.31	49.15
662.46	9.36
662.60	98.30
662.74	0.00
662.88	53.83
663.03	16.38
663.17	11.70
663.31	60.85
663.45	30.43
663.60	56.17
663.74	32.77
663.88	0.00
664.02	0.00
664.17	65.54
664.31	60.85
664.45	93.62
664.59	49.15
664.73	30.43
664.88	49.15
665.02	58.51
665.16	4.68
665.30	0.00
665.44	28.09
665.59	114.69
665.73	133.41
665.87	2.34
666.01	0.00
666.15	67.88
666.29	0.00
666.44	0.00
666.58	23.41
666.72	23.41
666.86	53.83
667.00	0.00
667.14	42.13
667.28	112.35
667.43	276.18
667.57	440.02
667.71	482.15
667.85	538.32
667.99	386.19
668.13	227.03
668.27	159.16
668.41	93.62
668.56	44.47
668.70	60.85
668.84	30.43
668.98	58.51
669.12	84.26
669.26	131.07
669.40	0.00
669.54	0.00
669.68	63.19
669.82	44.47
669.96	0.00
670.10	16.38
670.25	25.75
670.39	4.68
670.53	51.49
670.67	35.11
670.81	21.06
670.95	44.47
671.09	44.47
671.23	81.92
671.37	245.76
671.51	353.42
671.65	367.46
671.79	262.14
671.93	145.11
672.07	121.71
672.21	77.24
672.35	98.30
672.49	0.00
672.63	37.45
672.77	0.00
672.91	9.36
673.05	46.81
673.19	4.68
673.33	39.79
673.47	9.36
673.61	28.09
673.75	37.45
673.89	65.54
674.03	114.69
674.17	9.36
674.31	16.38
674.45	0.00
674.59	60.85
674.73	60.85
674.87	23.41
675.01	117.03
675.15	53.83
675.29	70.22
675.43	65.54
675.56	23.41
675.70	0.00
675.84	74.90
675.98	37.45
676.12	72.56
676.26	98.30
676.40	0.00
676.54	0.00
676.68	37.45
676.82	93.62
676.96	42.13
677.10	37.45
677.23	23.41
677.37	35.11
677.51	0.00
677.65	21.06
677.79	37.45
677.93	35.11
678.07	0.00
678.21	16.38
678.34	56.17
678.48	32.77
678.62	32.77
678.76	65.54
678.90	0.00
679.04	95.96
679.18	0.00
679.31	58.51
679.45	0.00
679.59	46.81
679.73	49.15
679.87	21.06
680.00	0.00
680.14	28.09
680.28	0.00
680.42	112.35
680.56	44.47
680.70	84.26
680.83	77.24
680.97	44.47
681.11	51.49
681.25	88.94
681.39	79.58
681.52	37.45
681.66	91.28
681.80	39.79
681.94	18.72
682.07	0.00
682.21	88.94
682.35	0.00
682.49	49.15
682.62	58.51
682.76	0.00
682.90	46.81
683.04	58.51
683.17	60.85
683.31	42.13
683.45	70.22
683.59	30.43
683.72	0.00
683.86	2.34
684.00	32.77
684.13	0.00
684.27	0.00
684.41	0.00
684.55	63.19
684.68	72.56
684.82	37.45
684.96	51.49
685.09	56.17
685.23	30.43
685.37	0.00
685.50	0.00
685.64	28.09
685.78	56.17
685.91	16.38
686.05	42.13
686.19	37.45
686.32	35.11
686.46	18.72
686.60	0.00
686.73	14.04
686.87	44.47
687.01	23.41
687.14	56.17
687.28	42.13
687.42	11.70
687.55	51.49
687.69	25.75
687.82	32.77
687.96	60.85
688.10	18.72
688.23	30.43
688.37	44.47
688.50	4.68
688.64	2.34
688.78	4.68
688.91	112.35
689.05	0.00
689.18	0.00
689.32	11.70
689.46	21.06
689.59	0.00
689.73	0.00
689.86	67.88
690.00	23.41
690.13	91.28
690.27	0.00
690.41	56.17
690.54	0.00
690.68	28.09
690.81	58.51
690.95	37.45
691.08	7.02
691.22	37.45
691.35	18.72
691.49	0.00
691.62	60.85
691.76	0.00
691.89	25.75
692.03	28.09
692.16	0.00
692.30	23.41
692.43	60.85
692.57	102.98
692.70	184.90
692.84	259.80
692.97	215.33
693.11	182.56
693.24	77.24
693.38	65.54
693.51	32.77
693.65	42.13
693.78	51.49
693.92	11.70
694.05	0.00
694.19	44.47
694.32	72.56
694.45	25.75
694.59	44.47
694.72	28.09
694.86	2.34
694.99	0.00
695.13	32.77
695.26	16.38
695.39	0.00
695.53	49.15
695.66	53.83
695.80	49.15
695.93	39.79
696.07	0.00
696.20	0.00
696.33	4.68
696.47	65.54
696.60	39.79
696.73	2.34
696.87	25.75
697.00	58.51
697.14	7.02
697.27	44.47
697.40	77.24
697.54	58.51
697.67	35.11
697.80	18.72
697.94	30.43
698.07	53.83
698.21	25.75
698.34	28.09
698.47	35.11
698.61	39.79
698.74	93.62
698.87	39.79
699.01	77.24
699.14	60.85
699.27	30.43
699.40	53.83
699.54	7.02
699.67	0.00
699.80	32.77
699.94	0.00
700.07	0.00
700.20	39.79
700.34	74.90
700.47	25.75
700.60	0.00
700.73	0.00
700.87	35.11
701.00	53.83
701.13	37.45
701.26	53.83
701.40	77.24
701.53	0.00
701.66	2.34
701.79	0.00
701.93	0.00
702.06	18.72
702.19	102.98
702.32	14.04
702.46	37.45
702.59	18.72
702.72	51.49
702.85	163.84
702.99	367.46
703.12	430.66
703.25	484.49
703.38	381.51
703.51	322.99
703.65	283.20
703.78	173.20
703.91	112.35
704.04	95.96
704.17	84.26
704.31	95.96
704.44	0.00
704.57	16.38
704.70	11.70
704.83	0.00
704.96	16.38
705.10	37.45
705.23	105.32
>>>>>End Processed Spectral Data<<<<<
