SpectraSuite Data File
++++++++++++++++++++++++++++++++++++
Date: Fri Oct 04 12:13:35 GMT-05:00 2013
User: price-jones
Dark Spectrum Present: No
Reference Spectrum Present: No
Number of Sampled Component Spectra: 1
Spectrometers: USB2+H05261
Integration Time (usec): 10000 (USB2+H05261)
Spectra Averaged: 1 (USB2+H05261)
Boxcar Smoothing: 0 (USB2+H05261)
Correct for Electrical Dark: No (USB2+H05261)
Strobe/Lamp Enabled: No (USB2+H05261)
Correct for Detector Non-linearity: No (USB2+H05261)
Correct for Stray Light: No (USB2+H05261)
Number of Pixels in Processed Spectrum: 2048
>>>>>Begin Processed Spectral Data<<<<<
365.73	4.68
365.92	4.68
366.12	4.68
366.32	0.00
366.52	0.00
366.72	0.00
366.91	0.00
367.11	0.00
367.31	0.00
367.51	0.00
367.70	0.00
367.90	0.00
368.10	0.00
368.30	0.00
368.49	0.00
368.69	0.00
368.89	0.00
369.09	0.00
369.28	0.00
369.48	0.00
369.68	0.00
369.87	0.00
370.07	0.00
370.27	0.00
370.47	0.00
370.66	0.00
370.86	0.00
371.06	0.00
371.25	0.00
371.45	60.85
371.65	7.02
371.84	0.00
372.04	0.00
372.24	0.00
372.44	14.04
372.63	28.09
372.83	11.70
373.03	37.45
373.22	21.06
373.42	0.00
373.62	11.70
373.81	0.00
374.01	32.77
374.21	74.90
374.40	32.77
374.60	98.30
374.79	35.11
374.99	0.00
375.19	60.85
375.38	21.06
375.58	25.75
375.78	9.36
375.97	135.75
376.17	18.72
376.37	0.00
376.56	91.28
376.76	0.00
376.95	32.77
377.15	51.49
377.35	23.41
377.54	44.47
377.74	11.70
377.93	2.34
378.13	30.43
378.33	63.19
378.52	0.00
378.72	42.13
378.91	9.36
379.11	0.00
379.31	44.47
379.50	67.88
379.70	81.92
379.89	51.49
380.09	35.11
380.28	0.00
380.48	16.38
380.68	14.04
380.87	0.00
381.07	25.75
381.26	0.00
381.46	0.00
381.65	0.00
381.85	7.02
382.04	0.00
382.24	16.38
382.43	0.00
382.63	65.54
382.83	0.00
383.02	0.00
383.22	65.54
383.41	0.00
383.61	44.47
383.80	0.00
384.00	0.00
384.19	0.00
384.39	16.38
384.58	58.51
384.78	4.68
384.97	35.11
385.17	0.00
385.36	14.04
385.56	0.00
385.75	30.43
385.95	0.00
386.14	0.00
386.34	21.06
386.53	0.00
386.72	0.00
386.92	0.00
387.11	14.04
387.31	39.79
387.50	0.00
387.70	4.68
387.89	65.54
388.09	81.92
388.28	49.15
388.48	9.36
388.67	23.41
388.86	49.15
389.06	39.79
389.25	0.00
389.45	11.70
389.64	0.00
389.84	16.38
390.03	7.02
390.22	74.90
390.42	0.00
390.61	0.00
390.81	53.83
391.00	14.04
391.19	14.04
391.39	7.02
391.58	14.04
391.78	39.79
391.97	0.00
392.16	0.00
392.36	0.00
392.55	0.00
392.75	37.45
392.94	0.00
393.13	53.83
393.33	70.22
393.52	98.30
393.71	32.77
393.91	46.81
394.10	56.17
394.29	49.15
394.49	0.00
394.68	37.45
394.88	37.45
395.07	2.34
395.26	58.51
395.46	88.94
395.65	65.54
395.84	0.00
396.04	44.47
396.23	0.00
396.42	9.36
396.62	58.51
396.81	0.00
397.00	35.11
397.19	23.41
397.39	51.49
397.58	49.15
397.77	44.47
397.97	28.09
398.16	42.13
398.35	32.77
398.55	9.36
398.74	14.04
398.93	77.24
399.12	46.81
399.32	18.72
399.51	0.00
399.70	0.00
399.90	0.00
400.09	72.56
400.28	56.17
400.47	37.45
400.67	0.00
400.86	18.72
401.05	0.00
401.24	42.13
401.44	23.41
401.63	9.36
401.82	44.47
402.01	9.36
402.21	42.13
402.40	0.00
402.59	25.75
402.78	119.37
402.97	18.72
403.17	63.19
403.36	0.00
403.55	60.85
403.74	0.00
403.93	51.49
404.13	53.83
404.32	0.00
404.51	0.00
404.70	25.75
404.89	11.70
405.09	0.00
405.28	23.41
405.47	32.77
405.66	0.00
405.85	91.28
406.05	0.00
406.24	7.02
406.43	16.38
406.62	67.88
406.81	86.60
407.00	105.32
407.20	39.79
407.39	0.00
407.58	32.77
407.77	44.47
407.96	49.15
408.15	60.85
408.34	2.34
408.54	28.09
408.73	65.54
408.92	46.81
409.11	95.96
409.30	98.30
409.49	25.75
409.68	0.00
409.87	56.17
410.07	35.11
410.26	23.41
410.45	11.70
410.64	30.43
410.83	56.17
411.02	0.00
411.21	11.70
411.40	9.36
411.59	42.13
411.78	32.77
411.98	58.51
412.17	56.17
412.36	18.72
412.55	32.77
412.74	105.32
412.93	63.19
413.12	11.70
413.31	14.04
413.50	70.22
413.69	25.75
413.88	25.75
414.07	37.45
414.26	49.15
414.45	4.68
414.64	14.04
414.83	0.00
415.02	46.81
415.22	72.56
415.41	9.36
415.60	18.72
415.79	32.77
415.98	0.00
416.17	23.41
416.36	35.11
416.55	32.77
416.74	88.94
416.93	53.83
417.12	63.19
417.31	49.15
417.50	0.00
417.69	84.26
417.88	65.54
418.07	35.11
418.26	42.13
418.45	72.56
418.64	37.45
418.83	72.56
419.02	0.00
419.21	56.17
419.39	23.41
419.58	65.54
419.77	0.00
419.96	39.79
420.15	42.13
420.34	70.22
420.53	18.72
420.72	77.24
420.91	51.49
421.10	74.90
421.29	30.43
421.48	88.94
421.67	42.13
421.86	18.72
422.05	0.00
422.24	65.54
422.43	0.00
422.61	16.38
422.80	65.54
422.99	49.15
423.18	0.00
423.37	131.07
423.56	18.72
423.75	0.00
423.94	70.22
424.13	63.19
424.32	56.17
424.50	35.11
424.69	0.00
424.88	72.56
425.07	79.58
425.26	0.00
425.45	14.04
425.64	0.00
425.83	81.92
426.01	0.00
426.20	56.17
426.39	65.54
426.58	11.70
426.77	30.43
426.96	112.35
427.15	46.81
427.33	77.24
427.52	91.28
427.71	2.34
427.90	18.72
428.09	14.04
428.28	25.75
428.46	46.81
428.65	0.00
428.84	9.36
429.03	16.38
429.22	53.83
429.40	35.11
429.59	11.70
429.78	28.09
429.97	25.75
430.16	53.83
430.34	46.81
430.53	81.92
430.72	126.39
430.91	98.30
431.10	67.88
431.28	98.30
431.47	14.04
431.66	4.68
431.85	72.56
432.03	0.00
432.22	18.72
432.41	65.54
432.60	53.83
432.79	0.00
432.97	65.54
433.16	86.60
433.35	58.51
433.54	53.83
433.72	16.38
433.91	23.41
434.10	28.09
434.28	70.22
434.47	51.49
434.66	91.28
434.85	65.54
435.03	42.13
435.22	25.75
435.41	9.36
435.59	84.26
435.78	100.64
435.97	105.32
436.16	18.72
436.34	51.49
436.53	58.51
436.72	102.98
436.90	30.43
437.09	37.45
437.28	21.06
437.46	110.01
437.65	56.17
437.84	9.36
438.02	72.56
438.21	112.35
438.40	21.06
438.58	30.43
438.77	100.64
438.96	88.94
439.14	53.83
439.33	105.32
439.52	79.58
439.70	124.05
439.89	88.94
440.08	70.22
440.26	74.90
440.45	74.90
440.63	84.26
440.82	53.83
441.01	67.88
441.19	32.77
441.38	51.49
441.57	18.72
441.75	72.56
441.94	4.68
442.12	18.72
442.31	14.04
442.50	28.09
442.68	117.03
442.87	114.69
443.05	95.96
443.24	44.47
443.43	124.05
443.61	74.90
443.80	93.62
443.98	72.56
444.17	102.98
444.35	9.36
444.54	37.45
444.73	70.22
444.91	0.00
445.10	0.00
445.28	9.36
445.47	4.68
445.65	11.70
445.84	58.51
446.02	4.68
446.21	9.36
446.39	121.71
446.58	81.92
446.77	42.13
446.95	77.24
447.14	65.54
447.32	14.04
447.51	91.28
447.69	32.77
447.88	11.70
448.06	28.09
448.25	23.41
448.43	14.04
448.62	65.54
448.80	107.66
448.99	102.98
449.17	37.45
449.36	18.72
449.54	79.58
449.73	28.09
449.91	51.49
450.10	30.43
450.28	35.11
450.46	21.06
450.65	107.66
450.83	102.98
451.02	138.09
451.20	117.03
451.39	39.79
451.57	0.00
451.76	2.34
451.94	39.79
452.13	58.51
452.31	18.72
452.49	16.38
452.68	0.00
452.86	0.00
453.05	53.83
453.23	67.88
453.42	35.11
453.60	2.34
453.78	53.83
453.97	46.81
454.15	100.64
454.34	21.06
454.52	79.58
454.70	25.75
454.89	0.00
455.07	72.56
455.26	18.72
455.44	79.58
455.62	42.13
455.81	35.11
455.99	35.11
456.17	11.70
456.36	81.92
456.54	53.83
456.73	102.98
456.91	28.09
457.09	56.17
457.28	72.56
457.46	35.11
457.64	0.00
457.83	9.36
458.01	74.90
458.19	67.88
458.38	67.88
458.56	37.45
458.74	23.41
458.93	102.98
459.11	53.83
459.29	88.94
459.48	63.19
459.66	0.00
459.84	63.19
460.03	21.06
460.21	39.79
460.39	11.70
460.57	7.02
460.76	95.96
460.94	49.15
461.12	42.13
461.31	79.58
461.49	32.77
461.67	72.56
461.85	21.06
462.04	60.85
462.22	93.62
462.40	70.22
462.59	42.13
462.77	72.56
462.95	42.13
463.13	16.38
463.32	65.54
463.50	18.72
463.68	49.15
463.86	23.41
464.05	81.92
464.23	0.00
464.41	9.36
464.59	56.17
464.78	28.09
464.96	60.85
465.14	44.47
465.32	56.17
465.50	58.51
465.69	46.81
465.87	25.75
466.05	0.00
466.23	23.41
466.41	56.17
466.60	77.24
466.78	0.00
466.96	95.96
467.14	28.09
467.32	4.68
467.51	84.26
467.69	95.96
467.87	107.66
468.05	30.43
468.23	56.17
468.41	95.96
468.60	60.85
468.78	30.43
468.96	105.32
469.14	112.35
469.32	126.39
469.50	0.00
469.69	0.00
469.87	0.00
470.05	74.90
470.23	37.45
470.41	32.77
470.59	11.70
470.77	37.45
470.95	32.77
471.14	88.94
471.32	53.83
471.50	42.13
471.68	112.35
471.86	70.22
472.04	23.41
472.22	74.90
472.40	65.54
472.58	65.54
472.77	91.28
472.95	4.68
473.13	14.04
473.31	0.00
473.49	16.38
473.67	56.17
473.85	58.51
474.03	51.49
474.21	79.58
474.39	51.49
474.57	32.77
474.75	63.19
474.93	98.30
475.12	147.45
475.30	91.28
475.48	60.85
475.66	53.83
475.84	67.88
476.02	32.77
476.20	37.45
476.38	42.13
476.56	25.75
476.74	49.15
476.92	79.58
477.10	110.01
477.28	119.37
477.46	56.17
477.64	46.81
477.82	86.60
478.00	51.49
478.18	124.05
478.36	119.37
478.54	110.01
478.72	72.56
478.90	72.56
479.08	65.54
479.26	35.11
479.44	51.49
479.62	23.41
479.80	86.60
479.98	124.05
480.16	60.85
480.34	7.02
480.52	37.45
480.70	0.00
480.88	63.19
481.06	72.56
481.24	67.88
481.41	53.83
481.59	107.66
481.77	86.60
481.95	70.22
482.13	2.34
482.31	63.19
482.49	86.60
482.67	11.70
482.85	168.52
483.03	18.72
483.21	77.24
483.39	53.83
483.57	58.51
483.74	110.01
483.92	23.41
484.10	133.41
484.28	37.45
484.46	98.30
484.64	44.47
484.82	51.49
485.00	58.51
485.18	102.98
485.35	81.92
485.53	100.64
485.71	63.19
485.89	56.17
486.07	46.81
486.25	72.56
486.43	81.92
486.61	49.15
486.78	32.77
486.96	74.90
487.14	56.17
487.32	9.36
487.50	81.92
487.68	119.37
487.85	107.66
488.03	42.13
488.21	86.60
488.39	63.19
488.57	18.72
488.75	37.45
488.92	32.77
489.10	21.06
489.28	49.15
489.46	44.47
489.64	93.62
489.81	93.62
489.99	67.88
490.17	81.92
490.35	44.47
490.53	128.73
490.70	95.96
490.88	4.68
491.06	25.75
491.24	49.15
491.41	42.13
491.59	84.26
491.77	56.17
491.95	42.13
492.13	93.62
492.30	84.26
492.48	46.81
492.66	28.09
492.84	63.19
493.01	88.94
493.19	86.60
493.37	100.64
493.54	86.60
493.72	84.26
493.90	126.39
494.08	46.81
494.25	74.90
494.43	152.13
494.61	142.77
494.79	147.45
494.96	0.00
495.14	107.66
495.32	51.49
495.49	65.54
495.67	79.58
495.85	30.43
496.02	35.11
496.20	138.09
496.38	79.58
496.55	37.45
496.73	72.56
496.91	117.03
497.09	65.54
497.26	77.24
497.44	128.73
497.62	35.11
497.79	72.56
497.97	102.98
498.14	88.94
498.32	0.00
498.50	44.47
498.67	35.11
498.85	28.09
499.03	49.15
499.20	79.58
499.38	98.30
499.56	25.75
499.73	49.15
499.91	18.72
500.08	65.54
500.26	58.51
500.44	74.90
500.61	67.88
500.79	107.66
500.97	67.88
501.14	37.45
501.32	79.58
501.49	53.83
501.67	25.75
501.84	84.26
502.02	37.45
502.20	0.00
502.37	128.73
502.55	65.54
502.72	53.83
502.90	110.01
503.07	112.35
503.25	32.77
503.43	65.54
503.60	56.17
503.78	51.49
503.95	44.47
504.13	25.75
504.30	81.92
504.48	95.96
504.65	105.32
504.83	51.49
505.01	79.58
505.18	2.34
505.36	56.17
505.53	0.00
505.71	0.00
505.88	63.19
506.06	117.03
506.23	28.09
506.41	79.58
506.58	65.54
506.76	88.94
506.93	88.94
507.11	114.69
507.28	142.77
507.46	126.39
507.63	105.32
507.81	63.19
507.98	46.81
508.16	58.51
508.33	67.88
508.50	88.94
508.68	44.47
508.85	67.88
509.03	7.02
509.20	135.75
509.38	138.09
509.55	107.66
509.73	124.05
509.90	203.63
510.08	39.79
510.25	0.00
510.42	124.05
510.60	84.26
510.77	30.43
510.95	98.30
511.12	65.54
511.30	53.83
511.47	35.11
511.64	74.90
511.82	110.01
511.99	128.73
512.17	112.35
512.34	30.43
512.51	77.24
512.69	154.48
512.86	56.17
513.04	112.35
513.21	166.18
513.38	25.75
513.56	102.98
513.73	74.90
513.90	0.00
514.08	84.26
514.25	81.92
514.43	63.19
514.60	67.88
514.77	98.30
514.95	70.22
515.12	159.16
515.29	149.79
515.47	46.81
515.64	81.92
515.81	142.77
515.99	70.22
516.16	117.03
516.33	56.17
516.51	91.28
516.68	105.32
516.85	63.19
517.03	32.77
517.20	67.88
517.37	63.19
517.54	46.81
517.72	124.05
517.89	124.05
518.06	37.45
518.24	32.77
518.41	142.77
518.58	65.54
518.75	152.13
518.93	14.04
519.10	0.00
519.27	107.66
519.45	81.92
519.62	65.54
519.79	110.01
519.96	81.92
520.14	46.81
520.31	133.41
520.48	131.07
520.65	91.28
520.83	126.39
521.00	117.03
521.17	67.88
521.34	81.92
521.52	86.60
521.69	9.36
521.86	128.73
522.03	46.81
522.20	18.72
522.38	37.45
522.55	37.45
522.72	25.75
522.89	53.83
523.07	133.41
523.24	131.07
523.41	39.79
523.58	119.37
523.75	100.64
523.92	42.13
524.10	77.24
524.27	133.41
524.44	102.98
524.61	91.28
524.78	72.56
524.96	70.22
525.13	121.71
525.30	77.24
525.47	124.05
525.64	37.45
525.81	117.03
525.98	58.51
526.16	88.94
526.33	81.92
526.50	107.66
526.67	46.81
526.84	39.79
527.01	126.39
527.18	49.15
527.36	25.75
527.53	128.73
527.70	131.07
527.87	79.58
528.04	67.88
528.21	133.41
528.38	35.11
528.55	105.32
528.72	124.05
528.89	56.17
529.07	88.94
529.24	25.75
529.41	77.24
529.58	105.32
529.75	30.43
529.92	0.00
530.09	39.79
530.26	30.43
530.43	114.69
530.60	133.41
530.77	91.28
530.94	128.73
531.11	140.43
531.28	0.00
531.46	79.58
531.63	124.05
531.80	105.32
531.97	112.35
532.14	81.92
532.31	114.69
532.48	93.62
532.65	51.49
532.82	119.37
532.99	51.49
533.16	21.06
533.33	98.30
533.50	112.35
533.67	147.45
533.84	77.24
534.01	53.83
534.18	63.19
534.35	32.77
534.52	102.98
534.69	117.03
534.86	63.19
535.03	23.41
535.20	65.54
535.37	74.90
535.54	32.77
535.71	117.03
535.88	88.94
536.05	86.60
536.22	58.51
536.38	88.94
536.55	67.88
536.72	98.30
536.89	32.77
537.06	86.60
537.23	107.66
537.40	63.19
537.57	72.56
537.74	42.13
537.91	189.58
538.08	93.62
538.25	126.39
538.42	70.22
538.59	37.45
538.75	100.64
538.92	107.66
539.09	100.64
539.26	18.72
539.43	119.37
539.60	44.47
539.77	42.13
539.94	56.17
540.11	95.96
540.28	145.11
540.44	95.96
540.61	128.73
540.78	91.28
540.95	32.77
541.12	107.66
541.29	84.26
541.46	60.85
541.62	0.00
541.79	102.98
541.96	44.47
542.13	79.58
542.30	110.01
542.47	112.35
542.63	91.28
542.80	91.28
542.97	88.94
543.14	81.92
543.31	142.77
543.48	46.81
543.64	72.56
543.81	98.30
543.98	42.13
544.15	74.90
544.32	117.03
544.48	58.51
544.65	170.86
544.82	79.58
544.99	21.06
545.16	28.09
545.32	126.39
545.49	91.28
545.66	121.71
545.83	23.41
546.00	88.94
546.16	147.45
546.33	126.39
546.50	72.56
546.67	93.62
546.83	60.85
547.00	84.26
547.17	84.26
547.34	70.22
547.50	28.09
547.67	93.62
547.84	28.09
548.00	72.56
548.17	86.60
548.34	121.71
548.51	86.60
548.67	88.94
548.84	88.94
549.01	93.62
549.18	119.37
549.34	91.28
549.51	124.05
549.68	156.82
549.84	30.43
550.01	11.70
550.18	105.32
550.34	112.35
550.51	79.58
550.68	98.30
550.84	102.98
551.01	100.64
551.18	91.28
551.34	156.82
551.51	7.02
551.68	46.81
551.84	110.01
552.01	72.56
552.18	86.60
552.34	74.90
552.51	98.30
552.68	44.47
552.84	0.00
553.01	131.07
553.18	23.41
553.34	107.66
553.51	86.60
553.67	72.56
553.84	128.73
554.01	79.58
554.17	121.71
554.34	51.49
554.51	77.24
554.67	126.39
554.84	107.66
555.00	93.62
555.17	70.22
555.33	79.58
555.50	63.19
555.67	84.26
555.83	107.66
556.00	128.73
556.16	86.60
556.33	107.66
556.50	77.24
556.66	37.45
556.83	107.66
556.99	182.56
557.16	60.85
557.32	105.32
557.49	86.60
557.65	133.41
557.82	107.66
557.98	37.45
558.15	37.45
558.32	44.47
558.48	79.58
558.65	49.15
558.81	84.26
558.98	79.58
559.14	16.38
559.31	46.81
559.47	126.39
559.64	105.32
559.80	63.19
559.97	124.05
560.13	58.51
560.30	18.72
560.46	81.92
560.63	72.56
560.79	79.58
560.96	51.49
561.12	65.54
561.29	124.05
561.45	14.04
561.61	32.77
561.78	32.77
561.94	79.58
562.11	28.09
562.27	93.62
562.44	84.26
562.60	124.05
562.77	102.98
562.93	58.51
563.10	84.26
563.26	81.92
563.42	72.56
563.59	93.62
563.75	72.56
563.92	46.81
564.08	51.49
564.24	60.85
564.41	81.92
564.57	44.47
564.74	191.92
564.90	84.26
565.07	95.96
565.23	51.49
565.39	152.13
565.56	102.98
565.72	74.90
565.88	37.45
566.05	86.60
566.21	49.15
566.38	9.36
566.54	11.70
566.70	67.88
566.87	126.39
567.03	114.69
567.19	77.24
567.36	30.43
567.52	107.66
567.68	53.83
567.85	100.64
568.01	67.88
568.17	149.79
568.34	145.11
568.50	35.11
568.66	37.45
568.83	107.66
568.99	105.32
569.15	46.81
569.32	145.11
569.48	42.13
569.64	72.56
569.81	49.15
569.97	86.60
570.13	86.60
570.30	98.30
570.46	93.62
570.62	56.17
570.78	0.00
570.95	74.90
571.11	70.22
571.27	86.60
571.43	60.85
571.60	88.94
571.76	65.54
571.92	30.43
572.09	49.15
572.25	18.72
572.41	91.28
572.57	102.98
572.74	84.26
572.90	21.06
573.06	28.09
573.22	95.96
573.38	42.13
573.55	95.96
573.71	49.15
573.87	60.85
574.03	77.24
574.20	93.62
574.36	79.58
574.52	23.41
574.68	7.02
574.84	60.85
575.01	86.60
575.17	25.75
575.33	21.06
575.49	60.85
575.65	56.17
575.82	79.58
575.98	93.62
576.14	0.00
576.30	84.26
576.46	79.58
576.62	60.85
576.79	39.79
576.95	112.35
577.11	79.58
577.27	56.17
577.43	119.37
577.59	46.81
577.75	88.94
577.92	60.85
578.08	74.90
578.24	30.43
578.40	119.37
578.56	86.60
578.72	37.45
578.88	72.56
579.04	58.51
579.21	63.19
579.37	105.32
579.53	44.47
579.69	91.28
579.85	95.96
580.01	67.88
580.17	18.72
580.33	58.51
580.49	44.47
580.65	25.75
580.82	100.64
580.98	110.01
581.14	72.56
581.30	72.56
581.46	65.54
581.62	67.88
581.78	72.56
581.94	65.54
582.10	135.75
582.26	98.30
582.42	112.35
582.58	79.58
582.74	79.58
582.90	100.64
583.06	72.56
583.22	93.62
583.38	70.22
583.54	46.81
583.70	159.16
583.86	100.64
584.02	70.22
584.18	49.15
584.34	14.04
584.50	11.70
584.66	81.92
584.82	25.75
584.98	60.85
585.14	91.28
585.30	93.62
585.46	77.24
585.62	67.88
585.78	84.26
585.94	121.71
586.10	114.69
586.26	14.04
586.42	11.70
586.58	56.17
586.74	105.32
586.90	72.56
587.06	74.90
587.22	18.72
587.38	86.60
587.54	98.30
587.70	53.83
587.86	70.22
588.02	72.56
588.18	98.30
588.34	110.01
588.49	11.70
588.65	72.56
588.81	9.36
588.97	107.66
589.13	11.70
589.29	88.94
589.45	0.00
589.61	37.45
589.77	72.56
589.93	37.45
590.08	16.38
590.24	60.85
590.40	107.66
590.56	77.24
590.72	0.00
590.88	121.71
591.04	46.81
591.20	30.43
591.35	93.62
591.51	53.83
591.67	0.00
591.83	0.00
591.99	95.96
592.15	84.26
592.31	60.85
592.46	63.19
592.62	86.60
592.78	11.70
592.94	91.28
593.10	131.07
593.26	117.03
593.41	93.62
593.57	117.03
593.73	39.79
593.89	28.09
594.05	0.00
594.20	37.45
594.36	65.54
594.52	60.85
594.68	100.64
594.84	21.06
594.99	39.79
595.15	0.00
595.31	63.19
595.47	117.03
595.62	105.32
595.78	88.94
595.94	65.54
596.10	168.52
596.25	9.36
596.41	0.00
596.57	84.26
596.73	74.90
596.88	119.37
597.04	93.62
597.20	112.35
597.36	37.45
597.51	11.70
597.67	51.49
597.83	112.35
597.99	44.47
598.14	49.15
598.30	53.83
598.46	4.68
598.61	56.17
598.77	81.92
598.93	0.00
599.09	65.54
599.24	124.05
599.40	32.77
599.56	86.60
599.71	4.68
599.87	102.98
600.03	65.54
600.18	58.51
600.34	88.94
600.50	110.01
600.65	81.92
600.81	11.70
600.97	60.85
601.12	39.79
601.28	58.51
601.44	67.88
601.59	37.45
601.75	88.94
601.91	51.49
602.06	16.38
602.22	91.28
602.37	30.43
602.53	53.83
602.69	91.28
602.84	72.56
603.00	37.45
603.16	91.28
603.31	74.90
603.47	60.85
603.62	105.32
603.78	110.01
603.94	128.73
604.09	25.75
604.25	16.38
604.40	77.24
604.56	93.62
604.71	14.04
604.87	88.94
605.03	81.92
605.18	110.01
605.34	65.54
605.49	67.88
605.65	86.60
605.80	98.30
605.96	63.19
606.12	140.43
606.27	77.24
606.43	79.58
606.58	126.39
606.74	79.58
606.89	60.85
607.05	79.58
607.20	72.56
607.36	84.26
607.51	51.49
607.67	88.94
607.82	46.81
607.98	140.43
608.13	70.22
608.29	0.00
608.44	81.92
608.60	91.28
608.75	72.56
608.91	60.85
609.06	0.00
609.22	44.47
609.37	95.96
609.53	0.00
609.68	117.03
609.84	93.62
609.99	112.35
610.15	51.49
610.30	60.85
610.46	124.05
610.61	95.96
610.76	86.60
610.92	70.22
611.07	0.00
611.23	74.90
611.38	65.54
611.54	21.06
611.69	51.49
611.84	102.98
612.00	95.96
612.15	21.06
612.31	0.00
612.46	39.79
612.62	56.17
612.77	60.85
612.92	91.28
613.08	35.11
613.23	53.83
613.39	25.75
613.54	88.94
613.69	100.64
613.85	110.01
614.00	112.35
614.15	98.30
614.31	39.79
614.46	18.72
614.62	39.79
614.77	72.56
614.92	35.11
615.08	72.56
615.23	65.54
615.38	105.32
615.54	74.90
615.69	28.09
615.84	28.09
616.00	49.15
616.15	37.45
616.30	0.00
616.46	74.90
616.61	105.32
616.76	35.11
616.92	88.94
617.07	95.96
617.22	46.81
617.37	126.39
617.53	145.11
617.68	72.56
617.83	110.01
617.99	0.00
618.14	79.58
618.29	39.79
618.45	74.90
618.60	121.71
618.75	58.51
618.90	86.60
619.06	86.60
619.21	79.58
619.36	42.13
619.51	35.11
619.67	58.51
619.82	84.26
619.97	49.15
620.12	98.30
620.28	44.47
620.43	107.66
620.58	58.51
620.73	42.13
620.89	154.48
621.04	63.19
621.19	67.88
621.34	86.60
621.49	4.68
621.65	77.24
621.80	79.58
621.95	23.41
622.10	131.07
622.25	86.60
622.41	58.51
622.56	74.90
622.71	79.58
622.86	79.58
623.01	56.17
623.16	100.64
623.32	39.79
623.47	53.83
623.62	16.38
623.77	79.58
623.92	0.00
624.07	95.96
624.23	110.01
624.38	65.54
624.53	18.72
624.68	77.24
624.83	49.15
624.98	58.51
625.13	46.81
625.29	0.00
625.44	25.75
625.59	46.81
625.74	32.77
625.89	84.26
626.04	124.05
626.19	2.34
626.34	65.54
626.49	72.56
626.65	63.19
626.80	67.88
626.95	39.79
627.10	0.00
627.25	65.54
627.40	46.81
627.55	88.94
627.70	0.00
627.85	72.56
628.00	49.15
628.15	0.00
628.30	91.28
628.45	58.51
628.60	98.30
628.76	65.54
628.91	119.37
629.06	16.38
629.21	42.13
629.36	25.75
629.51	70.22
629.66	51.49
629.81	81.92
629.96	16.38
630.11	60.85
630.26	28.09
630.41	93.62
630.56	25.75
630.71	74.90
630.86	138.09
631.01	9.36
631.16	112.35
631.31	25.75
631.46	56.17
631.61	95.96
631.76	46.81
631.91	79.58
632.06	4.68
632.21	79.58
632.36	67.88
632.51	67.88
632.66	0.00
632.81	79.58
632.96	63.19
633.10	51.49
633.25	74.90
633.40	112.35
633.55	23.41
633.70	42.13
633.85	142.77
634.00	0.00
634.15	65.54
634.30	121.71
634.45	44.47
634.60	42.13
634.75	35.11
634.90	79.58
635.05	30.43
635.19	14.04
635.34	114.69
635.49	67.88
635.64	63.19
635.79	58.51
635.94	107.66
636.09	56.17
636.24	21.06
636.39	35.11
636.53	77.24
636.68	72.56
636.83	67.88
636.98	88.94
637.13	53.83
637.28	44.47
637.43	77.24
637.57	93.62
637.72	25.75
637.87	49.15
638.02	30.43
638.17	81.92
638.32	51.49
638.46	86.60
638.61	81.92
638.76	56.17
638.91	35.11
639.06	56.17
639.20	42.13
639.35	11.70
639.50	77.24
639.65	67.88
639.80	67.88
639.94	18.72
640.09	65.54
640.24	9.36
640.39	126.39
640.54	7.02
640.68	63.19
640.83	9.36
640.98	56.17
641.13	56.17
641.27	0.00
641.42	0.00
641.57	72.56
641.72	77.24
641.86	65.54
642.01	49.15
642.16	86.60
642.31	70.22
642.45	44.47
642.60	70.22
642.75	56.17
642.90	152.13
643.04	28.09
643.19	102.98
643.34	32.77
643.48	23.41
643.63	0.00
643.78	51.49
643.93	72.56
644.07	35.11
644.22	9.36
644.37	91.28
644.51	110.01
644.66	4.68
644.81	74.90
644.95	84.26
645.10	32.77
645.25	7.02
645.39	16.38
645.54	0.00
645.69	56.17
645.83	44.47
645.98	44.47
646.13	30.43
646.27	0.00
646.42	88.94
646.57	110.01
646.71	112.35
646.86	11.70
647.00	100.64
647.15	28.09
647.30	18.72
647.44	65.54
647.59	88.94
647.74	0.00
647.88	9.36
648.03	44.47
648.17	9.36
648.32	49.15
648.47	14.04
648.61	25.75
648.76	32.77
648.90	21.06
649.05	70.22
649.20	11.70
649.34	28.09
649.49	28.09
649.63	72.56
649.78	46.81
649.92	0.00
650.07	37.45
650.21	63.19
650.36	77.24
650.51	63.19
650.65	32.77
650.80	74.90
650.94	133.41
651.09	0.00
651.23	25.75
651.38	11.70
651.52	63.19
651.67	72.56
651.81	86.60
651.96	161.50
652.10	91.28
652.25	32.77
652.39	79.58
652.54	72.56
652.68	93.62
652.83	7.02
652.97	95.96
653.12	117.03
653.26	86.60
653.41	25.75
653.55	86.60
653.70	126.39
653.84	25.75
653.99	46.81
654.13	79.58
654.27	32.77
654.42	84.26
654.56	39.79
654.71	37.45
654.85	74.90
655.00	9.36
655.14	0.00
655.29	32.77
655.43	46.81
655.57	21.06
655.72	63.19
655.86	51.49
656.01	42.13
656.15	77.24
656.30	16.38
656.44	0.00
656.58	28.09
656.73	0.00
656.87	63.19
657.01	28.09
657.16	65.54
657.30	65.54
657.45	32.77
657.59	28.09
657.73	95.96
657.88	14.04
658.02	42.13
658.16	60.85
658.31	23.41
658.45	42.13
658.60	88.94
658.74	60.85
658.88	44.47
659.03	74.90
659.17	46.81
659.31	65.54
659.46	56.17
659.60	25.75
659.74	21.06
659.89	58.51
660.03	70.22
660.17	86.60
660.32	9.36
660.46	110.01
660.60	58.51
660.74	23.41
660.89	112.35
661.03	88.94
661.17	91.28
661.32	112.35
661.46	49.15
661.60	0.00
661.74	56.17
661.89	39.79
662.03	18.72
662.17	23.41
662.31	39.79
662.46	74.90
662.60	65.54
662.74	35.11
662.88	11.70
663.03	0.00
663.17	37.45
663.31	58.51
663.45	28.09
663.60	7.02
663.74	84.26
663.88	0.00
664.02	58.51
664.17	2.34
664.31	63.19
664.45	42.13
664.59	79.58
664.73	51.49
664.88	21.06
665.02	21.06
665.16	37.45
665.30	0.00
665.44	0.00
665.59	53.83
665.73	74.90
665.87	72.56
666.01	14.04
666.15	91.28
666.29	102.98
666.44	42.13
666.58	23.41
666.72	81.92
666.86	84.26
667.00	77.24
667.14	72.56
667.28	60.85
667.43	25.75
667.57	46.81
667.71	0.00
667.85	37.45
667.99	35.11
668.13	51.49
668.27	21.06
668.41	28.09
668.56	131.07
668.70	74.90
668.84	53.83
668.98	77.24
669.12	56.17
669.26	16.38
669.40	46.81
669.54	18.72
669.68	7.02
669.82	46.81
669.96	51.49
670.10	49.15
670.25	63.19
670.39	37.45
670.53	56.17
670.67	72.56
670.81	70.22
670.95	0.00
671.09	63.19
671.23	21.06
671.37	18.72
671.51	28.09
671.65	23.41
671.79	46.81
671.93	46.81
672.07	25.75
672.21	72.56
672.35	110.01
672.49	65.54
672.63	0.00
672.77	0.00
672.91	28.09
673.05	117.03
673.19	65.54
673.33	77.24
673.47	32.77
673.61	77.24
673.75	14.04
673.89	100.64
674.03	23.41
674.17	84.26
674.31	65.54
674.45	84.26
674.59	124.05
674.73	0.00
674.87	56.17
675.01	14.04
675.15	56.17
675.29	7.02
675.43	11.70
675.56	121.71
675.70	28.09
675.84	56.17
675.98	30.43
676.12	74.90
676.26	32.77
676.40	0.00
676.54	77.24
676.68	93.62
676.82	56.17
676.96	11.70
677.10	63.19
677.23	79.58
677.37	86.60
677.51	18.72
677.65	35.11
677.79	65.54
677.93	28.09
678.07	84.26
678.21	44.47
678.34	100.64
678.48	0.00
678.62	58.51
678.76	0.00
678.90	23.41
679.04	30.43
679.18	42.13
679.31	58.51
679.45	88.94
679.59	88.94
679.73	42.13
679.87	0.00
680.00	74.90
680.14	44.47
680.28	37.45
680.42	91.28
680.56	77.24
680.70	84.26
680.83	42.13
680.97	49.15
681.11	70.22
681.25	79.58
681.39	0.00
681.52	49.15
681.66	28.09
681.80	39.79
681.94	0.00
682.07	56.17
682.21	0.00
682.35	56.17
682.49	35.11
682.62	37.45
682.76	88.94
682.90	53.83
683.04	37.45
683.17	0.00
683.31	77.24
683.45	60.85
683.59	77.24
683.72	35.11
683.86	58.51
684.00	25.75
684.13	23.41
684.27	25.75
684.41	21.06
684.55	11.70
684.68	74.90
684.82	56.17
684.96	21.06
685.09	133.41
685.23	56.17
685.37	56.17
685.50	140.43
685.64	121.71
685.78	39.79
685.91	77.24
686.05	37.45
686.19	32.77
686.32	72.56
686.46	67.88
686.60	91.28
686.73	67.88
686.87	58.51
687.01	49.15
687.14	0.00
687.28	58.51
687.42	46.81
687.55	100.64
687.69	16.38
687.82	0.00
687.96	46.81
688.10	86.60
688.23	72.56
688.37	53.83
688.50	51.49
688.64	53.83
688.78	18.72
688.91	49.15
689.05	81.92
689.18	23.41
689.32	49.15
689.46	84.26
689.59	28.09
689.73	65.54
689.86	46.81
690.00	21.06
690.13	14.04
690.27	95.96
690.41	60.85
690.54	81.92
690.68	60.85
690.81	44.47
690.95	56.17
691.08	42.13
691.22	0.00
691.35	21.06
691.49	14.04
691.62	53.83
691.76	51.49
691.89	0.00
692.03	84.26
692.16	53.83
692.30	58.51
692.43	23.41
692.57	0.00
692.70	0.00
692.84	39.79
692.97	0.00
693.11	79.58
693.24	84.26
693.38	44.47
693.51	77.24
693.65	0.00
693.78	65.54
693.92	32.77
694.05	42.13
694.19	18.72
694.32	91.28
694.45	65.54
694.59	70.22
694.72	0.00
694.86	37.45
694.99	0.00
695.13	23.41
695.26	0.00
695.39	0.00
695.53	35.11
695.66	0.00
695.80	39.79
695.93	32.77
696.07	67.88
696.20	9.36
696.33	0.00
696.47	39.79
696.60	159.16
696.73	56.17
696.87	9.36
697.00	28.09
697.14	56.17
697.27	56.17
697.40	81.92
697.54	107.66
697.67	35.11
697.80	2.34
697.94	35.11
698.07	86.60
698.21	56.17
698.34	67.88
698.47	0.00
698.61	49.15
698.74	9.36
698.87	28.09
699.01	28.09
699.14	30.43
699.27	131.07
699.40	49.15
699.54	70.22
699.67	4.68
699.80	37.45
699.94	2.34
700.07	67.88
700.20	2.34
700.34	37.45
700.47	35.11
700.60	18.72
700.73	14.04
700.87	4.68
701.00	107.66
701.13	32.77
701.26	60.85
701.40	44.47
701.53	70.22
701.66	46.81
701.79	23.41
701.93	0.00
702.06	102.98
702.19	81.92
702.32	35.11
702.46	4.68
702.59	0.00
702.72	44.47
702.85	23.41
702.99	25.75
703.12	46.81
703.25	30.43
703.38	14.04
703.51	0.00
703.65	0.00
703.78	86.60
703.91	32.77
704.04	95.96
704.17	0.00
704.31	0.00
704.44	30.43
704.57	100.64
704.70	18.72
704.83	11.70
704.96	74.90
705.10	0.00
705.23	42.13
>>>>>End Processed Spectral Data<<<<<
