SpectraSuite Data File
++++++++++++++++++++++++++++++++++++
Date: Fri Oct 04 12:13:39 GMT-05:00 2013
User: price-jones
Dark Spectrum Present: No
Reference Spectrum Present: No
Number of Sampled Component Spectra: 1
Spectrometers: USB2+H05261
Integration Time (usec): 10000 (USB2+H05261)
Spectra Averaged: 1 (USB2+H05261)
Boxcar Smoothing: 0 (USB2+H05261)
Correct for Electrical Dark: No (USB2+H05261)
Strobe/Lamp Enabled: No (USB2+H05261)
Correct for Detector Non-linearity: No (USB2+H05261)
Correct for Stray Light: No (USB2+H05261)
Number of Pixels in Processed Spectrum: 2048
>>>>>Begin Processed Spectral Data<<<<<
365.73	0.00
365.92	0.00
366.12	0.00
366.32	0.00
366.52	0.00
366.72	0.00
366.91	0.00
367.11	0.00
367.31	0.00
367.51	0.00
367.70	0.00
367.90	0.00
368.10	0.00
368.30	0.00
368.49	0.00
368.69	0.00
368.89	0.00
369.09	0.00
369.28	0.00
369.48	0.00
369.68	0.00
369.87	0.00
370.07	0.00
370.27	0.00
370.47	0.00
370.66	0.00
370.86	4.68
371.06	0.00
371.25	0.00
371.45	9.36
371.65	0.00
371.84	0.00
372.04	7.02
372.24	14.04
372.44	0.00
372.63	0.00
372.83	7.02
373.03	0.00
373.22	44.47
373.42	95.96
373.62	60.85
373.81	2.34
374.01	39.79
374.21	21.06
374.40	0.00
374.60	32.77
374.79	0.00
374.99	58.51
375.19	28.09
375.38	0.00
375.58	56.17
375.78	21.06
375.97	95.96
376.17	74.90
376.37	7.02
376.56	53.83
376.76	7.02
376.95	95.96
377.15	9.36
377.35	14.04
377.54	39.79
377.74	11.70
377.93	35.11
378.13	21.06
378.33	11.70
378.52	0.00
378.72	25.75
378.91	44.47
379.11	30.43
379.31	0.00
379.50	28.09
379.70	42.13
379.89	0.00
380.09	4.68
380.28	16.38
380.48	60.85
380.68	79.58
380.87	0.00
381.07	81.92
381.26	44.47
381.46	0.00
381.65	0.00
381.85	23.41
382.04	9.36
382.24	14.04
382.43	0.00
382.63	0.00
382.83	14.04
383.02	32.77
383.22	18.72
383.41	25.75
383.61	25.75
383.80	16.38
384.00	88.94
384.19	21.06
384.39	0.00
384.58	25.75
384.78	0.00
384.97	0.00
385.17	30.43
385.36	42.13
385.56	0.00
385.75	0.00
385.95	128.73
386.14	18.72
386.34	0.00
386.53	23.41
386.72	60.85
386.92	35.11
387.11	0.00
387.31	2.34
387.50	81.92
387.70	18.72
387.89	0.00
388.09	0.00
388.28	18.72
388.48	0.00
388.67	63.19
388.86	18.72
389.06	37.45
389.25	0.00
389.45	105.32
389.64	14.04
389.84	37.45
390.03	58.51
390.22	91.28
390.42	51.49
390.61	0.00
390.81	46.81
391.00	35.11
391.19	0.00
391.39	2.34
391.58	21.06
391.78	16.38
391.97	91.28
392.16	74.90
392.36	72.56
392.55	30.43
392.75	4.68
392.94	7.02
393.13	16.38
393.33	51.49
393.52	25.75
393.71	32.77
393.91	105.32
394.10	65.54
394.29	23.41
394.49	7.02
394.68	35.11
394.88	0.00
395.07	0.00
395.26	0.00
395.46	0.00
395.65	65.54
395.84	44.47
396.04	0.00
396.23	18.72
396.42	0.00
396.62	32.77
396.81	7.02
397.00	42.13
397.19	7.02
397.39	30.43
397.58	88.94
397.77	0.00
397.97	0.00
398.16	105.32
398.35	56.17
398.55	0.00
398.74	9.36
398.93	28.09
399.12	0.00
399.32	32.77
399.51	16.38
399.70	53.83
399.90	74.90
400.09	0.00
400.28	65.54
400.47	58.51
400.67	86.60
400.86	35.11
401.05	14.04
401.24	25.75
401.44	44.47
401.63	63.19
401.82	0.00
402.01	51.49
402.21	74.90
402.40	0.00
402.59	44.47
402.78	0.00
402.97	28.09
403.17	23.41
403.36	16.38
403.55	72.56
403.74	86.60
403.93	39.79
404.13	4.68
404.32	0.00
404.51	46.81
404.70	21.06
404.89	0.00
405.09	18.72
405.28	28.09
405.47	14.04
405.66	39.79
405.85	58.51
406.05	0.00
406.24	0.00
406.43	18.72
406.62	42.13
406.81	39.79
407.00	107.66
407.20	53.83
407.39	0.00
407.58	0.00
407.77	39.79
407.96	42.13
408.15	0.00
408.34	35.11
408.54	30.43
408.73	28.09
408.92	23.41
409.11	53.83
409.30	51.49
409.49	35.11
409.68	32.77
409.87	23.41
410.07	72.56
410.26	32.77
410.45	67.88
410.64	4.68
410.83	98.30
411.02	32.77
411.21	28.09
411.40	23.41
411.59	0.00
411.78	21.06
411.98	74.90
412.17	30.43
412.36	14.04
412.55	42.13
412.74	56.17
412.93	21.06
413.12	0.00
413.31	4.68
413.50	30.43
413.69	0.00
413.88	46.81
414.07	0.00
414.26	70.22
414.45	39.79
414.64	2.34
414.83	58.51
415.02	9.36
415.22	30.43
415.41	0.00
415.60	42.13
415.79	35.11
415.98	42.13
416.17	37.45
416.36	23.41
416.55	23.41
416.74	42.13
416.93	21.06
417.12	51.49
417.31	0.00
417.50	39.79
417.69	28.09
417.88	65.54
418.07	37.45
418.26	79.58
418.45	42.13
418.64	7.02
418.83	39.79
419.02	0.00
419.21	0.00
419.39	39.79
419.58	37.45
419.77	0.00
419.96	11.70
420.15	100.64
420.34	25.75
420.53	51.49
420.72	0.00
420.91	77.24
421.10	49.15
421.29	44.47
421.48	2.34
421.67	100.64
421.86	81.92
422.05	88.94
422.24	56.17
422.43	4.68
422.61	56.17
422.80	93.62
422.99	46.81
423.18	58.51
423.37	121.71
423.56	63.19
423.75	35.11
423.94	110.01
424.13	9.36
424.32	46.81
424.50	63.19
424.69	46.81
424.88	7.02
425.07	37.45
425.26	0.00
425.45	18.72
425.64	42.13
425.83	21.06
426.01	79.58
426.20	21.06
426.39	0.00
426.58	74.90
426.77	42.13
426.96	102.98
427.15	88.94
427.33	65.54
427.52	67.88
427.71	49.15
427.90	37.45
428.09	30.43
428.28	2.34
428.46	0.00
428.65	2.34
428.84	28.09
429.03	60.85
429.22	21.06
429.40	32.77
429.59	51.49
429.78	44.47
429.97	0.00
430.16	142.77
430.34	51.49
430.53	9.36
430.72	0.00
430.91	128.73
431.10	23.41
431.28	152.13
431.47	117.03
431.66	14.04
431.85	65.54
432.03	63.19
432.22	56.17
432.41	21.06
432.60	46.81
432.79	11.70
432.97	44.47
433.16	95.96
433.35	23.41
433.54	4.68
433.72	35.11
433.91	77.24
434.10	44.47
434.28	60.85
434.47	67.88
434.66	105.32
434.85	0.00
435.03	44.47
435.22	0.00
435.41	9.36
435.59	0.00
435.78	56.17
435.97	23.41
436.16	88.94
436.34	0.00
436.53	18.72
436.72	63.19
436.90	63.19
437.09	16.38
437.28	14.04
437.46	70.22
437.65	112.35
437.84	11.70
438.02	7.02
438.21	2.34
438.40	35.11
438.58	77.24
438.77	0.00
438.96	18.72
439.14	49.15
439.33	23.41
439.52	128.73
439.70	77.24
439.89	95.96
440.08	2.34
440.26	18.72
440.45	70.22
440.63	100.64
440.82	60.85
441.01	9.36
441.19	93.62
441.38	0.00
441.57	93.62
441.75	56.17
441.94	46.81
442.12	18.72
442.31	77.24
442.50	56.17
442.68	18.72
442.87	46.81
443.05	21.06
443.24	105.32
443.43	70.22
443.61	35.11
443.80	0.00
443.98	44.47
444.17	0.00
444.35	60.85
444.54	9.36
444.73	42.13
444.91	35.11
445.10	77.24
445.28	39.79
445.47	102.98
445.65	119.37
445.84	28.09
446.02	42.13
446.21	56.17
446.39	86.60
446.58	0.00
446.77	84.26
446.95	7.02
447.14	14.04
447.32	93.62
447.51	79.58
447.69	23.41
447.88	49.15
448.06	84.26
448.25	28.09
448.43	65.54
448.62	37.45
448.80	100.64
448.99	30.43
449.17	32.77
449.36	70.22
449.54	44.47
449.73	60.85
449.91	74.90
450.10	0.00
450.28	0.00
450.46	74.90
450.65	86.60
450.83	28.09
451.02	44.47
451.20	58.51
451.39	112.35
451.57	39.79
451.76	51.49
451.94	58.51
452.13	44.47
452.31	49.15
452.49	124.05
452.68	0.00
452.86	7.02
453.05	0.00
453.23	42.13
453.42	16.38
453.60	32.77
453.78	53.83
453.97	23.41
454.15	39.79
454.34	0.00
454.52	46.81
454.70	28.09
454.89	60.85
455.07	39.79
455.26	25.75
455.44	63.19
455.62	128.73
455.81	28.09
455.99	65.54
456.17	7.02
456.36	58.51
456.54	32.77
456.73	0.00
456.91	142.77
457.09	91.28
457.28	65.54
457.46	0.00
457.64	25.75
457.83	58.51
458.01	72.56
458.19	107.66
458.38	107.66
458.56	124.05
458.74	25.75
458.93	0.00
459.11	79.58
459.29	4.68
459.48	107.66
459.66	4.68
459.84	39.79
460.03	46.81
460.21	42.13
460.39	133.41
460.57	65.54
460.76	107.66
460.94	58.51
461.12	46.81
461.31	51.49
461.49	112.35
461.67	44.47
461.85	56.17
462.04	4.68
462.22	79.58
462.40	60.85
462.59	46.81
462.77	72.56
462.95	81.92
463.13	0.00
463.32	0.00
463.50	0.00
463.68	77.24
463.86	4.68
464.05	37.45
464.23	56.17
464.41	32.77
464.59	25.75
464.78	56.17
464.96	49.15
465.14	70.22
465.32	49.15
465.50	21.06
465.69	72.56
465.87	88.94
466.05	77.24
466.23	23.41
466.41	25.75
466.60	44.47
466.78	18.72
466.96	53.83
467.14	79.58
467.32	30.43
467.51	81.92
467.69	88.94
467.87	28.09
468.05	0.00
468.23	119.37
468.41	56.17
468.60	70.22
468.78	114.69
468.96	23.41
469.14	81.92
469.32	44.47
469.50	88.94
469.69	112.35
469.87	72.56
470.05	88.94
470.23	93.62
470.41	72.56
470.59	42.13
470.77	84.26
470.95	25.75
471.14	9.36
471.32	53.83
471.50	98.30
471.68	135.75
471.86	56.17
472.04	51.49
472.22	147.45
472.40	49.15
472.58	46.81
472.77	28.09
472.95	7.02
473.13	81.92
473.31	72.56
473.49	53.83
473.67	58.51
473.85	35.11
474.03	42.13
474.21	74.90
474.39	72.56
474.57	60.85
474.75	51.49
474.93	67.88
475.12	16.38
475.30	18.72
475.48	42.13
475.66	14.04
475.84	4.68
476.02	2.34
476.20	21.06
476.38	9.36
476.56	67.88
476.74	81.92
476.92	84.26
477.10	86.60
477.28	114.69
477.46	70.22
477.64	37.45
477.82	67.88
478.00	100.64
478.18	58.51
478.36	79.58
478.54	81.92
478.72	100.64
478.90	0.00
479.08	0.00
479.26	124.05
479.44	42.13
479.62	107.66
479.80	14.04
479.98	16.38
480.16	70.22
480.34	37.45
480.52	58.51
480.70	0.00
480.88	30.43
481.06	74.90
481.24	72.56
481.41	58.51
481.59	72.56
481.77	117.03
481.95	93.62
482.13	4.68
482.31	53.83
482.49	102.98
482.67	119.37
482.85	39.79
483.03	51.49
483.21	102.98
483.39	21.06
483.57	60.85
483.74	67.88
483.92	128.73
484.10	72.56
484.28	42.13
484.46	79.58
484.64	91.28
484.82	28.09
485.00	124.05
485.18	74.90
485.35	67.88
485.53	63.19
485.71	81.92
485.89	49.15
486.07	51.49
486.25	58.51
486.43	60.85
486.61	67.88
486.78	60.85
486.96	0.00
487.14	58.51
487.32	70.22
487.50	42.13
487.68	0.00
487.85	28.09
488.03	44.47
488.21	79.58
488.39	138.09
488.57	65.54
488.75	28.09
488.92	81.92
489.10	42.13
489.28	86.60
489.46	95.96
489.64	4.68
489.81	37.45
489.99	84.26
490.17	74.90
490.35	88.94
490.53	91.28
490.70	159.16
490.88	100.64
491.06	46.81
491.24	98.30
491.41	100.64
491.59	63.19
491.77	91.28
491.95	102.98
492.13	145.11
492.30	49.15
492.48	58.51
492.66	107.66
492.84	79.58
493.01	67.88
493.19	91.28
493.37	88.94
493.54	58.51
493.72	56.17
493.90	88.94
494.08	79.58
494.25	81.92
494.43	112.35
494.61	65.54
494.79	79.58
494.96	93.62
495.14	65.54
495.32	72.56
495.49	117.03
495.67	121.71
495.85	93.62
496.02	124.05
496.20	74.90
496.38	173.20
496.55	77.24
496.73	79.58
496.91	44.47
497.09	170.86
497.26	9.36
497.44	88.94
497.62	84.26
497.79	51.49
497.97	46.81
498.14	86.60
498.32	58.51
498.50	81.92
498.67	58.51
498.85	74.90
499.03	60.85
499.20	100.64
499.38	112.35
499.56	72.56
499.73	77.24
499.91	168.52
500.08	74.90
500.26	70.22
500.44	46.81
500.61	74.90
500.79	60.85
500.97	72.56
501.14	84.26
501.32	98.30
501.49	102.98
501.67	21.06
501.84	102.98
502.02	95.96
502.20	105.32
502.37	39.79
502.55	105.32
502.72	72.56
502.90	121.71
503.07	35.11
503.25	49.15
503.43	93.62
503.60	93.62
503.78	93.62
503.95	117.03
504.13	67.88
504.30	70.22
504.48	126.39
504.65	140.43
504.83	79.58
505.01	91.28
505.18	16.38
505.36	67.88
505.53	81.92
505.71	9.36
505.88	56.17
506.06	72.56
506.23	93.62
506.41	42.13
506.58	124.05
506.76	63.19
506.93	44.47
507.11	46.81
507.28	110.01
507.46	100.64
507.63	67.88
507.81	60.85
507.98	100.64
508.16	21.06
508.33	65.54
508.50	133.41
508.68	91.28
508.85	119.37
509.03	95.96
509.20	95.96
509.38	30.43
509.55	28.09
509.73	105.32
509.90	79.58
510.08	46.81
510.25	114.69
510.42	72.56
510.60	98.30
510.77	79.58
510.95	100.64
511.12	191.92
511.30	44.47
511.47	86.60
511.64	112.35
511.82	114.69
511.99	21.06
512.17	70.22
512.34	72.56
512.51	60.85
512.69	30.43
512.86	142.77
513.04	110.01
513.21	60.85
513.38	0.00
513.56	81.92
513.73	23.41
513.90	74.90
514.08	35.11
514.25	44.47
514.43	74.90
514.60	58.51
514.77	11.70
514.95	79.58
515.12	77.24
515.29	117.03
515.47	86.60
515.64	70.22
515.81	138.09
515.99	72.56
516.16	98.30
516.33	58.51
516.51	163.84
516.68	88.94
516.85	51.49
517.03	95.96
517.20	72.56
517.37	100.64
517.54	131.07
517.72	60.85
517.89	44.47
518.06	79.58
518.24	105.32
518.41	23.41
518.58	142.77
518.75	2.34
518.93	49.15
519.10	112.35
519.27	74.90
519.45	0.00
519.62	67.88
519.79	42.13
519.96	77.24
520.14	84.26
520.31	70.22
520.48	86.60
520.65	119.37
520.83	128.73
521.00	70.22
521.17	67.88
521.34	74.90
521.52	95.96
521.69	102.98
521.86	25.75
522.03	30.43
522.20	30.43
522.38	67.88
522.55	16.38
522.72	53.83
522.89	100.64
523.07	145.11
523.24	65.54
523.41	0.00
523.58	74.90
523.75	131.07
523.92	105.32
524.10	177.88
524.27	42.13
524.44	37.45
524.61	35.11
524.78	79.58
524.96	86.60
525.13	37.45
525.30	145.11
525.47	77.24
525.64	35.11
525.81	128.73
525.98	53.83
526.16	84.26
526.33	86.60
526.50	56.17
526.67	88.94
526.84	65.54
527.01	65.54
527.18	126.39
527.36	23.41
527.53	39.79
527.70	147.45
527.87	84.26
528.04	51.49
528.21	30.43
528.38	98.30
528.55	11.70
528.72	79.58
528.89	121.71
529.07	182.56
529.24	95.96
529.41	63.19
529.58	49.15
529.75	107.66
529.92	98.30
530.09	72.56
530.26	208.31
530.43	46.81
530.60	140.43
530.77	196.60
530.94	93.62
531.11	63.19
531.28	39.79
531.46	98.30
531.63	49.15
531.80	102.98
531.97	121.71
532.14	124.05
532.31	119.37
532.48	133.41
532.65	102.98
532.82	72.56
532.99	117.03
533.16	74.90
533.33	51.49
533.50	105.32
533.67	0.00
533.84	100.64
534.01	133.41
534.18	110.01
534.35	79.58
534.52	9.36
534.69	79.58
534.86	152.13
535.03	126.39
535.20	86.60
535.37	124.05
535.54	140.43
535.71	58.51
535.88	142.77
536.05	91.28
536.22	107.66
536.38	46.81
536.55	95.96
536.72	117.03
536.89	65.54
537.06	42.13
537.23	124.05
537.40	110.01
537.57	21.06
537.74	60.85
537.91	46.81
538.08	77.24
538.25	72.56
538.42	58.51
538.59	67.88
538.75	56.17
538.92	98.30
539.09	51.49
539.26	114.69
539.43	93.62
539.60	126.39
539.77	105.32
539.94	58.51
540.11	86.60
540.28	147.45
540.44	70.22
540.61	63.19
540.78	138.09
540.95	60.85
541.12	35.11
541.29	133.41
541.46	84.26
541.62	42.13
541.79	60.85
541.96	70.22
542.13	25.75
542.30	93.62
542.47	32.77
542.63	37.45
542.80	105.32
542.97	135.75
543.14	105.32
543.31	117.03
543.48	28.09
543.64	95.96
543.81	133.41
543.98	81.92
544.15	79.58
544.32	95.96
544.48	124.05
544.65	79.58
544.82	100.64
544.99	39.79
545.16	79.58
545.32	102.98
545.49	121.71
545.66	119.37
545.83	0.00
546.00	154.48
546.16	173.20
546.33	138.09
546.50	100.64
546.67	53.83
546.83	98.30
547.00	126.39
547.17	121.71
547.34	105.32
547.50	128.73
547.67	25.75
547.84	152.13
548.00	102.98
548.17	60.85
548.34	126.39
548.51	37.45
548.67	128.73
548.84	60.85
549.01	37.45
549.18	65.54
549.34	65.54
549.51	81.92
549.68	114.69
549.84	63.19
550.01	56.17
550.18	126.39
550.34	63.19
550.51	72.56
550.68	9.36
550.84	86.60
551.01	100.64
551.18	84.26
551.34	0.00
551.51	110.01
551.68	70.22
551.84	81.92
552.01	121.71
552.18	88.94
552.34	79.58
552.51	44.47
552.68	37.45
552.84	72.56
553.01	91.28
553.18	124.05
553.34	124.05
553.51	37.45
553.67	65.54
553.84	131.07
554.01	70.22
554.17	65.54
554.34	91.28
554.51	142.77
554.67	114.69
554.84	93.62
555.00	133.41
555.17	105.32
555.33	110.01
555.50	37.45
555.67	124.05
555.83	23.41
556.00	100.64
556.16	105.32
556.33	39.79
556.50	107.66
556.66	79.58
556.83	79.58
556.99	28.09
557.16	100.64
557.32	53.83
557.49	49.15
557.65	84.26
557.82	51.49
557.98	112.35
558.15	42.13
558.32	58.51
558.48	60.85
558.65	86.60
558.81	93.62
558.98	86.60
559.14	46.81
559.31	70.22
559.47	32.77
559.64	65.54
559.80	60.85
559.97	105.32
560.13	63.19
560.30	81.92
560.46	0.00
560.63	152.13
560.79	53.83
560.96	35.11
561.12	0.00
561.29	67.88
561.45	53.83
561.61	149.79
561.78	149.79
561.94	95.96
562.11	35.11
562.27	79.58
562.44	86.60
562.60	98.30
562.77	114.69
562.93	112.35
563.10	63.19
563.26	86.60
563.42	79.58
563.59	72.56
563.75	70.22
563.92	51.49
564.08	56.17
564.24	86.60
564.41	81.92
564.57	67.88
564.74	67.88
564.90	140.43
565.07	0.00
565.23	117.03
565.39	88.94
565.56	46.81
565.72	53.83
565.88	79.58
566.05	72.56
566.21	81.92
566.38	119.37
566.54	65.54
566.70	91.28
566.87	81.92
567.03	91.28
567.19	18.72
567.36	72.56
567.52	107.66
567.68	2.34
567.85	77.24
568.01	65.54
568.17	72.56
568.34	145.11
568.50	145.11
568.66	166.18
568.83	93.62
568.99	79.58
569.15	56.17
569.32	37.45
569.48	119.37
569.64	88.94
569.81	142.77
569.97	0.00
570.13	163.84
570.30	51.49
570.46	98.30
570.62	18.72
570.78	173.20
570.95	53.83
571.11	110.01
571.27	95.96
571.43	67.88
571.60	79.58
571.76	107.66
571.92	86.60
572.09	0.00
572.25	11.70
572.41	93.62
572.57	91.28
572.74	32.77
572.90	114.69
573.06	88.94
573.22	79.58
573.38	86.60
573.55	121.71
573.71	79.58
573.87	44.47
574.03	67.88
574.20	145.11
574.36	98.30
574.52	84.26
574.68	67.88
574.84	42.13
575.01	44.47
575.17	110.01
575.33	0.00
575.49	65.54
575.65	100.64
575.82	44.47
575.98	86.60
576.14	49.15
576.30	95.96
576.46	126.39
576.62	70.22
576.79	119.37
576.95	86.60
577.11	74.90
577.27	119.37
577.43	84.26
577.59	14.04
577.75	37.45
577.92	23.41
578.08	79.58
578.24	100.64
578.40	28.09
578.56	58.51
578.72	72.56
578.88	53.83
579.04	81.92
579.21	42.13
579.37	91.28
579.53	98.30
579.69	42.13
579.85	72.56
580.01	107.66
580.17	51.49
580.33	58.51
580.49	21.06
580.65	56.17
580.82	117.03
580.98	53.83
581.14	18.72
581.30	79.58
581.46	63.19
581.62	9.36
581.78	121.71
581.94	135.75
582.10	88.94
582.26	67.88
582.42	14.04
582.58	46.81
582.74	112.35
582.90	161.50
583.06	35.11
583.22	124.05
583.38	112.35
583.54	46.81
583.70	46.81
583.86	77.24
584.02	105.32
584.18	51.49
584.34	39.79
584.50	74.90
584.66	107.66
584.82	28.09
584.98	98.30
585.14	30.43
585.30	21.06
585.46	67.88
585.62	112.35
585.78	65.54
585.94	79.58
586.10	84.26
586.26	9.36
586.42	93.62
586.58	65.54
586.74	2.34
586.90	100.64
587.06	105.32
587.22	32.77
587.38	42.13
587.54	98.30
587.70	128.73
587.86	60.85
588.02	25.75
588.18	84.26
588.34	95.96
588.49	107.66
588.65	84.26
588.81	44.47
588.97	98.30
589.13	53.83
589.29	35.11
589.45	49.15
589.61	35.11
589.77	60.85
589.93	37.45
590.08	42.13
590.24	114.69
590.40	9.36
590.56	81.92
590.72	28.09
590.88	44.47
591.04	63.19
591.20	102.98
591.35	46.81
591.51	95.96
591.67	84.26
591.83	46.81
591.99	72.56
592.15	28.09
592.31	77.24
592.46	95.96
592.62	51.49
592.78	37.45
592.94	63.19
593.10	0.00
593.26	70.22
593.41	126.39
593.57	60.85
593.73	30.43
593.89	37.45
594.05	72.56
594.20	117.03
594.36	51.49
594.52	105.32
594.68	138.09
594.84	149.79
594.99	81.92
595.15	4.68
595.31	67.88
595.47	84.26
595.62	81.92
595.78	98.30
595.94	142.77
596.10	117.03
596.25	88.94
596.41	28.09
596.57	77.24
596.73	84.26
596.88	177.88
597.04	46.81
597.20	124.05
597.36	72.56
597.51	67.88
597.67	88.94
597.83	7.02
597.99	70.22
598.14	110.01
598.30	49.15
598.46	166.18
598.61	44.47
598.77	72.56
598.93	65.54
599.09	121.71
599.24	25.75
599.40	49.15
599.56	16.38
599.71	58.51
599.87	30.43
600.03	74.90
600.18	67.88
600.34	70.22
600.50	58.51
600.65	114.69
600.81	49.15
600.97	112.35
601.12	100.64
601.28	42.13
601.44	51.49
601.59	0.00
601.75	98.30
601.91	60.85
602.06	0.00
602.22	102.98
602.37	95.96
602.53	49.15
602.69	91.28
602.84	28.09
603.00	0.00
603.16	49.15
603.31	128.73
603.47	102.98
603.62	84.26
603.78	42.13
603.94	63.19
604.09	77.24
604.25	175.54
604.40	79.58
604.56	95.96
604.71	37.45
604.87	35.11
605.03	79.58
605.18	126.39
605.34	86.60
605.49	126.39
605.65	105.32
605.80	60.85
605.96	11.70
606.12	65.54
606.27	46.81
606.43	95.96
606.58	114.69
606.74	46.81
606.89	42.13
607.05	105.32
607.20	102.98
607.36	81.92
607.51	65.54
607.67	49.15
607.82	21.06
607.98	81.92
608.13	42.13
608.29	98.30
608.44	28.09
608.60	11.70
608.75	86.60
608.91	91.28
609.06	63.19
609.22	124.05
609.37	72.56
609.53	11.70
609.68	39.79
609.84	56.17
609.99	14.04
610.15	107.66
610.30	121.71
610.46	51.49
610.61	35.11
610.76	126.39
610.92	67.88
611.07	86.60
611.23	100.64
611.38	77.24
611.54	44.47
611.69	102.98
611.84	56.17
612.00	86.60
612.15	28.09
612.31	110.01
612.46	67.88
612.62	37.45
612.77	39.79
612.92	114.69
613.08	60.85
613.23	70.22
613.39	18.72
613.54	67.88
613.69	44.47
613.85	77.24
614.00	32.77
614.15	114.69
614.31	65.54
614.46	18.72
614.62	95.96
614.77	93.62
614.92	11.70
615.08	4.68
615.23	37.45
615.38	39.79
615.54	72.56
615.69	128.73
615.84	23.41
616.00	7.02
616.15	65.54
616.30	16.38
616.46	7.02
616.61	39.79
616.76	81.92
616.92	114.69
617.07	107.66
617.22	42.13
617.37	14.04
617.53	102.98
617.68	51.49
617.83	53.83
617.99	44.47
618.14	77.24
618.29	56.17
618.45	21.06
618.60	25.75
618.75	56.17
618.90	49.15
619.06	25.75
619.21	86.60
619.36	49.15
619.51	95.96
619.67	79.58
619.82	37.45
619.97	67.88
620.12	37.45
620.28	163.84
620.43	79.58
620.58	14.04
620.73	65.54
620.89	18.72
621.04	39.79
621.19	105.32
621.34	0.00
621.49	53.83
621.65	30.43
621.80	16.38
621.95	23.41
622.10	91.28
622.25	110.01
622.41	49.15
622.56	72.56
622.71	65.54
622.86	98.30
623.01	0.00
623.16	95.96
623.32	37.45
623.47	14.04
623.62	72.56
623.77	51.49
623.92	49.15
624.07	60.85
624.23	32.77
624.38	98.30
624.53	138.09
624.68	49.15
624.83	32.77
624.98	42.13
625.13	46.81
625.29	67.88
625.44	72.56
625.59	42.13
625.74	58.51
625.89	67.88
626.04	42.13
626.19	46.81
626.34	14.04
626.49	74.90
626.65	42.13
626.80	74.90
626.95	49.15
627.10	91.28
627.25	23.41
627.40	53.83
627.55	53.83
627.70	44.47
627.85	46.81
628.00	28.09
628.15	37.45
628.30	44.47
628.45	0.00
628.60	65.54
628.76	32.77
628.91	39.79
629.06	44.47
629.21	16.38
629.36	9.36
629.51	23.41
629.66	53.83
629.81	156.82
629.96	63.19
630.11	18.72
630.26	88.94
630.41	65.54
630.56	67.88
630.71	42.13
630.86	21.06
631.01	0.00
631.16	49.15
631.31	60.85
631.46	58.51
631.61	9.36
631.76	95.96
631.91	46.81
632.06	11.70
632.21	49.15
632.36	60.85
632.51	88.94
632.66	81.92
632.81	53.83
632.96	131.07
633.10	84.26
633.25	60.85
633.40	32.77
633.55	25.75
633.70	0.00
633.85	2.34
634.00	11.70
634.15	25.75
634.30	53.83
634.45	107.66
634.60	11.70
634.75	46.81
634.90	77.24
635.05	72.56
635.19	105.32
635.34	67.88
635.49	39.79
635.64	77.24
635.79	0.00
635.94	72.56
636.09	65.54
636.24	0.00
636.39	114.69
636.53	100.64
636.68	51.49
636.83	25.75
636.98	58.51
637.13	39.79
637.28	98.30
637.43	39.79
637.57	88.94
637.72	39.79
637.87	79.58
638.02	53.83
638.17	16.38
638.32	67.88
638.46	53.83
638.61	142.77
638.76	58.51
638.91	37.45
639.06	95.96
639.20	11.70
639.35	63.19
639.50	58.51
639.65	0.00
639.80	21.06
639.94	124.05
640.09	65.54
640.24	93.62
640.39	72.56
640.54	25.75
640.68	0.00
640.83	21.06
640.98	39.79
641.13	107.66
641.27	74.90
641.42	32.77
641.57	28.09
641.72	7.02
641.86	105.32
642.01	121.71
642.16	102.98
642.31	18.72
642.45	72.56
642.60	46.81
642.75	44.47
642.90	86.60
643.04	117.03
643.19	39.79
643.34	44.47
643.48	58.51
643.63	51.49
643.78	79.58
643.93	98.30
644.07	72.56
644.22	67.88
644.37	65.54
644.51	65.54
644.66	72.56
644.81	86.60
644.95	2.34
645.10	84.26
645.25	91.28
645.39	0.00
645.54	44.47
645.69	81.92
645.83	63.19
645.98	81.92
646.13	119.37
646.27	79.58
646.42	77.24
646.57	46.81
646.71	21.06
646.86	46.81
647.00	79.58
647.15	72.56
647.30	30.43
647.44	86.60
647.59	16.38
647.74	0.00
647.88	79.58
648.03	72.56
648.17	21.06
648.32	84.26
648.47	23.41
648.61	2.34
648.76	84.26
648.90	107.66
649.05	25.75
649.20	91.28
649.34	32.77
649.49	81.92
649.63	131.07
649.78	102.98
649.92	84.26
650.07	81.92
650.21	32.77
650.36	44.47
650.51	0.00
650.65	74.90
650.80	46.81
650.94	30.43
651.09	81.92
651.23	58.51
651.38	42.13
651.52	28.09
651.67	44.47
651.81	46.81
651.96	18.72
652.10	65.54
652.25	110.01
652.39	42.13
652.54	77.24
652.68	93.62
652.83	39.79
652.97	105.32
653.12	18.72
653.26	7.02
653.41	77.24
653.55	0.00
653.70	105.32
653.84	91.28
653.99	18.72
654.13	91.28
654.27	102.98
654.42	49.15
654.56	98.30
654.71	49.15
654.85	56.17
655.00	70.22
655.14	23.41
655.29	7.02
655.43	72.56
655.57	0.00
655.72	30.43
655.86	42.13
656.01	86.60
656.15	37.45
656.30	65.54
656.44	77.24
656.58	70.22
656.73	53.83
656.87	53.83
657.01	37.45
657.16	70.22
657.30	88.94
657.45	56.17
657.59	2.34
657.73	9.36
657.88	9.36
658.02	79.58
658.16	42.13
658.31	7.02
658.45	32.77
658.60	77.24
658.74	0.00
658.88	51.49
659.03	46.81
659.17	84.26
659.31	4.68
659.46	63.19
659.60	25.75
659.74	86.60
659.89	46.81
660.03	25.75
660.17	39.79
660.32	7.02
660.46	58.51
660.60	21.06
660.74	86.60
660.89	44.47
661.03	77.24
661.17	4.68
661.32	70.22
661.46	124.05
661.60	0.00
661.74	65.54
661.89	67.88
662.03	44.47
662.17	91.28
662.31	79.58
662.46	14.04
662.60	0.00
662.74	21.06
662.88	65.54
663.03	53.83
663.17	0.00
663.31	44.47
663.45	67.88
663.60	65.54
663.74	70.22
663.88	0.00
664.02	51.49
664.17	53.83
664.31	25.75
664.45	74.90
664.59	4.68
664.73	79.58
664.88	65.54
665.02	98.30
665.16	60.85
665.30	23.41
665.44	67.88
665.59	67.88
665.73	18.72
665.87	63.19
666.01	84.26
666.15	95.96
666.29	0.00
666.44	74.90
666.58	0.00
666.72	81.92
666.86	100.64
667.00	117.03
667.14	65.54
667.28	49.15
667.43	86.60
667.57	37.45
667.71	79.58
667.85	44.47
667.99	74.90
668.13	0.00
668.27	4.68
668.41	28.09
668.56	42.13
668.70	84.26
668.84	14.04
668.98	86.60
669.12	67.88
669.26	32.77
669.40	42.13
669.54	60.85
669.68	25.75
669.82	142.77
669.96	67.88
670.10	110.01
670.25	53.83
670.39	72.56
670.53	93.62
670.67	49.15
670.81	11.70
670.95	14.04
671.09	0.00
671.23	28.09
671.37	117.03
671.51	56.17
671.65	35.11
671.79	18.72
671.93	44.47
672.07	60.85
672.21	32.77
672.35	37.45
672.49	39.79
672.63	0.00
672.77	77.24
672.91	88.94
673.05	119.37
673.19	74.90
673.33	2.34
673.47	35.11
673.61	16.38
673.75	0.00
673.89	72.56
674.03	42.13
674.17	0.00
674.31	9.36
674.45	2.34
674.59	37.45
674.73	91.28
674.87	28.09
675.01	91.28
675.15	74.90
675.29	58.51
675.43	77.24
675.56	35.11
675.70	84.26
675.84	25.75
675.98	0.00
676.12	93.62
676.26	124.05
676.40	16.38
676.54	60.85
676.68	46.81
676.82	63.19
676.96	42.13
677.10	25.75
677.23	84.26
677.37	53.83
677.51	46.81
677.65	65.54
677.79	35.11
677.93	39.79
678.07	4.68
678.21	74.90
678.34	88.94
678.48	46.81
678.62	28.09
678.76	56.17
678.90	51.49
679.04	86.60
679.18	51.49
679.31	0.00
679.45	88.94
679.59	79.58
679.73	95.96
679.87	72.56
680.00	98.30
680.14	86.60
680.28	60.85
680.42	42.13
680.56	58.51
680.70	35.11
680.83	79.58
680.97	154.48
681.11	46.81
681.25	86.60
681.39	39.79
681.52	30.43
681.66	30.43
681.80	81.92
681.94	79.58
682.07	30.43
682.21	0.00
682.35	95.96
682.49	100.64
682.62	74.90
682.76	63.19
682.90	81.92
683.04	0.00
683.17	32.77
683.31	93.62
683.45	84.26
683.59	21.06
683.72	18.72
683.86	77.24
684.00	46.81
684.13	23.41
684.27	58.51
684.41	53.83
684.55	44.47
684.68	32.77
684.82	23.41
684.96	53.83
685.09	28.09
685.23	32.77
685.37	112.35
685.50	70.22
685.64	63.19
685.78	0.00
685.91	86.60
686.05	51.49
686.19	7.02
686.32	63.19
686.46	70.22
686.60	56.17
686.73	74.90
686.87	39.79
687.01	0.00
687.14	25.75
687.28	63.19
687.42	21.06
687.55	51.49
687.69	79.58
687.82	35.11
687.96	102.98
688.10	107.66
688.23	51.49
688.37	0.00
688.50	42.13
688.64	56.17
688.78	100.64
688.91	44.47
689.05	46.81
689.18	0.00
689.32	53.83
689.46	2.34
689.59	56.17
689.73	37.45
689.86	0.00
690.00	0.00
690.13	35.11
690.27	0.00
690.41	28.09
690.54	77.24
690.68	60.85
690.81	0.00
690.95	72.56
691.08	0.00
691.22	0.00
691.35	51.49
691.49	56.17
691.62	63.19
691.76	9.36
691.89	25.75
692.03	51.49
692.16	49.15
692.30	25.75
692.43	0.00
692.57	37.45
692.70	112.35
692.84	16.38
692.97	21.06
693.11	35.11
693.24	60.85
693.38	32.77
693.51	0.00
693.65	77.24
693.78	79.58
693.92	28.09
694.05	16.38
694.19	16.38
694.32	4.68
694.45	0.00
694.59	35.11
694.72	0.00
694.86	9.36
694.99	49.15
695.13	53.83
695.26	18.72
695.39	91.28
695.53	0.00
695.66	35.11
695.80	65.54
695.93	35.11
696.07	84.26
696.20	46.81
696.33	7.02
696.47	112.35
696.60	53.83
696.73	0.00
696.87	84.26
697.00	0.00
697.14	2.34
697.27	42.13
697.40	37.45
697.54	25.75
697.67	0.00
697.80	44.47
697.94	58.51
698.07	18.72
698.21	72.56
698.34	14.04
698.47	37.45
698.61	46.81
698.74	0.00
698.87	46.81
699.01	74.90
699.14	0.00
699.27	46.81
699.40	44.47
699.54	35.11
699.67	16.38
699.80	74.90
699.94	39.79
700.07	0.00
700.20	72.56
700.34	23.41
700.47	0.00
700.60	0.00
700.73	60.85
700.87	9.36
701.00	53.83
701.13	44.47
701.26	60.85
701.40	0.00
701.53	37.45
701.66	72.56
701.79	46.81
701.93	18.72
702.06	7.02
702.19	0.00
702.32	53.83
702.46	102.98
702.59	46.81
702.72	0.00
702.85	91.28
702.99	4.68
703.12	53.83
703.25	4.68
703.38	0.00
703.51	7.02
703.65	11.70
703.78	63.19
703.91	63.19
704.04	72.56
704.17	0.00
704.31	37.45
704.44	88.94
704.57	9.36
704.70	0.00
704.83	28.09
704.96	35.11
705.10	46.81
705.23	42.13
>>>>>End Processed Spectral Data<<<<<
