SpectraSuite Data File
++++++++++++++++++++++++++++++++++++
Date: Fri Oct 04 12:13:36 GMT-05:00 2013
User: price-jones
Dark Spectrum Present: No
Reference Spectrum Present: No
Number of Sampled Component Spectra: 1
Spectrometers: USB2+H05261
Integration Time (usec): 10000 (USB2+H05261)
Spectra Averaged: 1 (USB2+H05261)
Boxcar Smoothing: 0 (USB2+H05261)
Correct for Electrical Dark: No (USB2+H05261)
Strobe/Lamp Enabled: No (USB2+H05261)
Correct for Detector Non-linearity: No (USB2+H05261)
Correct for Stray Light: No (USB2+H05261)
Number of Pixels in Processed Spectrum: 2048
>>>>>Begin Processed Spectral Data<<<<<
365.73	0.00
365.92	0.00
366.12	0.00
366.32	0.00
366.52	0.00
366.72	0.00
366.91	0.00
367.11	0.00
367.31	0.00
367.51	0.00
367.70	0.00
367.90	0.00
368.10	0.00
368.30	0.00
368.49	0.00
368.69	0.00
368.89	0.00
369.09	0.00
369.28	0.00
369.48	0.00
369.68	0.00
369.87	0.00
370.07	0.00
370.27	0.00
370.47	0.00
370.66	0.00
370.86	0.00
371.06	0.00
371.25	2.34
371.45	0.00
371.65	9.36
371.84	0.00
372.04	0.00
372.24	4.68
372.44	23.41
372.63	0.00
372.83	4.68
373.03	56.17
373.22	46.81
373.42	0.00
373.62	46.81
373.81	37.45
374.01	44.47
374.21	72.56
374.40	28.09
374.60	0.00
374.79	0.00
374.99	14.04
375.19	0.00
375.38	74.90
375.58	0.00
375.78	51.49
375.97	51.49
376.17	14.04
376.37	70.22
376.56	25.75
376.76	0.00
376.95	53.83
377.15	4.68
377.35	11.70
377.54	0.00
377.74	11.70
377.93	0.00
378.13	0.00
378.33	0.00
378.52	39.79
378.72	70.22
378.91	37.45
379.11	16.38
379.31	11.70
379.50	30.43
379.70	0.00
379.89	18.72
380.09	53.83
380.28	7.02
380.48	16.38
380.68	37.45
380.87	37.45
381.07	21.06
381.26	11.70
381.46	0.00
381.65	37.45
381.85	0.00
382.04	0.00
382.24	58.51
382.43	0.00
382.63	58.51
382.83	0.00
383.02	14.04
383.22	49.15
383.41	0.00
383.61	0.00
383.80	21.06
384.00	0.00
384.19	35.11
384.39	0.00
384.58	0.00
384.78	46.81
384.97	0.00
385.17	0.00
385.36	32.77
385.56	93.62
385.75	51.49
385.95	0.00
386.14	79.58
386.34	18.72
386.53	46.81
386.72	7.02
386.92	16.38
387.11	37.45
387.31	32.77
387.50	84.26
387.70	21.06
387.89	0.00
388.09	53.83
388.28	0.00
388.48	0.00
388.67	51.49
388.86	28.09
389.06	16.38
389.25	51.49
389.45	39.79
389.64	9.36
389.84	0.00
390.03	65.54
390.22	0.00
390.42	39.79
390.61	65.54
390.81	100.64
391.00	81.92
391.19	42.13
391.39	72.56
391.58	21.06
391.78	0.00
391.97	37.45
392.16	35.11
392.36	60.85
392.55	135.75
392.75	0.00
392.94	30.43
393.13	49.15
393.33	28.09
393.52	0.00
393.71	9.36
393.91	0.00
394.10	2.34
394.29	91.28
394.49	14.04
394.68	18.72
394.88	14.04
395.07	0.00
395.26	16.38
395.46	0.00
395.65	30.43
395.84	114.69
396.04	2.34
396.23	51.49
396.42	44.47
396.62	74.90
396.81	37.45
397.00	0.00
397.19	0.00
397.39	14.04
397.58	49.15
397.77	56.17
397.97	74.90
398.16	84.26
398.35	0.00
398.55	7.02
398.74	86.60
398.93	9.36
399.12	46.81
399.32	0.00
399.51	46.81
399.70	28.09
399.90	46.81
400.09	4.68
400.28	11.70
400.47	65.54
400.67	4.68
400.86	25.75
401.05	0.00
401.24	91.28
401.44	81.92
401.63	35.11
401.82	49.15
402.01	35.11
402.21	30.43
402.40	32.77
402.59	35.11
402.78	0.00
402.97	77.24
403.17	0.00
403.36	0.00
403.55	0.00
403.74	86.60
403.93	9.36
404.13	0.00
404.32	81.92
404.51	46.81
404.70	81.92
404.89	0.00
405.09	0.00
405.28	0.00
405.47	100.64
405.66	63.19
405.85	25.75
406.05	60.85
406.24	56.17
406.43	0.00
406.62	35.11
406.81	65.54
407.00	37.45
407.20	39.79
407.39	77.24
407.58	9.36
407.77	60.85
407.96	98.30
408.15	95.96
408.34	35.11
408.54	37.45
408.73	63.19
408.92	0.00
409.11	16.38
409.30	51.49
409.49	25.75
409.68	93.62
409.87	58.51
410.07	23.41
410.26	67.88
410.45	11.70
410.64	0.00
410.83	25.75
411.02	60.85
411.21	44.47
411.40	70.22
411.59	49.15
411.78	63.19
411.98	79.58
412.17	98.30
412.36	37.45
412.55	23.41
412.74	124.05
412.93	121.71
413.12	88.94
413.31	67.88
413.50	65.54
413.69	58.51
413.88	9.36
414.07	0.00
414.26	37.45
414.45	67.88
414.64	32.77
414.83	39.79
415.02	81.92
415.22	2.34
415.41	18.72
415.60	91.28
415.79	9.36
415.98	56.17
416.17	84.26
416.36	0.00
416.55	70.22
416.74	0.00
416.93	46.81
417.12	32.77
417.31	51.49
417.50	79.58
417.69	84.26
417.88	53.83
418.07	21.06
418.26	100.64
418.45	37.45
418.64	88.94
418.83	7.02
419.02	70.22
419.21	21.06
419.39	28.09
419.58	11.70
419.77	77.24
419.96	0.00
420.15	53.83
420.34	126.39
420.53	74.90
420.72	44.47
420.91	58.51
421.10	7.02
421.29	42.13
421.48	49.15
421.67	14.04
421.86	0.00
422.05	28.09
422.24	53.83
422.43	98.30
422.61	95.96
422.80	44.47
422.99	0.00
423.18	39.79
423.37	67.88
423.56	133.41
423.75	79.58
423.94	4.68
424.13	4.68
424.32	14.04
424.50	39.79
424.69	51.49
424.88	28.09
425.07	0.00
425.26	65.54
425.45	0.00
425.64	21.06
425.83	2.34
426.01	4.68
426.20	32.77
426.39	67.88
426.58	32.77
426.77	84.26
426.96	44.47
427.15	79.58
427.33	28.09
427.52	11.70
427.71	0.00
427.90	117.03
428.09	67.88
428.28	77.24
428.46	110.01
428.65	81.92
428.84	58.51
429.03	67.88
429.22	14.04
429.40	60.85
429.59	0.00
429.78	32.77
429.97	81.92
430.16	77.24
430.34	53.83
430.53	35.11
430.72	112.35
430.91	35.11
431.10	49.15
431.28	42.13
431.47	25.75
431.66	88.94
431.85	21.06
432.03	21.06
432.22	42.13
432.41	46.81
432.60	42.13
432.79	23.41
432.97	28.09
433.16	70.22
433.35	14.04
433.54	39.79
433.72	58.51
433.91	81.92
434.10	14.04
434.28	65.54
434.47	65.54
434.66	30.43
434.85	39.79
435.03	93.62
435.22	35.11
435.41	70.22
435.59	37.45
435.78	11.70
435.97	39.79
436.16	77.24
436.34	49.15
436.53	0.00
436.72	74.90
436.90	63.19
437.09	9.36
437.28	28.09
437.46	0.00
437.65	65.54
437.84	63.19
438.02	95.96
438.21	21.06
438.40	77.24
438.58	0.00
438.77	44.47
438.96	56.17
439.14	53.83
439.33	65.54
439.52	0.00
439.70	11.70
439.89	28.09
440.08	18.72
440.26	53.83
440.45	28.09
440.63	117.03
440.82	49.15
441.01	46.81
441.19	63.19
441.38	23.41
441.57	2.34
441.75	28.09
441.94	32.77
442.12	63.19
442.31	0.00
442.50	0.00
442.68	23.41
442.87	102.98
443.05	74.90
443.24	95.96
443.43	0.00
443.61	70.22
443.80	42.13
443.98	35.11
444.17	56.17
444.35	93.62
444.54	11.70
444.73	81.92
444.91	58.51
445.10	49.15
445.28	35.11
445.47	0.00
445.65	0.00
445.84	28.09
446.02	86.60
446.21	51.49
446.39	35.11
446.58	110.01
446.77	65.54
446.95	0.00
447.14	21.06
447.32	81.92
447.51	42.13
447.69	18.72
447.88	37.45
448.06	110.01
448.25	102.98
448.43	107.66
448.62	72.56
448.80	30.43
448.99	63.19
449.17	0.00
449.36	0.00
449.54	0.00
449.73	49.15
449.91	100.64
450.10	23.41
450.28	53.83
450.46	53.83
450.65	18.72
450.83	65.54
451.02	49.15
451.20	30.43
451.39	53.83
451.57	56.17
451.76	119.37
451.94	53.83
452.13	84.26
452.31	2.34
452.49	39.79
452.68	7.02
452.86	25.75
453.05	7.02
453.23	4.68
453.42	79.58
453.60	35.11
453.78	79.58
453.97	0.00
454.15	37.45
454.34	32.77
454.52	51.49
454.70	0.00
454.89	32.77
455.07	49.15
455.26	81.92
455.44	39.79
455.62	44.47
455.81	126.39
455.99	105.32
456.17	0.00
456.36	0.00
456.54	14.04
456.73	126.39
456.91	49.15
457.09	70.22
457.28	88.94
457.46	102.98
457.64	133.41
457.83	37.45
458.01	0.00
458.19	23.41
458.38	84.26
458.56	53.83
458.74	51.49
458.93	18.72
459.11	35.11
459.29	98.30
459.48	2.34
459.66	70.22
459.84	49.15
460.03	70.22
460.21	37.45
460.39	100.64
460.57	28.09
460.76	32.77
460.94	112.35
461.12	72.56
461.31	35.11
461.49	0.00
461.67	0.00
461.85	63.19
462.04	138.09
462.22	91.28
462.40	88.94
462.59	72.56
462.77	53.83
462.95	49.15
463.13	79.58
463.32	72.56
463.50	51.49
463.68	56.17
463.86	28.09
464.05	79.58
464.23	140.43
464.41	18.72
464.59	42.13
464.78	49.15
464.96	30.43
465.14	88.94
465.32	14.04
465.50	51.49
465.69	124.05
465.87	30.43
466.05	42.13
466.23	81.92
466.41	0.00
466.60	67.88
466.78	56.17
466.96	105.32
467.14	138.09
467.32	46.81
467.51	56.17
467.69	49.15
467.87	0.00
468.05	56.17
468.23	84.26
468.41	98.30
468.60	32.77
468.78	16.38
468.96	74.90
469.14	93.62
469.32	67.88
469.50	11.70
469.69	51.49
469.87	79.58
470.05	25.75
470.23	112.35
470.41	107.66
470.59	53.83
470.77	79.58
470.95	46.81
471.14	114.69
471.32	51.49
471.50	100.64
471.68	25.75
471.86	56.17
472.04	131.07
472.22	74.90
472.40	21.06
472.58	35.11
472.77	65.54
472.95	63.19
473.13	63.19
473.31	37.45
473.49	60.85
473.67	53.83
473.85	70.22
474.03	100.64
474.21	84.26
474.39	110.01
474.57	110.01
474.75	93.62
474.93	60.85
475.12	44.47
475.30	74.90
475.48	63.19
475.66	37.45
475.84	39.79
476.02	51.49
476.20	42.13
476.38	53.83
476.56	63.19
476.74	49.15
476.92	44.47
477.10	93.62
477.28	72.56
477.46	79.58
477.64	112.35
477.82	60.85
478.00	58.51
478.18	9.36
478.36	93.62
478.54	107.66
478.72	11.70
478.90	63.19
479.08	65.54
479.26	72.56
479.44	58.51
479.62	7.02
479.80	30.43
479.98	121.71
480.16	51.49
480.34	25.75
480.52	51.49
480.70	56.17
480.88	16.38
481.06	53.83
481.24	84.26
481.41	16.38
481.59	35.11
481.77	60.85
481.95	72.56
482.13	126.39
482.31	2.34
482.49	93.62
482.67	0.00
482.85	0.00
483.03	107.66
483.21	105.32
483.39	51.49
483.57	0.00
483.74	67.88
483.92	44.47
484.10	46.81
484.28	74.90
484.46	14.04
484.64	39.79
484.82	77.24
485.00	60.85
485.18	23.41
485.35	77.24
485.53	11.70
485.71	77.24
485.89	11.70
486.07	14.04
486.25	88.94
486.43	70.22
486.61	0.00
486.78	81.92
486.96	51.49
487.14	95.96
487.32	91.28
487.50	91.28
487.68	72.56
487.85	30.43
488.03	107.66
488.21	56.17
488.39	37.45
488.57	44.47
488.75	0.00
488.92	184.90
489.10	88.94
489.28	72.56
489.46	56.17
489.64	114.69
489.81	79.58
489.99	56.17
490.17	133.41
490.35	138.09
490.53	65.54
490.70	79.58
490.88	58.51
491.06	67.88
491.24	67.88
491.41	53.83
491.59	58.51
491.77	88.94
491.95	93.62
492.13	84.26
492.30	86.60
492.48	114.69
492.66	135.75
492.84	114.69
493.01	56.17
493.19	0.00
493.37	53.83
493.54	131.07
493.72	117.03
493.90	9.36
494.08	11.70
494.25	51.49
494.43	100.64
494.61	84.26
494.79	67.88
494.96	110.01
495.14	0.00
495.32	79.58
495.49	114.69
495.67	112.35
495.85	147.45
496.02	35.11
496.20	84.26
496.38	9.36
496.55	70.22
496.73	63.19
496.91	79.58
497.09	67.88
497.26	58.51
497.44	84.26
497.62	53.83
497.79	58.51
497.97	2.34
498.14	112.35
498.32	117.03
498.50	163.84
498.67	35.11
498.85	65.54
499.03	56.17
499.20	67.88
499.38	0.00
499.56	79.58
499.73	0.00
499.91	133.41
500.08	56.17
500.26	63.19
500.44	91.28
500.61	67.88
500.79	67.88
500.97	126.39
501.14	44.47
501.32	84.26
501.49	91.28
501.67	16.38
501.84	65.54
502.02	154.48
502.20	70.22
502.37	42.13
502.55	124.05
502.72	81.92
502.90	60.85
503.07	112.35
503.25	93.62
503.43	0.00
503.60	46.81
503.78	65.54
503.95	58.51
504.13	110.01
504.30	135.75
504.48	166.18
504.65	110.01
504.83	91.28
505.01	79.58
505.18	65.54
505.36	77.24
505.53	51.49
505.71	60.85
505.88	110.01
506.06	91.28
506.23	95.96
506.41	98.30
506.58	65.54
506.76	88.94
506.93	81.92
507.11	107.66
507.28	72.56
507.46	74.90
507.63	79.58
507.81	88.94
507.98	58.51
508.16	110.01
508.33	74.90
508.50	93.62
508.68	46.81
508.85	74.90
509.03	56.17
509.20	18.72
509.38	133.41
509.55	91.28
509.73	77.24
509.90	42.13
510.08	35.11
510.25	60.85
510.42	91.28
510.60	84.26
510.77	65.54
510.95	56.17
511.12	46.81
511.30	95.96
511.47	91.28
511.64	163.84
511.82	86.60
511.99	44.47
512.17	70.22
512.34	170.86
512.51	79.58
512.69	60.85
512.86	149.79
513.04	131.07
513.21	42.13
513.38	126.39
513.56	46.81
513.73	72.56
513.90	124.05
514.08	119.37
514.25	49.15
514.43	117.03
514.60	53.83
514.77	124.05
514.95	72.56
515.12	112.35
515.29	60.85
515.47	88.94
515.64	91.28
515.81	39.79
515.99	93.62
516.16	95.96
516.33	72.56
516.51	121.71
516.68	58.51
516.85	28.09
517.03	56.17
517.20	0.00
517.37	119.37
517.54	56.17
517.72	16.38
517.89	0.00
518.06	95.96
518.24	21.06
518.41	79.58
518.58	110.01
518.75	86.60
518.93	110.01
519.10	117.03
519.27	72.56
519.45	79.58
519.62	42.13
519.79	77.24
519.96	131.07
520.14	72.56
520.31	126.39
520.48	124.05
520.65	138.09
520.83	98.30
521.00	131.07
521.17	81.92
521.34	63.19
521.52	135.75
521.69	70.22
521.86	86.60
522.03	93.62
522.20	112.35
522.38	119.37
522.55	107.66
522.72	84.26
522.89	65.54
523.07	147.45
523.24	56.17
523.41	119.37
523.58	95.96
523.75	28.09
523.92	35.11
524.10	63.19
524.27	112.35
524.44	21.06
524.61	72.56
524.78	63.19
524.96	117.03
525.13	60.85
525.30	93.62
525.47	110.01
525.64	74.90
525.81	44.47
525.98	95.96
526.16	110.01
526.33	100.64
526.50	114.69
526.67	88.94
526.84	79.58
527.01	105.32
527.18	74.90
527.36	72.56
527.53	63.19
527.70	65.54
527.87	51.49
528.04	44.47
528.21	77.24
528.38	124.05
528.55	49.15
528.72	112.35
528.89	84.26
529.07	51.49
529.24	102.98
529.41	70.22
529.58	60.85
529.75	98.30
529.92	74.90
530.09	14.04
530.26	67.88
530.43	107.66
530.60	51.49
530.77	107.66
530.94	105.32
531.11	88.94
531.28	131.07
531.46	84.26
531.63	28.09
531.80	30.43
531.97	30.43
532.14	105.32
532.31	72.56
532.48	74.90
532.65	81.92
532.82	95.96
532.99	102.98
533.16	126.39
533.33	98.30
533.50	95.96
533.67	42.13
533.84	102.98
534.01	100.64
534.18	133.41
534.35	114.69
534.52	25.75
534.69	107.66
534.86	140.43
535.03	107.66
535.20	88.94
535.37	18.72
535.54	131.07
535.71	51.49
535.88	98.30
536.05	93.62
536.22	39.79
536.38	95.96
536.55	93.62
536.72	107.66
536.89	93.62
537.06	0.00
537.23	44.47
537.40	117.03
537.57	65.54
537.74	35.11
537.91	114.69
538.08	126.39
538.25	117.03
538.42	86.60
538.59	84.26
538.75	128.73
538.92	81.92
539.09	131.07
539.26	81.92
539.43	51.49
539.60	70.22
539.77	119.37
539.94	65.54
540.11	67.88
540.28	25.75
540.44	58.51
540.61	70.22
540.78	81.92
540.95	110.01
541.12	88.94
541.29	65.54
541.46	114.69
541.62	117.03
541.79	37.45
541.96	58.51
542.13	81.92
542.30	117.03
542.47	117.03
542.63	42.13
542.80	138.09
542.97	147.45
543.14	98.30
543.31	88.94
543.48	135.75
543.64	112.35
543.81	49.15
543.98	168.52
544.15	44.47
544.32	124.05
544.48	107.66
544.65	42.13
544.82	74.90
544.99	102.98
545.16	110.01
545.32	126.39
545.49	74.90
545.66	100.64
545.83	180.22
546.00	74.90
546.16	140.43
546.33	166.18
546.50	53.83
546.67	44.47
546.83	39.79
547.00	72.56
547.17	63.19
547.34	60.85
547.50	72.56
547.67	145.11
547.84	56.17
548.00	37.45
548.17	110.01
548.34	112.35
548.51	93.62
548.67	58.51
548.84	79.58
549.01	98.30
549.18	117.03
549.34	114.69
549.51	56.17
549.68	25.75
549.84	112.35
550.01	39.79
550.18	44.47
550.34	46.81
550.51	81.92
550.68	81.92
550.84	42.13
551.01	49.15
551.18	112.35
551.34	124.05
551.51	128.73
551.68	49.15
551.84	74.90
552.01	86.60
552.18	58.51
552.34	91.28
552.51	138.09
552.68	67.88
552.84	133.41
553.01	133.41
553.18	56.17
553.34	114.69
553.51	35.11
553.67	70.22
553.84	135.75
554.01	91.28
554.17	2.34
554.34	161.50
554.51	58.51
554.67	126.39
554.84	51.49
555.00	65.54
555.17	51.49
555.33	32.77
555.50	30.43
555.67	110.01
555.83	119.37
556.00	39.79
556.16	39.79
556.33	28.09
556.50	46.81
556.66	114.69
556.83	32.77
556.99	2.34
557.16	81.92
557.32	154.48
557.49	79.58
557.65	77.24
557.82	39.79
557.98	142.77
558.15	81.92
558.32	72.56
558.48	77.24
558.65	67.88
558.81	114.69
558.98	110.01
559.14	42.13
559.31	81.92
559.47	102.98
559.64	105.32
559.80	77.24
559.97	79.58
560.13	51.49
560.30	100.64
560.46	142.77
560.63	93.62
560.79	131.07
560.96	60.85
561.12	93.62
561.29	145.11
561.45	23.41
561.61	67.88
561.78	107.66
561.94	49.15
562.11	30.43
562.27	39.79
562.44	70.22
562.60	74.90
562.77	100.64
562.93	119.37
563.10	65.54
563.26	21.06
563.42	49.15
563.59	58.51
563.75	7.02
563.92	77.24
564.08	30.43
564.24	11.70
564.41	56.17
564.57	67.88
564.74	37.45
564.90	79.58
565.07	18.72
565.23	91.28
565.39	102.98
565.56	14.04
565.72	135.75
565.88	67.88
566.05	84.26
566.21	63.19
566.38	102.98
566.54	124.05
566.70	100.64
566.87	107.66
567.03	58.51
567.19	112.35
567.36	175.54
567.52	53.83
567.68	79.58
567.85	128.73
568.01	147.45
568.17	84.26
568.34	49.15
568.50	124.05
568.66	100.64
568.83	140.43
568.99	25.75
569.15	112.35
569.32	11.70
569.48	60.85
569.64	44.47
569.81	95.96
569.97	56.17
570.13	105.32
570.30	70.22
570.46	56.17
570.62	100.64
570.78	110.01
570.95	56.17
571.11	84.26
571.27	124.05
571.43	128.73
571.60	70.22
571.76	91.28
571.92	16.38
572.09	102.98
572.25	53.83
572.41	67.88
572.57	84.26
572.74	37.45
572.90	117.03
573.06	32.77
573.22	95.96
573.38	126.39
573.55	126.39
573.71	46.81
573.87	35.11
574.03	91.28
574.20	11.70
574.36	63.19
574.52	39.79
574.68	140.43
574.84	35.11
575.01	0.00
575.17	39.79
575.33	53.83
575.49	49.15
575.65	102.98
575.82	65.54
575.98	60.85
576.14	0.00
576.30	51.49
576.46	49.15
576.62	107.66
576.79	98.30
576.95	32.77
577.11	25.75
577.27	147.45
577.43	100.64
577.59	110.01
577.75	53.83
577.92	79.58
578.08	16.38
578.24	42.13
578.40	63.19
578.56	4.68
578.72	63.19
578.88	100.64
579.04	67.88
579.21	23.41
579.37	91.28
579.53	95.96
579.69	184.90
579.85	128.73
580.01	117.03
580.17	32.77
580.33	46.81
580.49	21.06
580.65	110.01
580.82	124.05
580.98	9.36
581.14	28.09
581.30	81.92
581.46	32.77
581.62	0.00
581.78	16.38
581.94	65.54
582.10	9.36
582.26	84.26
582.42	70.22
582.58	114.69
582.74	79.58
582.90	95.96
583.06	7.02
583.22	100.64
583.38	60.85
583.54	72.56
583.70	32.77
583.86	60.85
584.02	44.47
584.18	196.60
584.34	35.11
584.50	79.58
584.66	114.69
584.82	51.49
584.98	21.06
585.14	93.62
585.30	25.75
585.46	124.05
585.62	18.72
585.78	110.01
585.94	114.69
586.10	23.41
586.26	67.88
586.42	77.24
586.58	51.49
586.74	56.17
586.90	44.47
587.06	56.17
587.22	67.88
587.38	23.41
587.54	53.83
587.70	65.54
587.86	14.04
588.02	95.96
588.18	39.79
588.34	98.30
588.49	42.13
588.65	65.54
588.81	14.04
588.97	67.88
589.13	81.92
589.29	138.09
589.45	46.81
589.61	81.92
589.77	70.22
589.93	35.11
590.08	70.22
590.24	198.95
590.40	21.06
590.56	95.96
590.72	124.05
590.88	58.51
591.04	7.02
591.20	100.64
591.35	124.05
591.51	74.90
591.67	79.58
591.83	25.75
591.99	180.22
592.15	81.92
592.31	65.54
592.46	46.81
592.62	84.26
592.78	25.75
592.94	81.92
593.10	7.02
593.26	84.26
593.41	110.01
593.57	58.51
593.73	86.60
593.89	86.60
594.05	112.35
594.20	131.07
594.36	58.51
594.52	135.75
594.68	14.04
594.84	119.37
594.99	107.66
595.15	23.41
595.31	84.26
595.47	77.24
595.62	88.94
595.78	74.90
595.94	65.54
596.10	65.54
596.25	53.83
596.41	131.07
596.57	42.13
596.73	56.17
596.88	93.62
597.04	112.35
597.20	124.05
597.36	91.28
597.51	60.85
597.67	67.88
597.83	72.56
597.99	58.51
598.14	131.07
598.30	72.56
598.46	65.54
598.61	0.00
598.77	63.19
598.93	84.26
599.09	135.75
599.24	32.77
599.40	39.79
599.56	93.62
599.71	84.26
599.87	28.09
600.03	112.35
600.18	74.90
600.34	84.26
600.50	126.39
600.65	53.83
600.81	147.45
600.97	86.60
601.12	93.62
601.28	74.90
601.44	67.88
601.59	42.13
601.75	98.30
601.91	77.24
602.06	58.51
602.22	44.47
602.37	88.94
602.53	30.43
602.69	88.94
602.84	65.54
603.00	121.71
603.16	28.09
603.31	110.01
603.47	0.00
603.62	21.06
603.78	70.22
603.94	74.90
604.09	53.83
604.25	37.45
604.40	51.49
604.56	91.28
604.71	79.58
604.87	14.04
605.03	91.28
605.18	51.49
605.34	60.85
605.49	70.22
605.65	126.39
605.80	81.92
605.96	84.26
606.12	51.49
606.27	16.38
606.43	46.81
606.58	65.54
606.74	65.54
606.89	117.03
607.05	173.20
607.20	32.77
607.36	91.28
607.51	44.47
607.67	117.03
607.82	84.26
607.98	93.62
608.13	93.62
608.29	0.00
608.44	21.06
608.60	81.92
608.75	107.66
608.91	91.28
609.06	67.88
609.22	25.75
609.37	105.32
609.53	58.51
609.68	81.92
609.84	79.58
609.99	72.56
610.15	102.98
610.30	63.19
610.46	46.81
610.61	86.60
610.76	95.96
610.92	100.64
611.07	65.54
611.23	124.05
611.38	28.09
611.54	63.19
611.69	121.71
611.84	93.62
612.00	53.83
612.15	72.56
612.31	42.13
612.46	79.58
612.62	51.49
612.77	60.85
612.92	105.32
613.08	65.54
613.23	51.49
613.39	65.54
613.54	65.54
613.69	114.69
613.85	49.15
614.00	0.00
614.15	65.54
614.31	81.92
614.46	180.22
614.62	42.13
614.77	49.15
614.92	210.65
615.08	81.92
615.23	102.98
615.38	79.58
615.54	42.13
615.69	56.17
615.84	63.19
616.00	98.30
616.15	77.24
616.30	93.62
616.46	23.41
616.61	100.64
616.76	124.05
616.92	65.54
617.07	35.11
617.22	74.90
617.37	84.26
617.53	21.06
617.68	112.35
617.83	95.96
617.99	49.15
618.14	58.51
618.29	39.79
618.45	117.03
618.60	32.77
618.75	84.26
618.90	72.56
619.06	86.60
619.21	60.85
619.36	14.04
619.51	39.79
619.67	159.16
619.82	60.85
619.97	56.17
620.12	16.38
620.28	39.79
620.43	51.49
620.58	11.70
620.73	42.13
620.89	161.50
621.04	0.00
621.19	39.79
621.34	53.83
621.49	0.00
621.65	28.09
621.80	107.66
621.95	70.22
622.10	77.24
622.25	49.15
622.41	117.03
622.56	21.06
622.71	42.13
622.86	0.00
623.01	67.88
623.16	79.58
623.32	124.05
623.47	79.58
623.62	70.22
623.77	0.00
623.92	84.26
624.07	105.32
624.23	65.54
624.38	0.00
624.53	117.03
624.68	65.54
624.83	70.22
624.98	30.43
625.13	91.28
625.29	79.58
625.44	91.28
625.59	72.56
625.74	110.01
625.89	72.56
626.04	46.81
626.19	81.92
626.34	39.79
626.49	21.06
626.65	77.24
626.80	51.49
626.95	18.72
627.10	100.64
627.25	42.13
627.40	42.13
627.55	58.51
627.70	0.00
627.85	23.41
628.00	95.96
628.15	37.45
628.30	42.13
628.45	70.22
628.60	18.72
628.76	67.88
628.91	79.58
629.06	133.41
629.21	63.19
629.36	140.43
629.51	93.62
629.66	107.66
629.81	18.72
629.96	86.60
630.11	49.15
630.26	63.19
630.41	67.88
630.56	84.26
630.71	42.13
630.86	112.35
631.01	65.54
631.16	46.81
631.31	110.01
631.46	23.41
631.61	95.96
631.76	81.92
631.91	11.70
632.06	44.47
632.21	32.77
632.36	81.92
632.51	119.37
632.66	119.37
632.81	93.62
632.96	49.15
633.10	0.00
633.25	74.90
633.40	0.00
633.55	44.47
633.70	142.77
633.85	18.72
634.00	42.13
634.15	49.15
634.30	126.39
634.45	30.43
634.60	23.41
634.75	30.43
634.90	91.28
635.05	152.13
635.19	44.47
635.34	86.60
635.49	86.60
635.64	74.90
635.79	74.90
635.94	42.13
636.09	60.85
636.24	121.71
636.39	51.49
636.53	72.56
636.68	18.72
636.83	58.51
636.98	65.54
637.13	11.70
637.28	0.00
637.43	65.54
637.57	117.03
637.72	105.32
637.87	42.13
638.02	9.36
638.17	42.13
638.32	81.92
638.46	9.36
638.61	30.43
638.76	100.64
638.91	35.11
639.06	95.96
639.20	60.85
639.35	32.77
639.50	14.04
639.65	95.96
639.80	30.43
639.94	44.47
640.09	88.94
640.24	81.92
640.39	53.83
640.54	112.35
640.68	42.13
640.83	23.41
640.98	77.24
641.13	91.28
641.27	37.45
641.42	0.00
641.57	35.11
641.72	32.77
641.86	63.19
642.01	60.85
642.16	114.69
642.31	121.71
642.45	65.54
642.60	35.11
642.75	79.58
642.90	161.50
643.04	53.83
643.19	72.56
643.34	81.92
643.48	65.54
643.63	63.19
643.78	7.02
643.93	21.06
644.07	91.28
644.22	79.58
644.37	0.00
644.51	79.58
644.66	23.41
644.81	51.49
644.95	105.32
645.10	9.36
645.25	67.88
645.39	18.72
645.54	18.72
645.69	84.26
645.83	72.56
645.98	39.79
646.13	88.94
646.27	49.15
646.42	35.11
646.57	25.75
646.71	95.96
646.86	0.00
647.00	28.09
647.15	39.79
647.30	98.30
647.44	37.45
647.59	65.54
647.74	58.51
647.88	21.06
648.03	37.45
648.17	81.92
648.32	32.77
648.47	18.72
648.61	18.72
648.76	67.88
648.90	74.90
649.05	23.41
649.20	37.45
649.34	79.58
649.49	35.11
649.63	7.02
649.78	11.70
649.92	42.13
650.07	58.51
650.21	56.17
650.36	65.54
650.51	14.04
650.65	107.66
650.80	154.48
650.94	65.54
651.09	74.90
651.23	95.96
651.38	53.83
651.52	21.06
651.67	67.88
651.81	126.39
651.96	35.11
652.10	0.00
652.25	46.81
652.39	119.37
652.54	81.92
652.68	37.45
652.83	105.32
652.97	112.35
653.12	65.54
653.26	4.68
653.41	126.39
653.55	44.47
653.70	95.96
653.84	46.81
653.99	81.92
654.13	30.43
654.27	30.43
654.42	32.77
654.56	42.13
654.71	65.54
654.85	30.43
655.00	35.11
655.14	44.47
655.29	77.24
655.43	56.17
655.57	30.43
655.72	16.38
655.86	39.79
656.01	30.43
656.15	86.60
656.30	32.77
656.44	53.83
656.58	42.13
656.73	102.98
656.87	25.75
657.01	65.54
657.16	0.00
657.30	30.43
657.45	30.43
657.59	60.85
657.73	0.00
657.88	63.19
658.02	46.81
658.16	0.00
658.31	135.75
658.45	11.70
658.60	37.45
658.74	11.70
658.88	77.24
659.03	98.30
659.17	100.64
659.31	51.49
659.46	42.13
659.60	175.54
659.74	74.90
659.89	70.22
660.03	28.09
660.17	0.00
660.32	107.66
660.46	77.24
660.60	72.56
660.74	91.28
660.89	18.72
661.03	25.75
661.17	44.47
661.32	86.60
661.46	35.11
661.60	63.19
661.74	72.56
661.89	14.04
662.03	46.81
662.17	56.17
662.31	39.79
662.46	70.22
662.60	60.85
662.74	74.90
662.88	23.41
663.03	53.83
663.17	72.56
663.31	72.56
663.45	28.09
663.60	56.17
663.74	18.72
663.88	112.35
664.02	102.98
664.17	58.51
664.31	110.01
664.45	0.00
664.59	39.79
664.73	91.28
664.88	88.94
665.02	2.34
665.16	67.88
665.30	46.81
665.44	84.26
665.59	0.00
665.73	0.00
665.87	0.00
666.01	86.60
666.15	105.32
666.29	39.79
666.44	81.92
666.58	28.09
666.72	32.77
666.86	74.90
667.00	2.34
667.14	18.72
667.28	0.00
667.43	30.43
667.57	35.11
667.71	77.24
667.85	46.81
667.99	4.68
668.13	44.47
668.27	105.32
668.41	46.81
668.56	93.62
668.70	35.11
668.84	42.13
668.98	86.60
669.12	84.26
669.26	93.62
669.40	37.45
669.54	39.79
669.68	142.77
669.82	39.79
669.96	14.04
670.10	0.00
670.25	39.79
670.39	25.75
670.53	0.00
670.67	0.00
670.81	4.68
670.95	60.85
671.09	81.92
671.23	18.72
671.37	119.37
671.51	110.01
671.65	18.72
671.79	60.85
671.93	65.54
672.07	37.45
672.21	0.00
672.35	74.90
672.49	112.35
672.63	124.05
672.77	84.26
672.91	67.88
673.05	32.77
673.19	42.13
673.33	63.19
673.47	37.45
673.61	21.06
673.75	84.26
673.89	70.22
674.03	35.11
674.17	2.34
674.31	16.38
674.45	39.79
674.59	21.06
674.73	28.09
674.87	0.00
675.01	114.69
675.15	37.45
675.29	9.36
675.43	86.60
675.56	21.06
675.70	100.64
675.84	77.24
675.98	7.02
676.12	77.24
676.26	35.11
676.40	28.09
676.54	49.15
676.68	37.45
676.82	53.83
676.96	23.41
677.10	44.47
677.23	25.75
677.37	18.72
677.51	39.79
677.65	46.81
677.79	16.38
677.93	37.45
678.07	30.43
678.21	32.77
678.34	18.72
678.48	39.79
678.62	25.75
678.76	124.05
678.90	65.54
679.04	53.83
679.18	0.00
679.31	14.04
679.45	0.00
679.59	51.49
679.73	42.13
679.87	30.43
680.00	100.64
680.14	18.72
680.28	81.92
680.42	39.79
680.56	79.58
680.70	49.15
680.83	25.75
680.97	140.43
681.11	81.92
681.25	37.45
681.39	60.85
681.52	32.77
681.66	32.77
681.80	86.60
681.94	51.49
682.07	28.09
682.21	51.49
682.35	2.34
682.49	49.15
682.62	98.30
682.76	39.79
682.90	28.09
683.04	49.15
683.17	79.58
683.31	72.56
683.45	39.79
683.59	44.47
683.72	100.64
683.86	0.00
684.00	53.83
684.13	32.77
684.27	102.98
684.41	72.56
684.55	67.88
684.68	128.73
684.82	93.62
684.96	14.04
685.09	84.26
685.23	70.22
685.37	30.43
685.50	30.43
685.64	56.17
685.78	56.17
685.91	46.81
686.05	98.30
686.19	81.92
686.32	14.04
686.46	46.81
686.60	28.09
686.73	42.13
686.87	128.73
687.01	7.02
687.14	79.58
687.28	70.22
687.42	0.00
687.55	35.11
687.69	42.13
687.82	7.02
687.96	25.75
688.10	18.72
688.23	91.28
688.37	49.15
688.50	32.77
688.64	74.90
688.78	100.64
688.91	70.22
689.05	23.41
689.18	0.00
689.32	98.30
689.46	63.19
689.59	58.51
689.73	28.09
689.86	51.49
690.00	0.00
690.13	0.00
690.27	42.13
690.41	32.77
690.54	42.13
690.68	0.00
690.81	53.83
690.95	4.68
691.08	28.09
691.22	30.43
691.35	77.24
691.49	18.72
691.62	28.09
691.76	11.70
691.89	0.00
692.03	30.43
692.16	42.13
692.30	60.85
692.43	21.06
692.57	25.75
692.70	51.49
692.84	0.00
692.97	0.00
693.11	39.79
693.24	39.79
693.38	14.04
693.51	51.49
693.65	16.38
693.78	23.41
693.92	53.83
694.05	9.36
694.19	0.00
694.32	14.04
694.45	0.00
694.59	28.09
694.72	23.41
694.86	44.47
694.99	79.58
695.13	14.04
695.26	46.81
695.39	0.00
695.53	21.06
695.66	72.56
695.80	25.75
695.93	100.64
696.07	42.13
696.20	77.24
696.33	0.00
696.47	28.09
696.60	77.24
696.73	37.45
696.87	70.22
697.00	51.49
697.14	51.49
697.27	74.90
697.40	58.51
697.54	53.83
697.67	25.75
697.80	39.79
697.94	7.02
698.07	0.00
698.21	7.02
698.34	9.36
698.47	81.92
698.61	72.56
698.74	58.51
698.87	81.92
699.01	35.11
699.14	42.13
699.27	25.75
699.40	0.00
699.54	53.83
699.67	53.83
699.80	11.70
699.94	44.47
700.07	65.54
700.20	81.92
700.34	67.88
700.47	0.00
700.60	0.00
700.73	35.11
700.87	21.06
701.00	58.51
701.13	21.06
701.26	81.92
701.40	67.88
701.53	0.00
701.66	0.00
701.79	18.72
701.93	60.85
702.06	84.26
702.19	21.06
702.32	67.88
702.46	42.13
702.59	51.49
702.72	11.70
702.85	23.41
702.99	67.88
703.12	0.00
703.25	79.58
703.38	16.38
703.51	44.47
703.65	30.43
703.78	72.56
703.91	0.00
704.04	49.15
704.17	53.83
704.31	4.68
704.44	49.15
704.57	42.13
704.70	0.00
704.83	86.60
704.96	0.00
705.10	67.88
705.23	0.00
>>>>>End Processed Spectral Data<<<<<
