SpectraSuite Data File
++++++++++++++++++++++++++++++++++++
Date: Fri Oct 04 12:13:30 GMT-05:00 2013
User: price-jones
Dark Spectrum Present: No
Reference Spectrum Present: No
Number of Sampled Component Spectra: 1
Spectrometers: USB2+H05261
Integration Time (usec): 10000 (USB2+H05261)
Spectra Averaged: 1 (USB2+H05261)
Boxcar Smoothing: 0 (USB2+H05261)
Correct for Electrical Dark: No (USB2+H05261)
Strobe/Lamp Enabled: No (USB2+H05261)
Correct for Detector Non-linearity: No (USB2+H05261)
Correct for Stray Light: No (USB2+H05261)
Number of Pixels in Processed Spectrum: 2048
>>>>>Begin Processed Spectral Data<<<<<
365.73	0.00
365.92	0.00
366.12	0.00
366.32	0.00
366.52	0.00
366.72	0.00
366.91	0.00
367.11	0.00
367.31	0.00
367.51	0.00
367.70	0.00
367.90	0.00
368.10	0.00
368.30	0.00
368.49	0.00
368.69	0.00
368.89	0.00
369.09	0.00
369.28	0.00
369.48	0.00
369.68	0.00
369.87	0.00
370.07	0.00
370.27	0.00
370.47	0.00
370.66	0.00
370.86	0.00
371.06	0.00
371.25	0.00
371.45	0.00
371.65	0.00
371.84	0.00
372.04	0.00
372.24	65.54
372.44	0.00
372.63	0.00
372.83	42.13
373.03	44.47
373.22	0.00
373.42	14.04
373.62	21.06
373.81	18.72
374.01	21.06
374.21	14.04
374.40	2.34
374.60	58.51
374.79	7.02
374.99	14.04
375.19	0.00
375.38	65.54
375.58	105.32
375.78	58.51
375.97	23.41
376.17	74.90
376.37	0.00
376.56	7.02
376.76	0.00
376.95	0.00
377.15	0.00
377.35	0.00
377.54	53.83
377.74	91.28
377.93	79.58
378.13	21.06
378.33	56.17
378.52	32.77
378.72	67.88
378.91	51.49
379.11	44.47
379.31	0.00
379.50	0.00
379.70	0.00
379.89	105.32
380.09	30.43
380.28	0.00
380.48	0.00
380.68	4.68
380.87	0.00
381.07	51.49
381.26	0.00
381.46	0.00
381.65	44.47
381.85	84.26
382.04	23.41
382.24	0.00
382.43	30.43
382.63	0.00
382.83	35.11
383.02	32.77
383.22	16.38
383.41	0.00
383.61	0.00
383.80	14.04
384.00	39.79
384.19	88.94
384.39	0.00
384.58	56.17
384.78	14.04
384.97	4.68
385.17	56.17
385.36	0.00
385.56	0.00
385.75	0.00
385.95	9.36
386.14	77.24
386.34	9.36
386.53	0.00
386.72	0.00
386.92	0.00
387.11	9.36
387.31	0.00
387.50	51.49
387.70	18.72
387.89	0.00
388.09	42.13
388.28	30.43
388.48	42.13
388.67	81.92
388.86	21.06
389.06	2.34
389.25	9.36
389.45	28.09
389.64	25.75
389.84	102.98
390.03	39.79
390.22	28.09
390.42	0.00
390.61	53.83
390.81	53.83
391.00	16.38
391.19	37.45
391.39	63.19
391.58	58.51
391.78	32.77
391.97	4.68
392.16	0.00
392.36	0.00
392.55	25.75
392.75	30.43
392.94	0.00
393.13	28.09
393.33	28.09
393.52	14.04
393.71	0.00
393.91	0.00
394.10	7.02
394.29	21.06
394.49	0.00
394.68	21.06
394.88	9.36
395.07	0.00
395.26	0.00
395.46	0.00
395.65	7.02
395.84	30.43
396.04	49.15
396.23	28.09
396.42	60.85
396.62	0.00
396.81	21.06
397.00	9.36
397.19	21.06
397.39	91.28
397.58	72.56
397.77	18.72
397.97	30.43
398.16	11.70
398.35	9.36
398.55	11.70
398.74	0.00
398.93	58.51
399.12	14.04
399.32	2.34
399.51	0.00
399.70	0.00
399.90	110.01
400.09	49.15
400.28	0.00
400.47	0.00
400.67	0.00
400.86	91.28
401.05	0.00
401.24	0.00
401.44	0.00
401.63	21.06
401.82	49.15
402.01	0.00
402.21	32.77
402.40	4.68
402.59	56.17
402.78	79.58
402.97	79.58
403.17	9.36
403.36	86.60
403.55	35.11
403.74	0.00
403.93	0.00
404.13	0.00
404.32	35.11
404.51	0.00
404.70	0.00
404.89	11.70
405.09	65.54
405.28	42.13
405.47	23.41
405.66	32.77
405.85	56.17
406.05	2.34
406.24	39.79
406.43	23.41
406.62	60.85
406.81	72.56
407.00	51.49
407.20	81.92
407.39	30.43
407.58	16.38
407.77	23.41
407.96	30.43
408.15	46.81
408.34	0.00
408.54	4.68
408.73	0.00
408.92	70.22
409.11	39.79
409.30	9.36
409.49	0.00
409.68	93.62
409.87	46.81
410.07	11.70
410.26	0.00
410.45	32.77
410.64	14.04
410.83	18.72
411.02	0.00
411.21	0.00
411.40	11.70
411.59	32.77
411.78	70.22
411.98	18.72
412.17	0.00
412.36	0.00
412.55	0.00
412.74	16.38
412.93	0.00
413.12	7.02
413.31	74.90
413.50	0.00
413.69	0.00
413.88	0.00
414.07	53.83
414.26	42.13
414.45	11.70
414.64	0.00
414.83	37.45
415.02	0.00
415.22	67.88
415.41	0.00
415.60	16.38
415.79	16.38
415.98	0.00
416.17	11.70
416.36	0.00
416.55	0.00
416.74	0.00
416.93	0.00
417.12	53.83
417.31	0.00
417.50	23.41
417.69	0.00
417.88	63.19
418.07	16.38
418.26	30.43
418.45	70.22
418.64	0.00
418.83	0.00
419.02	51.49
419.21	74.90
419.39	49.15
419.58	60.85
419.77	16.38
419.96	2.34
420.15	0.00
420.34	49.15
420.53	84.26
420.72	65.54
420.91	63.19
421.10	56.17
421.29	56.17
421.48	44.47
421.67	0.00
421.86	37.45
422.05	46.81
422.24	16.38
422.43	0.00
422.61	65.54
422.80	60.85
422.99	42.13
423.18	9.36
423.37	51.49
423.56	9.36
423.75	32.77
423.94	0.00
424.13	79.58
424.32	0.00
424.50	70.22
424.69	56.17
424.88	46.81
425.07	105.32
425.26	0.00
425.45	53.83
425.64	0.00
425.83	56.17
426.01	0.00
426.20	51.49
426.39	84.26
426.58	53.83
426.77	74.90
426.96	4.68
427.15	70.22
427.33	58.51
427.52	32.77
427.71	25.75
427.90	49.15
428.09	58.51
428.28	30.43
428.46	0.00
428.65	28.09
428.84	0.00
429.03	0.00
429.22	42.13
429.40	21.06
429.59	70.22
429.78	21.06
429.97	11.70
430.16	65.54
430.34	0.00
430.53	37.45
430.72	37.45
430.91	0.00
431.10	0.00
431.28	53.83
431.47	9.36
431.66	0.00
431.85	16.38
432.03	0.00
432.22	67.88
432.41	39.79
432.60	58.51
432.79	35.11
432.97	18.72
433.16	0.00
433.35	0.00
433.54	72.56
433.72	58.51
433.91	72.56
434.10	25.75
434.28	0.00
434.47	0.00
434.66	0.00
434.85	37.45
435.03	0.00
435.22	0.00
435.41	105.32
435.59	18.72
435.78	28.09
435.97	4.68
436.16	81.92
436.34	0.00
436.53	16.38
436.72	11.70
436.90	72.56
437.09	7.02
437.28	0.00
437.46	42.13
437.65	81.92
437.84	49.15
438.02	30.43
438.21	60.85
438.40	0.00
438.58	16.38
438.77	70.22
438.96	18.72
439.14	72.56
439.33	23.41
439.52	0.00
439.70	28.09
439.89	0.00
440.08	51.49
440.26	0.00
440.45	0.00
440.63	63.19
440.82	30.43
441.01	4.68
441.19	11.70
441.38	42.13
441.57	0.00
441.75	21.06
441.94	70.22
442.12	44.47
442.31	2.34
442.50	86.60
442.68	0.00
442.87	14.04
443.05	0.00
443.24	81.92
443.43	67.88
443.61	14.04
443.80	39.79
443.98	30.43
444.17	14.04
444.35	74.90
444.54	114.69
444.73	0.00
444.91	81.92
445.10	0.00
445.28	0.00
445.47	49.15
445.65	0.00
445.84	56.17
446.02	23.41
446.21	114.69
446.39	35.11
446.58	58.51
446.77	56.17
446.95	77.24
447.14	21.06
447.32	35.11
447.51	4.68
447.69	0.00
447.88	16.38
448.06	46.81
448.25	51.49
448.43	28.09
448.62	37.45
448.80	0.00
448.99	7.02
449.17	53.83
449.36	39.79
449.54	2.34
449.73	58.51
449.91	35.11
450.10	11.70
450.28	21.06
450.46	16.38
450.65	79.58
450.83	0.00
451.02	84.26
451.20	35.11
451.39	58.51
451.57	39.79
451.76	30.43
451.94	65.54
452.13	46.81
452.31	0.00
452.49	11.70
452.68	98.30
452.86	60.85
453.05	42.13
453.23	21.06
453.42	0.00
453.60	53.83
453.78	86.60
453.97	30.43
454.15	93.62
454.34	51.49
454.52	11.70
454.70	0.00
454.89	7.02
455.07	0.00
455.26	9.36
455.44	65.54
455.62	0.00
455.81	0.00
455.99	72.56
456.17	14.04
456.36	39.79
456.54	25.75
456.73	67.88
456.91	67.88
457.09	58.51
457.28	65.54
457.46	32.77
457.64	30.43
457.83	63.19
458.01	72.56
458.19	53.83
458.38	74.90
458.56	77.24
458.74	0.00
458.93	67.88
459.11	51.49
459.29	72.56
459.48	14.04
459.66	0.00
459.84	11.70
460.03	23.41
460.21	72.56
460.39	39.79
460.57	49.15
460.76	49.15
460.94	65.54
461.12	126.39
461.31	46.81
461.49	65.54
461.67	7.02
461.85	49.15
462.04	44.47
462.22	77.24
462.40	23.41
462.59	53.83
462.77	44.47
462.95	25.75
463.13	0.00
463.32	9.36
463.50	0.00
463.68	25.75
463.86	0.00
464.05	42.13
464.23	72.56
464.41	42.13
464.59	0.00
464.78	23.41
464.96	25.75
465.14	35.11
465.32	0.00
465.50	9.36
465.69	35.11
465.87	56.17
466.05	23.41
466.23	35.11
466.41	0.00
466.60	14.04
466.78	63.19
466.96	74.90
467.14	0.00
467.32	14.04
467.51	81.92
467.69	28.09
467.87	28.09
468.05	56.17
468.23	9.36
468.41	32.77
468.60	9.36
468.78	56.17
468.96	65.54
469.14	53.83
469.32	25.75
469.50	18.72
469.69	58.51
469.87	51.49
470.05	0.00
470.23	53.83
470.41	0.00
470.59	28.09
470.77	53.83
470.95	79.58
471.14	72.56
471.32	0.00
471.50	84.26
471.68	65.54
471.86	37.45
472.04	2.34
472.22	0.00
472.40	23.41
472.58	0.00
472.77	25.75
472.95	0.00
473.13	0.00
473.31	0.00
473.49	88.94
473.67	77.24
473.85	23.41
474.03	105.32
474.21	35.11
474.39	84.26
474.57	9.36
474.75	93.62
474.93	42.13
475.12	21.06
475.30	93.62
475.48	16.38
475.66	86.60
475.84	0.00
476.02	4.68
476.20	95.96
476.38	93.62
476.56	2.34
476.74	58.51
476.92	32.77
477.10	56.17
477.28	30.43
477.46	53.83
477.64	56.17
477.82	23.41
478.00	21.06
478.18	70.22
478.36	56.17
478.54	16.38
478.72	65.54
478.90	0.00
479.08	0.00
479.26	2.34
479.44	56.17
479.62	46.81
479.80	84.26
479.98	70.22
480.16	49.15
480.34	121.71
480.52	35.11
480.70	0.00
480.88	35.11
481.06	49.15
481.24	0.00
481.41	81.92
481.59	60.85
481.77	67.88
481.95	11.70
482.13	28.09
482.31	0.00
482.49	4.68
482.67	16.38
482.85	7.02
483.03	44.47
483.21	88.94
483.39	119.37
483.57	0.00
483.74	0.00
483.92	56.17
484.10	0.00
484.28	114.69
484.46	39.79
484.64	25.75
484.82	0.00
485.00	53.83
485.18	35.11
485.35	70.22
485.53	37.45
485.71	0.00
485.89	49.15
486.07	0.00
486.25	30.43
486.43	0.00
486.61	70.22
486.78	32.77
486.96	81.92
487.14	11.70
487.32	0.00
487.50	70.22
487.68	51.49
487.85	46.81
488.03	53.83
488.21	23.41
488.39	46.81
488.57	25.75
488.75	0.00
488.92	84.26
489.10	51.49
489.28	21.06
489.46	0.00
489.64	44.47
489.81	28.09
489.99	95.96
490.17	25.75
490.35	0.00
490.53	2.34
490.70	0.00
490.88	39.79
491.06	180.22
491.24	0.00
491.41	14.04
491.59	65.54
491.77	0.00
491.95	16.38
492.13	65.54
492.30	95.96
492.48	81.92
492.66	39.79
492.84	35.11
493.01	28.09
493.19	0.00
493.37	4.68
493.54	0.00
493.72	39.79
493.90	39.79
494.08	60.85
494.25	53.83
494.43	0.00
494.61	11.70
494.79	28.09
494.96	72.56
495.14	39.79
495.32	4.68
495.49	30.43
495.67	79.58
495.85	74.90
496.02	35.11
496.20	32.77
496.38	51.49
496.55	58.51
496.73	0.00
496.91	21.06
497.09	32.77
497.26	63.19
497.44	98.30
497.62	11.70
497.79	42.13
497.97	0.00
498.14	46.81
498.32	46.81
498.50	37.45
498.67	23.41
498.85	0.00
499.03	0.00
499.20	0.00
499.38	42.13
499.56	23.41
499.73	46.81
499.91	9.36
500.08	60.85
500.26	126.39
500.44	18.72
500.61	46.81
500.79	49.15
500.97	70.22
501.14	39.79
501.32	25.75
501.49	11.70
501.67	28.09
501.84	11.70
502.02	35.11
502.20	44.47
502.37	49.15
502.55	93.62
502.72	63.19
502.90	0.00
503.07	0.00
503.25	100.64
503.43	11.70
503.60	37.45
503.78	7.02
503.95	30.43
504.13	42.13
504.30	63.19
504.48	16.38
504.65	72.56
504.83	0.00
505.01	44.47
505.18	86.60
505.36	0.00
505.53	91.28
505.71	11.70
505.88	23.41
506.06	30.43
506.23	0.00
506.41	58.51
506.58	7.02
506.76	9.36
506.93	2.34
507.11	63.19
507.28	0.00
507.46	53.83
507.63	46.81
507.81	58.51
507.98	30.43
508.16	42.13
508.33	0.00
508.50	65.54
508.68	2.34
508.85	39.79
509.03	105.32
509.20	21.06
509.38	63.19
509.55	0.00
509.73	51.49
509.90	30.43
510.08	37.45
510.25	0.00
510.42	44.47
510.60	46.81
510.77	32.77
510.95	18.72
511.12	128.73
511.30	77.24
511.47	28.09
511.64	46.81
511.82	30.43
511.99	67.88
512.17	11.70
512.34	72.56
512.51	51.49
512.69	0.00
512.86	21.06
513.04	28.09
513.21	49.15
513.38	91.28
513.56	91.28
513.73	133.41
513.90	63.19
514.08	32.77
514.25	42.13
514.43	91.28
514.60	0.00
514.77	0.00
514.95	49.15
515.12	42.13
515.29	77.24
515.47	42.13
515.64	65.54
515.81	63.19
515.99	39.79
516.16	4.68
516.33	51.49
516.51	0.00
516.68	25.75
516.85	28.09
517.03	23.41
517.20	7.02
517.37	42.13
517.54	51.49
517.72	39.79
517.89	58.51
518.06	110.01
518.24	2.34
518.41	11.70
518.58	79.58
518.75	49.15
518.93	63.19
519.10	42.13
519.27	42.13
519.45	53.83
519.62	37.45
519.79	0.00
519.96	51.49
520.14	0.00
520.31	14.04
520.48	58.51
520.65	65.54
520.83	44.47
521.00	21.06
521.17	60.85
521.34	0.00
521.52	39.79
521.69	91.28
521.86	0.00
522.03	21.06
522.20	39.79
522.38	25.75
522.55	0.00
522.72	74.90
522.89	86.60
523.07	72.56
523.24	49.15
523.41	42.13
523.58	58.51
523.75	39.79
523.92	35.11
524.10	42.13
524.27	70.22
524.44	58.51
524.61	42.13
524.78	56.17
524.96	23.41
525.13	70.22
525.30	42.13
525.47	30.43
525.64	0.00
525.81	25.75
525.98	21.06
526.16	77.24
526.33	56.17
526.50	0.00
526.67	0.00
526.84	16.38
527.01	65.54
527.18	35.11
527.36	131.07
527.53	25.75
527.70	37.45
527.87	7.02
528.04	4.68
528.21	58.51
528.38	25.75
528.55	11.70
528.72	84.26
528.89	107.66
529.07	74.90
529.24	25.75
529.41	7.02
529.58	44.47
529.75	35.11
529.92	67.88
530.09	51.49
530.26	84.26
530.43	53.83
530.60	21.06
530.77	39.79
530.94	53.83
531.11	7.02
531.28	0.00
531.46	14.04
531.63	63.19
531.80	23.41
531.97	93.62
532.14	32.77
532.31	44.47
532.48	23.41
532.65	70.22
532.82	53.83
532.99	51.49
533.16	2.34
533.33	58.51
533.50	79.58
533.67	65.54
533.84	72.56
534.01	32.77
534.18	0.00
534.35	0.00
534.52	11.70
534.69	51.49
534.86	35.11
535.03	74.90
535.20	0.00
535.37	39.79
535.54	0.00
535.71	18.72
535.88	30.43
536.05	25.75
536.22	51.49
536.38	32.77
536.55	0.00
536.72	93.62
536.89	37.45
537.06	44.47
537.23	32.77
537.40	112.35
537.57	39.79
537.74	46.81
537.91	58.51
538.08	23.41
538.25	128.73
538.42	53.83
538.59	77.24
538.75	86.60
538.92	110.01
539.09	65.54
539.26	23.41
539.43	65.54
539.60	77.24
539.77	30.43
539.94	53.83
540.11	70.22
540.28	30.43
540.44	60.85
540.61	30.43
540.78	4.68
540.95	42.13
541.12	60.85
541.29	0.00
541.46	67.88
541.62	35.11
541.79	79.58
541.96	93.62
542.13	37.45
542.30	105.32
542.47	39.79
542.63	37.45
542.80	9.36
542.97	39.79
543.14	18.72
543.31	9.36
543.48	11.70
543.64	93.62
543.81	0.00
543.98	53.83
544.15	35.11
544.32	86.60
544.48	58.51
544.65	42.13
544.82	65.54
544.99	0.00
545.16	25.75
545.32	81.92
545.49	51.49
545.66	0.00
545.83	0.00
546.00	7.02
546.16	46.81
546.33	128.73
546.50	25.75
546.67	30.43
546.83	79.58
547.00	77.24
547.17	91.28
547.34	53.83
547.50	32.77
547.67	11.70
547.84	0.00
548.00	14.04
548.17	56.17
548.34	0.00
548.51	0.00
548.67	18.72
548.84	9.36
549.01	0.00
549.18	28.09
549.34	18.72
549.51	35.11
549.68	65.54
549.84	119.37
550.01	9.36
550.18	0.00
550.34	72.56
550.51	0.00
550.68	23.41
550.84	60.85
551.01	4.68
551.18	42.13
551.34	60.85
551.51	30.43
551.68	0.00
551.84	0.00
552.01	0.00
552.18	84.26
552.34	0.00
552.51	46.81
552.68	63.19
552.84	23.41
553.01	30.43
553.18	42.13
553.34	9.36
553.51	60.85
553.67	7.02
553.84	0.00
554.01	44.47
554.17	18.72
554.34	42.13
554.51	30.43
554.67	86.60
554.84	0.00
555.00	14.04
555.17	121.71
555.33	35.11
555.50	49.15
555.67	63.19
555.83	51.49
556.00	74.90
556.16	60.85
556.33	25.75
556.50	18.72
556.66	46.81
556.83	81.92
556.99	56.17
557.16	25.75
557.32	16.38
557.49	32.77
557.65	4.68
557.82	32.77
557.98	32.77
558.15	84.26
558.32	49.15
558.48	37.45
558.65	23.41
558.81	74.90
558.98	21.06
559.14	37.45
559.31	51.49
559.47	9.36
559.64	21.06
559.80	0.00
559.97	44.47
560.13	25.75
560.30	58.51
560.46	46.81
560.63	81.92
560.79	11.70
560.96	72.56
561.12	37.45
561.29	4.68
561.45	91.28
561.61	0.00
561.78	88.94
561.94	23.41
562.11	0.00
562.27	74.90
562.44	39.79
562.60	21.06
562.77	0.00
562.93	70.22
563.10	39.79
563.26	7.02
563.42	23.41
563.59	46.81
563.75	14.04
563.92	102.98
564.08	23.41
564.24	28.09
564.41	32.77
564.57	56.17
564.74	21.06
564.90	0.00
565.07	9.36
565.23	7.02
565.39	0.00
565.56	32.77
565.72	37.45
565.88	42.13
566.05	23.41
566.21	30.43
566.38	79.58
566.54	93.62
566.70	0.00
566.87	74.90
567.03	0.00
567.19	0.00
567.36	18.72
567.52	4.68
567.68	86.60
567.85	23.41
568.01	72.56
568.17	74.90
568.34	53.83
568.50	53.83
568.66	32.77
568.83	18.72
568.99	28.09
569.15	91.28
569.32	84.26
569.48	79.58
569.64	23.41
569.81	53.83
569.97	4.68
570.13	16.38
570.30	23.41
570.46	95.96
570.62	18.72
570.78	105.32
570.95	14.04
571.11	44.47
571.27	0.00
571.43	65.54
571.60	44.47
571.76	23.41
571.92	37.45
572.09	4.68
572.25	21.06
572.41	63.19
572.57	39.79
572.74	114.69
572.90	18.72
573.06	58.51
573.22	63.19
573.38	91.28
573.55	2.34
573.71	23.41
573.87	42.13
574.03	74.90
574.20	0.00
574.36	0.00
574.52	49.15
574.68	58.51
574.84	0.00
575.01	0.00
575.17	0.00
575.33	39.79
575.49	74.90
575.65	37.45
575.82	37.45
575.98	53.83
576.14	51.49
576.30	124.05
576.46	30.43
576.62	112.35
576.79	67.88
576.95	49.15
577.11	58.51
577.27	44.47
577.43	25.75
577.59	25.75
577.75	11.70
577.92	65.54
578.08	102.98
578.24	18.72
578.40	21.06
578.56	16.38
578.72	98.30
578.88	72.56
579.04	28.09
579.21	49.15
579.37	49.15
579.53	81.92
579.69	107.66
579.85	18.72
580.01	53.83
580.17	63.19
580.33	95.96
580.49	49.15
580.65	81.92
580.82	65.54
580.98	63.19
581.14	46.81
581.30	11.70
581.46	32.77
581.62	25.75
581.78	63.19
581.94	74.90
582.10	39.79
582.26	0.00
582.42	32.77
582.58	79.58
582.74	88.94
582.90	77.24
583.06	49.15
583.22	79.58
583.38	46.81
583.54	126.39
583.70	39.79
583.86	79.58
584.02	56.17
584.18	102.98
584.34	77.24
584.50	168.52
584.66	1137.50
584.82	2574.59
584.98	3529.53
585.14	3150.36
585.30	1961.37
585.46	1284.95
585.62	828.55
585.78	306.61
585.94	182.56
586.10	112.35
586.26	98.30
586.42	95.96
586.58	117.03
586.74	81.92
586.90	46.81
587.06	28.09
587.22	42.13
587.38	0.00
587.54	23.41
587.70	156.82
587.86	276.18
588.02	278.52
588.18	257.46
588.34	154.48
588.49	72.56
588.65	14.04
588.81	0.00
588.97	56.17
589.13	16.38
589.29	44.47
589.45	0.00
589.61	65.54
589.77	72.56
589.93	79.58
590.08	25.75
590.24	37.45
590.40	46.81
590.56	35.11
590.72	9.36
590.88	4.68
591.04	23.41
591.20	65.54
591.35	86.60
591.51	49.15
591.67	32.77
591.83	0.00
591.99	60.85
592.15	42.13
592.31	39.79
592.46	16.38
592.62	21.06
592.78	72.56
592.94	53.83
593.10	0.00
593.26	37.45
593.41	51.49
593.57	65.54
593.73	56.17
593.89	173.20
594.05	360.44
594.20	486.83
594.36	407.25
594.52	355.76
594.68	255.12
594.84	163.84
594.99	152.13
595.15	65.54
595.31	14.04
595.47	42.13
595.62	44.47
595.78	138.09
595.94	25.75
596.10	74.90
596.25	0.00
596.41	112.35
596.57	16.38
596.73	72.56
596.88	28.09
597.04	39.79
597.20	159.16
597.36	86.60
597.51	67.88
597.67	51.49
597.83	42.13
597.99	0.00
598.14	58.51
598.30	58.51
598.46	0.00
598.61	67.88
598.77	60.85
598.93	70.22
599.09	98.30
599.24	56.17
599.40	11.70
599.56	39.79
599.71	67.88
599.87	53.83
600.03	30.43
600.18	16.38
600.34	2.34
600.50	67.88
600.65	63.19
600.81	42.13
600.97	0.00
601.12	81.92
601.28	49.15
601.44	79.58
601.59	25.75
601.75	42.13
601.91	0.00
602.06	63.19
602.22	42.13
602.37	11.70
602.53	28.09
602.69	152.13
602.84	9.36
603.00	117.03
603.16	100.64
603.31	117.03
603.47	28.09
603.62	42.13
603.78	84.26
603.94	35.11
604.09	60.85
604.25	77.24
604.40	58.51
604.56	35.11
604.71	91.28
604.87	7.02
605.03	9.36
605.18	63.19
605.34	16.38
605.49	0.00
605.65	9.36
605.80	56.17
605.96	9.36
606.12	28.09
606.27	30.43
606.43	77.24
606.58	0.00
606.74	88.94
606.89	220.01
607.05	308.95
607.20	407.25
607.36	330.02
607.51	182.56
607.67	168.52
607.82	88.94
607.98	77.24
608.13	107.66
608.29	37.45
608.44	9.36
608.60	49.15
608.75	63.19
608.91	117.03
609.06	271.50
609.22	543.00
609.37	770.04
609.53	620.24
609.68	451.72
609.84	294.91
609.99	217.67
610.15	163.84
610.30	91.28
610.46	77.24
610.61	56.17
610.76	81.92
610.92	30.43
611.07	39.79
611.23	49.15
611.38	4.68
611.54	37.45
611.69	0.00
611.84	60.85
612.00	44.47
612.15	32.77
612.31	25.75
612.46	77.24
612.62	23.41
612.77	28.09
612.92	79.58
613.08	0.00
613.23	37.45
613.39	58.51
613.54	79.58
613.69	257.46
613.85	662.37
614.00	1118.78
614.15	1032.18
614.31	847.27
614.46	608.54
614.62	411.93
614.77	248.10
614.92	65.54
615.08	128.73
615.23	74.90
615.38	91.28
615.54	37.45
615.69	79.58
615.84	105.32
616.00	278.52
616.15	236.39
616.30	353.42
616.46	175.54
616.61	191.92
616.76	145.11
616.92	84.26
617.07	93.62
617.22	86.60
617.37	30.43
617.53	53.83
617.68	14.04
617.83	30.43
617.99	70.22
618.14	9.36
618.29	21.06
618.45	72.56
618.60	0.00
618.75	44.47
618.90	72.56
619.06	60.85
619.21	100.64
619.36	60.85
619.51	65.54
619.67	81.92
619.82	0.00
619.97	63.19
620.12	11.70
620.28	14.04
620.43	4.68
620.58	58.51
620.73	28.09
620.89	102.98
621.04	63.19
621.19	126.39
621.34	91.28
621.49	201.29
621.65	159.16
621.80	105.32
621.95	65.54
622.10	79.58
622.25	114.69
622.41	35.11
622.56	32.77
622.71	37.45
622.86	53.83
623.01	16.38
623.16	30.43
623.32	56.17
623.47	37.45
623.62	39.79
623.77	21.06
623.92	11.70
624.07	37.45
624.23	46.81
624.38	46.81
624.53	23.41
624.68	65.54
624.83	93.62
624.98	37.45
625.13	2.34
625.29	79.58
625.44	72.56
625.59	0.00
625.74	0.00
625.89	60.85
626.04	175.54
626.19	337.04
626.34	512.58
626.49	557.05
626.65	454.06
626.80	346.40
626.95	212.99
627.10	156.82
627.25	84.26
627.40	46.81
627.55	9.36
627.70	2.34
627.85	53.83
628.00	30.43
628.15	60.85
628.30	72.56
628.45	35.11
628.60	46.81
628.76	21.06
628.91	0.00
629.06	84.26
629.21	95.96
629.36	35.11
629.51	42.13
629.66	42.13
629.81	84.26
629.96	56.17
630.11	196.60
630.26	191.92
630.41	159.16
630.56	152.13
630.71	53.83
630.86	77.24
631.01	28.09
631.16	63.19
631.31	88.94
631.46	58.51
631.61	53.83
631.76	56.17
631.91	56.17
632.06	74.90
632.21	79.58
632.36	100.64
632.51	18.72
632.66	86.60
632.81	86.60
632.96	257.46
633.10	358.10
633.25	388.53
633.40	365.12
633.55	224.69
633.70	133.41
633.85	93.62
634.00	70.22
634.15	147.45
634.30	58.51
634.45	72.56
634.60	77.24
634.75	58.51
634.90	30.43
635.05	44.47
635.19	32.77
635.34	88.94
635.49	35.11
635.64	79.58
635.79	42.13
635.94	105.32
636.09	37.45
636.24	79.58
636.39	67.88
636.53	65.54
636.68	42.13
636.83	0.00
636.98	56.17
637.13	9.36
637.28	51.49
637.43	14.04
637.57	98.30
637.72	161.50
637.87	512.58
638.02	695.14
638.17	725.57
638.32	519.60
638.46	390.87
638.61	313.63
638.76	117.03
638.91	189.58
639.06	152.13
639.20	79.58
639.35	88.94
639.50	100.64
639.65	407.25
639.80	730.25
639.94	1100.05
640.09	1114.10
640.24	798.12
640.39	571.09
640.54	493.85
640.68	271.50
640.83	154.48
640.98	39.79
641.13	91.28
641.27	65.54
641.42	77.24
641.57	95.96
641.72	0.00
641.86	7.02
642.01	18.72
642.16	0.00
642.31	2.34
642.45	79.58
642.60	32.77
642.75	0.00
642.90	70.22
643.04	44.47
643.19	35.11
643.34	7.02
643.48	23.41
643.63	53.83
643.78	112.35
643.93	114.69
644.07	65.54
644.22	25.75
644.37	0.00
644.51	28.09
644.66	0.00
644.81	9.36
644.95	58.51
645.10	21.06
645.25	0.00
645.39	58.51
645.54	23.41
645.69	4.68
645.83	23.41
645.98	28.09
646.13	84.26
646.27	79.58
646.42	0.00
646.57	58.51
646.71	51.49
646.86	0.00
647.00	23.41
647.15	23.41
647.30	0.00
647.44	30.43
647.59	0.00
647.74	91.28
647.88	46.81
648.03	0.00
648.17	9.36
648.32	51.49
648.47	86.60
648.61	2.34
648.76	79.58
648.90	0.00
649.05	28.09
649.20	30.43
649.34	65.54
649.49	39.79
649.63	0.00
649.78	46.81
649.92	100.64
650.07	28.09
650.21	315.97
650.36	475.13
650.51	617.90
650.65	547.69
650.80	313.63
650.94	217.67
651.09	147.45
651.23	39.79
651.38	56.17
651.52	9.36
651.67	32.77
651.81	79.58
651.96	72.56
652.10	7.02
652.25	9.36
652.39	46.81
652.54	32.77
652.68	58.51
652.83	149.79
652.97	220.01
653.12	252.78
653.26	191.92
653.41	191.92
653.55	117.03
653.70	81.92
653.84	67.88
653.99	14.04
654.13	79.58
654.27	0.00
654.42	0.00
654.56	74.90
654.71	44.47
654.85	0.00
655.00	18.72
655.14	9.36
655.29	0.00
655.43	105.32
655.57	74.90
655.72	65.54
655.86	23.41
656.01	21.06
656.15	25.75
656.30	53.83
656.44	16.38
656.58	49.15
656.73	72.56
656.87	16.38
657.01	74.90
657.16	44.47
657.30	25.75
657.45	16.38
657.59	0.00
657.73	79.58
657.88	23.41
658.02	58.51
658.16	23.41
658.31	44.47
658.45	25.75
658.60	21.06
658.74	37.45
658.88	72.56
659.03	21.06
659.17	100.64
659.31	9.36
659.46	121.71
659.60	250.44
659.74	355.76
659.89	348.74
660.03	217.67
660.17	135.75
660.32	79.58
660.46	156.82
660.60	86.60
660.74	23.41
660.89	39.79
661.03	21.06
661.17	51.49
661.32	9.36
661.46	21.06
661.60	2.34
661.74	107.66
661.89	65.54
662.03	44.47
662.17	32.77
662.31	0.00
662.46	32.77
662.60	93.62
662.74	63.19
662.88	23.41
663.03	16.38
663.17	0.00
663.31	60.85
663.45	11.70
663.60	81.92
663.74	32.77
663.88	25.75
664.02	7.02
664.17	0.00
664.31	39.79
664.45	0.00
664.59	39.79
664.73	0.00
664.88	56.17
665.02	23.41
665.16	0.00
665.30	11.70
665.44	0.00
665.59	0.00
665.73	0.00
665.87	79.58
666.01	0.00
666.15	49.15
666.29	77.24
666.44	14.04
666.58	11.70
666.72	16.38
666.86	77.24
667.00	28.09
667.14	30.43
667.28	173.20
667.43	250.44
667.57	360.44
667.71	514.92
667.85	451.72
667.99	346.40
668.13	210.65
668.27	161.50
668.41	84.26
668.56	28.09
668.70	35.11
668.84	74.90
668.98	30.43
669.12	28.09
669.26	44.47
669.40	84.26
669.54	63.19
669.68	35.11
669.82	14.04
669.96	98.30
670.10	0.00
670.25	42.13
670.39	14.04
670.53	67.88
670.67	0.00
670.81	0.00
670.95	56.17
671.09	110.01
671.23	102.98
671.37	224.69
671.51	369.80
671.65	423.64
671.79	252.78
671.93	201.29
672.07	110.01
672.21	51.49
672.35	14.04
672.49	86.60
672.63	35.11
672.77	32.77
672.91	25.75
673.05	14.04
673.19	60.85
673.33	16.38
673.47	16.38
673.61	0.00
673.75	37.45
673.89	60.85
674.03	39.79
674.17	42.13
674.31	53.83
674.45	18.72
674.59	102.98
674.73	0.00
674.87	18.72
675.01	70.22
675.15	44.47
675.29	14.04
675.43	11.70
675.56	84.26
675.70	91.28
675.84	7.02
675.98	28.09
676.12	121.71
676.26	42.13
676.40	42.13
676.54	0.00
676.68	0.00
676.82	0.00
676.96	51.49
677.10	25.75
677.23	51.49
677.37	51.49
677.51	56.17
677.65	39.79
677.79	0.00
677.93	32.77
678.07	14.04
678.21	53.83
678.34	0.00
678.48	14.04
678.62	14.04
678.76	0.00
678.90	11.70
679.04	44.47
679.18	63.19
679.31	0.00
679.45	44.47
679.59	74.90
679.73	0.00
679.87	72.56
680.00	39.79
680.14	42.13
680.28	77.24
680.42	0.00
680.56	56.17
680.70	28.09
680.83	56.17
680.97	11.70
681.11	30.43
681.25	0.00
681.39	79.58
681.52	67.88
681.66	37.45
681.80	14.04
681.94	16.38
682.07	67.88
682.21	35.11
682.35	14.04
682.49	30.43
682.62	0.00
682.76	32.77
682.90	0.00
683.04	58.51
683.17	0.00
683.31	49.15
683.45	37.45
683.59	23.41
683.72	18.72
683.86	74.90
684.00	74.90
684.13	18.72
684.27	4.68
684.41	0.00
684.55	0.00
684.68	4.68
684.82	0.00
684.96	56.17
685.09	0.00
685.23	0.00
685.37	46.81
685.50	72.56
685.64	30.43
685.78	0.00
685.91	95.96
686.05	7.02
686.19	49.15
686.32	147.45
686.46	0.00
686.60	23.41
686.73	16.38
686.87	25.75
687.01	0.00
687.14	35.11
687.28	11.70
687.42	58.51
687.55	21.06
687.69	81.92
687.82	0.00
687.96	49.15
688.10	0.00
688.23	7.02
688.37	42.13
688.50	0.00
688.64	0.00
688.78	0.00
688.91	2.34
689.05	11.70
689.18	16.38
689.32	53.83
689.46	70.22
689.59	0.00
689.73	32.77
689.86	4.68
690.00	105.32
690.13	79.58
690.27	166.18
690.41	16.38
690.54	63.19
690.68	7.02
690.81	14.04
690.95	0.00
691.08	95.96
691.22	35.11
691.35	51.49
691.49	0.00
691.62	0.00
691.76	0.00
691.89	72.56
692.03	51.49
692.16	4.68
692.30	23.41
692.43	35.11
692.57	149.79
692.70	227.03
692.84	208.31
692.97	194.26
693.11	205.97
693.24	138.09
693.38	72.56
693.51	53.83
693.65	93.62
693.78	30.43
693.92	25.75
694.05	39.79
694.19	74.90
694.32	53.83
694.45	18.72
694.59	35.11
694.72	0.00
694.86	72.56
694.99	65.54
695.13	11.70
695.26	0.00
695.39	7.02
695.53	0.00
695.66	56.17
695.80	9.36
695.93	25.75
696.07	51.49
696.20	53.83
696.33	16.38
696.47	95.96
696.60	88.94
696.73	42.13
696.87	32.77
697.00	51.49
697.14	2.34
697.27	0.00
697.40	42.13
697.54	58.51
697.67	67.88
697.80	46.81
697.94	60.85
698.07	25.75
698.21	44.47
698.34	0.00
698.47	65.54
698.61	30.43
698.74	7.02
698.87	16.38
699.01	0.00
699.14	0.00
699.27	35.11
699.40	0.00
699.54	0.00
699.67	2.34
699.80	0.00
699.94	63.19
700.07	51.49
700.20	25.75
700.34	0.00
700.47	0.00
700.60	32.77
700.73	0.00
700.87	0.00
701.00	23.41
701.13	4.68
701.26	70.22
701.40	51.49
701.53	49.15
701.66	0.00
701.79	35.11
701.93	81.92
702.06	88.94
702.19	37.45
702.32	81.92
702.46	65.54
702.59	51.49
702.72	98.30
702.85	264.48
702.99	348.74
703.12	369.80
703.25	440.02
703.38	409.59
703.51	334.70
703.65	301.93
703.78	105.32
703.91	140.43
704.04	28.09
704.17	39.79
704.31	30.43
704.44	7.02
704.57	46.81
704.70	37.45
704.83	32.77
704.96	28.09
705.10	0.00
705.23	42.13
>>>>>End Processed Spectral Data<<<<<
