SpectraSuite Data File
++++++++++++++++++++++++++++++++++++
Date: Fri Oct 04 12:13:32 GMT-05:00 2013
User: price-jones
Dark Spectrum Present: No
Reference Spectrum Present: No
Number of Sampled Component Spectra: 1
Spectrometers: USB2+H05261
Integration Time (usec): 10000 (USB2+H05261)
Spectra Averaged: 1 (USB2+H05261)
Boxcar Smoothing: 0 (USB2+H05261)
Correct for Electrical Dark: No (USB2+H05261)
Strobe/Lamp Enabled: No (USB2+H05261)
Correct for Detector Non-linearity: No (USB2+H05261)
Correct for Stray Light: No (USB2+H05261)
Number of Pixels in Processed Spectrum: 2048
>>>>>Begin Processed Spectral Data<<<<<
365.73	51.49
365.92	51.49
366.12	51.49
366.32	0.00
366.52	0.00
366.72	0.00
366.91	0.00
367.11	0.00
367.31	0.00
367.51	0.00
367.70	0.00
367.90	0.00
368.10	0.00
368.30	0.00
368.49	0.00
368.69	0.00
368.89	0.00
369.09	0.00
369.28	0.00
369.48	0.00
369.68	0.00
369.87	0.00
370.07	0.00
370.27	0.00
370.47	0.00
370.66	0.00
370.86	0.00
371.06	0.00
371.25	0.00
371.45	0.00
371.65	0.00
371.84	0.00
372.04	16.38
372.24	0.00
372.44	0.00
372.63	0.00
372.83	0.00
373.03	21.06
373.22	88.94
373.42	39.79
373.62	49.15
373.81	74.90
374.01	72.56
374.21	28.09
374.40	0.00
374.60	23.41
374.79	91.28
374.99	7.02
375.19	46.81
375.38	39.79
375.58	35.11
375.78	0.00
375.97	53.83
376.17	11.70
376.37	67.88
376.56	7.02
376.76	0.00
376.95	0.00
377.15	4.68
377.35	65.54
377.54	0.00
377.74	28.09
377.93	0.00
378.13	9.36
378.33	0.00
378.52	14.04
378.72	0.00
378.91	30.43
379.11	2.34
379.31	44.47
379.50	0.00
379.70	0.00
379.89	0.00
380.09	14.04
380.28	67.88
380.48	42.13
380.68	0.00
380.87	14.04
381.07	37.45
381.26	51.49
381.46	2.34
381.65	7.02
381.85	51.49
382.04	2.34
382.24	46.81
382.43	16.38
382.63	39.79
382.83	51.49
383.02	110.01
383.22	93.62
383.41	0.00
383.61	9.36
383.80	91.28
384.00	7.02
384.19	0.00
384.39	0.00
384.58	18.72
384.78	0.00
384.97	14.04
385.17	0.00
385.36	23.41
385.56	0.00
385.75	60.85
385.95	16.38
386.14	0.00
386.34	14.04
386.53	0.00
386.72	0.00
386.92	35.11
387.11	21.06
387.31	7.02
387.50	32.77
387.70	79.58
387.89	0.00
388.09	58.51
388.28	0.00
388.48	102.98
388.67	60.85
388.86	7.02
389.06	35.11
389.25	18.72
389.45	0.00
389.64	46.81
389.84	0.00
390.03	39.79
390.22	30.43
390.42	25.75
390.61	28.09
390.81	46.81
391.00	74.90
391.19	98.30
391.39	30.43
391.58	4.68
391.78	16.38
391.97	0.00
392.16	16.38
392.36	0.00
392.55	0.00
392.75	14.04
392.94	51.49
393.13	18.72
393.33	0.00
393.52	37.45
393.71	65.54
393.91	30.43
394.10	0.00
394.29	21.06
394.49	30.43
394.68	9.36
394.88	18.72
395.07	0.00
395.26	23.41
395.46	25.75
395.65	9.36
395.84	0.00
396.04	14.04
396.23	25.75
396.42	28.09
396.62	23.41
396.81	53.83
397.00	0.00
397.19	49.15
397.39	46.81
397.58	16.38
397.77	14.04
397.97	0.00
398.16	65.54
398.35	32.77
398.55	0.00
398.74	65.54
398.93	16.38
399.12	0.00
399.32	30.43
399.51	46.81
399.70	65.54
399.90	0.00
400.09	51.49
400.28	67.88
400.47	0.00
400.67	72.56
400.86	4.68
401.05	39.79
401.24	0.00
401.44	0.00
401.63	100.64
401.82	77.24
402.01	9.36
402.21	0.00
402.40	0.00
402.59	0.00
402.78	14.04
402.97	14.04
403.17	21.06
403.36	0.00
403.55	0.00
403.74	74.90
403.93	35.11
404.13	39.79
404.32	7.02
404.51	67.88
404.70	42.13
404.89	0.00
405.09	39.79
405.28	30.43
405.47	65.54
405.66	0.00
405.85	21.06
406.05	0.00
406.24	14.04
406.43	0.00
406.62	65.54
406.81	2.34
407.00	60.85
407.20	21.06
407.39	39.79
407.58	0.00
407.77	0.00
407.96	51.49
408.15	105.32
408.34	0.00
408.54	32.77
408.73	44.47
408.92	0.00
409.11	0.00
409.30	42.13
409.49	0.00
409.68	23.41
409.87	53.83
410.07	49.15
410.26	79.58
410.45	0.00
410.64	112.35
410.83	65.54
411.02	37.45
411.21	0.00
411.40	65.54
411.59	30.43
411.78	53.83
411.98	0.00
412.17	0.00
412.36	49.15
412.55	0.00
412.74	0.00
412.93	42.13
413.12	42.13
413.31	0.00
413.50	11.70
413.69	72.56
413.88	84.26
414.07	11.70
414.26	4.68
414.45	0.00
414.64	0.00
414.83	0.00
415.02	70.22
415.22	0.00
415.41	23.41
415.60	39.79
415.79	28.09
415.98	53.83
416.17	65.54
416.36	0.00
416.55	30.43
416.74	44.47
416.93	32.77
417.12	7.02
417.31	16.38
417.50	0.00
417.69	49.15
417.88	42.13
418.07	0.00
418.26	65.54
418.45	9.36
418.64	63.19
418.83	0.00
419.02	25.75
419.21	86.60
419.39	60.85
419.58	30.43
419.77	44.47
419.96	0.00
420.15	60.85
420.34	70.22
420.53	77.24
420.72	77.24
420.91	44.47
421.10	0.00
421.29	0.00
421.48	51.49
421.67	39.79
421.86	0.00
422.05	28.09
422.24	65.54
422.43	77.24
422.61	0.00
422.80	0.00
422.99	37.45
423.18	56.17
423.37	0.00
423.56	72.56
423.75	21.06
423.94	44.47
424.13	114.69
424.32	0.00
424.50	63.19
424.69	4.68
424.88	35.11
425.07	49.15
425.26	28.09
425.45	14.04
425.64	7.02
425.83	0.00
426.01	0.00
426.20	58.51
426.39	0.00
426.58	14.04
426.77	0.00
426.96	53.83
427.15	0.00
427.33	0.00
427.52	18.72
427.71	2.34
427.90	14.04
428.09	28.09
428.28	56.17
428.46	37.45
428.65	32.77
428.84	37.45
429.03	4.68
429.22	98.30
429.40	84.26
429.59	74.90
429.78	39.79
429.97	11.70
430.16	49.15
430.34	23.41
430.53	0.00
430.72	11.70
430.91	7.02
431.10	28.09
431.28	0.00
431.47	16.38
431.66	74.90
431.85	2.34
432.03	28.09
432.22	60.85
432.41	7.02
432.60	9.36
432.79	60.85
432.97	21.06
433.16	39.79
433.35	0.00
433.54	21.06
433.72	51.49
433.91	7.02
434.10	86.60
434.28	93.62
434.47	39.79
434.66	42.13
434.85	21.06
435.03	51.49
435.22	0.00
435.41	18.72
435.59	18.72
435.78	58.51
435.97	0.00
436.16	58.51
436.34	42.13
436.53	0.00
436.72	16.38
436.90	65.54
437.09	42.13
437.28	2.34
437.46	49.15
437.65	0.00
437.84	65.54
438.02	51.49
438.21	9.36
438.40	14.04
438.58	88.94
438.77	28.09
438.96	44.47
439.14	72.56
439.33	140.43
439.52	84.26
439.70	0.00
439.89	58.51
440.08	56.17
440.26	72.56
440.45	105.32
440.63	4.68
440.82	74.90
441.01	56.17
441.19	0.00
441.38	58.51
441.57	105.32
441.75	46.81
441.94	0.00
442.12	70.22
442.31	70.22
442.50	91.28
442.68	44.47
442.87	0.00
443.05	88.94
443.24	91.28
443.43	0.00
443.61	37.45
443.80	56.17
443.98	72.56
444.17	11.70
444.35	25.75
444.54	21.06
444.73	77.24
444.91	18.72
445.10	51.49
445.28	25.75
445.47	2.34
445.65	16.38
445.84	28.09
446.02	0.00
446.21	2.34
446.39	30.43
446.58	0.00
446.77	53.83
446.95	51.49
447.14	4.68
447.32	35.11
447.51	0.00
447.69	53.83
447.88	67.88
448.06	0.00
448.25	23.41
448.43	72.56
448.62	53.83
448.80	14.04
448.99	60.85
449.17	70.22
449.36	23.41
449.54	81.92
449.73	51.49
449.91	58.51
450.10	0.00
450.28	0.00
450.46	0.00
450.65	88.94
450.83	30.43
451.02	35.11
451.20	28.09
451.39	58.51
451.57	35.11
451.76	159.16
451.94	28.09
452.13	35.11
452.31	0.00
452.49	2.34
452.68	11.70
452.86	56.17
453.05	0.00
453.23	30.43
453.42	28.09
453.60	58.51
453.78	0.00
453.97	11.70
454.15	72.56
454.34	4.68
454.52	67.88
454.70	128.73
454.89	16.38
455.07	16.38
455.26	0.00
455.44	81.92
455.62	74.90
455.81	0.00
455.99	25.75
456.17	18.72
456.36	25.75
456.54	0.00
456.73	86.60
456.91	4.68
457.09	88.94
457.28	0.00
457.46	51.49
457.64	35.11
457.83	81.92
458.01	65.54
458.19	7.02
458.38	0.00
458.56	11.70
458.74	11.70
458.93	2.34
459.11	11.70
459.29	0.00
459.48	39.79
459.66	49.15
459.84	91.28
460.03	18.72
460.21	0.00
460.39	63.19
460.57	53.83
460.76	0.00
460.94	35.11
461.12	0.00
461.31	23.41
461.49	28.09
461.67	30.43
461.85	102.98
462.04	11.70
462.22	102.98
462.40	21.06
462.59	0.00
462.77	35.11
462.95	28.09
463.13	0.00
463.32	70.22
463.50	0.00
463.68	70.22
463.86	100.64
464.05	42.13
464.23	14.04
464.41	16.38
464.59	86.60
464.78	65.54
464.96	2.34
465.14	77.24
465.32	42.13
465.50	7.02
465.69	39.79
465.87	0.00
466.05	49.15
466.23	46.81
466.41	63.19
466.60	28.09
466.78	49.15
466.96	30.43
467.14	0.00
467.32	79.58
467.51	0.00
467.69	70.22
467.87	60.85
468.05	65.54
468.23	56.17
468.41	102.98
468.60	30.43
468.78	51.49
468.96	30.43
469.14	56.17
469.32	28.09
469.50	84.26
469.69	124.05
469.87	44.47
470.05	86.60
470.23	0.00
470.41	63.19
470.59	107.66
470.77	60.85
470.95	74.90
471.14	0.00
471.32	70.22
471.50	42.13
471.68	18.72
471.86	0.00
472.04	0.00
472.22	0.00
472.40	81.92
472.58	46.81
472.77	74.90
472.95	32.77
473.13	2.34
473.31	44.47
473.49	0.00
473.67	51.49
473.85	72.56
474.03	44.47
474.21	0.00
474.39	18.72
474.57	67.88
474.75	56.17
474.93	60.85
475.12	30.43
475.30	56.17
475.48	9.36
475.66	14.04
475.84	93.62
476.02	30.43
476.20	56.17
476.38	70.22
476.56	32.77
476.74	0.00
476.92	4.68
477.10	77.24
477.28	14.04
477.46	37.45
477.64	84.26
477.82	4.68
478.00	28.09
478.18	0.00
478.36	11.70
478.54	2.34
478.72	63.19
478.90	0.00
479.08	60.85
479.26	35.11
479.44	37.45
479.62	4.68
479.80	2.34
479.98	14.04
480.16	81.92
480.34	65.54
480.52	63.19
480.70	14.04
480.88	72.56
481.06	18.72
481.24	0.00
481.41	98.30
481.59	63.19
481.77	102.98
481.95	16.38
482.13	4.68
482.31	60.85
482.49	39.79
482.67	44.47
482.85	21.06
483.03	63.19
483.21	44.47
483.39	4.68
483.57	4.68
483.74	25.75
483.92	28.09
484.10	51.49
484.28	0.00
484.46	37.45
484.64	2.34
484.82	46.81
485.00	4.68
485.18	49.15
485.35	117.03
485.53	0.00
485.71	0.00
485.89	0.00
486.07	25.75
486.25	49.15
486.43	42.13
486.61	30.43
486.78	28.09
486.96	16.38
487.14	18.72
487.32	63.19
487.50	44.47
487.68	18.72
487.85	79.58
488.03	0.00
488.21	42.13
488.39	53.83
488.57	74.90
488.75	11.70
488.92	102.98
489.10	77.24
489.28	44.47
489.46	42.13
489.64	0.00
489.81	159.16
489.99	0.00
490.17	30.43
490.35	53.83
490.53	46.81
490.70	0.00
490.88	18.72
491.06	102.98
491.24	11.70
491.41	88.94
491.59	39.79
491.77	56.17
491.95	102.98
492.13	23.41
492.30	21.06
492.48	37.45
492.66	46.81
492.84	32.77
493.01	60.85
493.19	72.56
493.37	44.47
493.54	49.15
493.72	37.45
493.90	0.00
494.08	18.72
494.25	28.09
494.43	86.60
494.61	32.77
494.79	77.24
494.96	39.79
495.14	18.72
495.32	0.00
495.49	44.47
495.67	39.79
495.85	9.36
496.02	81.92
496.20	77.24
496.38	11.70
496.55	39.79
496.73	39.79
496.91	39.79
497.09	42.13
497.26	35.11
497.44	65.54
497.62	49.15
497.79	49.15
497.97	21.06
498.14	32.77
498.32	67.88
498.50	53.83
498.67	84.26
498.85	65.54
499.03	16.38
499.20	16.38
499.38	4.68
499.56	14.04
499.73	65.54
499.91	44.47
500.08	0.00
500.26	4.68
500.44	37.45
500.61	79.58
500.79	21.06
500.97	110.01
501.14	74.90
501.32	0.00
501.49	79.58
501.67	32.77
501.84	0.00
502.02	21.06
502.20	72.56
502.37	70.22
502.55	0.00
502.72	58.51
502.90	4.68
503.07	37.45
503.25	28.09
503.43	0.00
503.60	2.34
503.78	42.13
503.95	72.56
504.13	0.00
504.30	72.56
504.48	91.28
504.65	88.94
504.83	42.13
505.01	11.70
505.18	56.17
505.36	88.94
505.53	25.75
505.71	51.49
505.88	67.88
506.06	86.60
506.23	46.81
506.41	49.15
506.58	23.41
506.76	39.79
506.93	86.60
507.11	84.26
507.28	23.41
507.46	35.11
507.63	0.00
507.81	133.41
507.98	0.00
508.16	0.00
508.33	65.54
508.50	2.34
508.68	0.00
508.85	81.92
509.03	112.35
509.20	37.45
509.38	11.70
509.55	63.19
509.73	32.77
509.90	42.13
510.08	9.36
510.25	0.00
510.42	110.01
510.60	18.72
510.77	4.68
510.95	0.00
511.12	72.56
511.30	51.49
511.47	105.32
511.64	0.00
511.82	4.68
511.99	124.05
512.17	88.94
512.34	32.77
512.51	23.41
512.69	35.11
512.86	84.26
513.04	58.51
513.21	65.54
513.38	102.98
513.56	53.83
513.73	39.79
513.90	30.43
514.08	9.36
514.25	9.36
514.43	131.07
514.60	51.49
514.77	35.11
514.95	39.79
515.12	42.13
515.29	49.15
515.47	7.02
515.64	28.09
515.81	91.28
515.99	23.41
516.16	51.49
516.33	70.22
516.51	46.81
516.68	14.04
516.85	0.00
517.03	74.90
517.20	77.24
517.37	0.00
517.54	86.60
517.72	58.51
517.89	63.19
518.06	107.66
518.24	25.75
518.41	67.88
518.58	60.85
518.75	0.00
518.93	0.00
519.10	51.49
519.27	46.81
519.45	0.00
519.62	84.26
519.79	79.58
519.96	0.00
520.14	79.58
520.31	49.15
520.48	39.79
520.65	0.00
520.83	30.43
521.00	46.81
521.17	114.69
521.34	51.49
521.52	51.49
521.69	39.79
521.86	11.70
522.03	32.77
522.20	42.13
522.38	11.70
522.55	44.47
522.72	21.06
522.89	18.72
523.07	67.88
523.24	51.49
523.41	46.81
523.58	51.49
523.75	0.00
523.92	37.45
524.10	0.00
524.27	102.98
524.44	93.62
524.61	25.75
524.78	46.81
524.96	88.94
525.13	114.69
525.30	93.62
525.47	39.79
525.64	32.77
525.81	46.81
525.98	51.49
526.16	35.11
526.33	107.66
526.50	32.77
526.67	32.77
526.84	58.51
527.01	9.36
527.18	56.17
527.36	56.17
527.53	79.58
527.70	21.06
527.87	49.15
528.04	51.49
528.21	67.88
528.38	135.75
528.55	63.19
528.72	0.00
528.89	70.22
529.07	16.38
529.24	4.68
529.41	65.54
529.58	81.92
529.75	46.81
529.92	30.43
530.09	42.13
530.26	58.51
530.43	42.13
530.60	21.06
530.77	100.64
530.94	86.60
531.11	63.19
531.28	16.38
531.46	102.98
531.63	102.98
531.80	28.09
531.97	35.11
532.14	0.00
532.31	60.85
532.48	0.00
532.65	65.54
532.82	58.51
532.99	44.47
533.16	0.00
533.33	32.77
533.50	74.90
533.67	0.00
533.84	0.00
534.01	84.26
534.18	32.77
534.35	95.96
534.52	44.47
534.69	30.43
534.86	25.75
535.03	77.24
535.20	84.26
535.37	7.02
535.54	37.45
535.71	0.00
535.88	30.43
536.05	44.47
536.22	37.45
536.38	16.38
536.55	32.77
536.72	0.00
536.89	23.41
537.06	39.79
537.23	0.00
537.40	105.32
537.57	16.38
537.74	0.00
537.91	35.11
538.08	70.22
538.25	51.49
538.42	9.36
538.59	25.75
538.75	35.11
538.92	72.56
539.09	70.22
539.26	42.13
539.43	30.43
539.60	7.02
539.77	14.04
539.94	37.45
540.11	21.06
540.28	67.88
540.44	51.49
540.61	46.81
540.78	53.83
540.95	28.09
541.12	46.81
541.29	46.81
541.46	84.26
541.62	79.58
541.79	86.60
541.96	21.06
542.13	65.54
542.30	30.43
542.47	4.68
542.63	23.41
542.80	98.30
542.97	100.64
543.14	100.64
543.31	32.77
543.48	74.90
543.64	86.60
543.81	56.17
543.98	60.85
544.15	23.41
544.32	56.17
544.48	0.00
544.65	0.00
544.82	32.77
544.99	0.00
545.16	72.56
545.32	0.00
545.49	49.15
545.66	72.56
545.83	77.24
546.00	0.00
546.16	39.79
546.33	0.00
546.50	32.77
546.67	18.72
546.83	84.26
547.00	105.32
547.17	46.81
547.34	18.72
547.50	74.90
547.67	35.11
547.84	46.81
548.00	86.60
548.17	53.83
548.34	0.00
548.51	46.81
548.67	23.41
548.84	18.72
549.01	0.00
549.18	128.73
549.34	67.88
549.51	0.00
549.68	88.94
549.84	42.13
550.01	9.36
550.18	81.92
550.34	39.79
550.51	63.19
550.68	65.54
550.84	72.56
551.01	60.85
551.18	0.00
551.34	58.51
551.51	0.00
551.68	32.77
551.84	63.19
552.01	28.09
552.18	16.38
552.34	21.06
552.51	14.04
552.68	58.51
552.84	25.75
553.01	65.54
553.18	77.24
553.34	0.00
553.51	16.38
553.67	100.64
553.84	72.56
554.01	25.75
554.17	56.17
554.34	110.01
554.51	56.17
554.67	0.00
554.84	58.51
555.00	65.54
555.17	65.54
555.33	18.72
555.50	107.66
555.67	65.54
555.83	0.00
556.00	51.49
556.16	30.43
556.33	135.75
556.50	11.70
556.66	37.45
556.83	39.79
556.99	72.56
557.16	7.02
557.32	0.00
557.49	23.41
557.65	30.43
557.82	100.64
557.98	2.34
558.15	77.24
558.32	53.83
558.48	11.70
558.65	9.36
558.81	79.58
558.98	25.75
559.14	88.94
559.31	14.04
559.47	30.43
559.64	23.41
559.80	0.00
559.97	11.70
560.13	56.17
560.30	67.88
560.46	0.00
560.63	25.75
560.79	30.43
560.96	7.02
561.12	9.36
561.29	49.15
561.45	0.00
561.61	0.00
561.78	63.19
561.94	0.00
562.11	23.41
562.27	42.13
562.44	2.34
562.60	25.75
562.77	2.34
562.93	39.79
563.10	49.15
563.26	63.19
563.42	32.77
563.59	7.02
563.75	35.11
563.92	39.79
564.08	11.70
564.24	0.00
564.41	84.26
564.57	42.13
564.74	49.15
564.90	72.56
565.07	74.90
565.23	0.00
565.39	60.85
565.56	30.43
565.72	46.81
565.88	0.00
566.05	0.00
566.21	93.62
566.38	77.24
566.54	0.00
566.70	58.51
566.87	9.36
567.03	46.81
567.19	58.51
567.36	28.09
567.52	60.85
567.68	0.00
567.85	23.41
568.01	124.05
568.17	39.79
568.34	16.38
568.50	49.15
568.66	18.72
568.83	77.24
568.99	58.51
569.15	23.41
569.32	98.30
569.48	98.30
569.64	25.75
569.81	16.38
569.97	42.13
570.13	0.00
570.30	35.11
570.46	28.09
570.62	16.38
570.78	18.72
570.95	25.75
571.11	0.00
571.27	21.06
571.43	77.24
571.60	11.70
571.76	21.06
571.92	32.77
572.09	2.34
572.25	23.41
572.41	14.04
572.57	2.34
572.74	35.11
572.90	25.75
573.06	28.09
573.22	18.72
573.38	30.43
573.55	7.02
573.71	44.47
573.87	79.58
574.03	93.62
574.20	39.79
574.36	60.85
574.52	21.06
574.68	77.24
574.84	23.41
575.01	46.81
575.17	37.45
575.33	9.36
575.49	18.72
575.65	30.43
575.82	16.38
575.98	112.35
576.14	81.92
576.30	28.09
576.46	51.49
576.62	16.38
576.79	56.17
576.95	112.35
577.11	65.54
577.27	42.13
577.43	67.88
577.59	91.28
577.75	53.83
577.92	156.82
578.08	98.30
578.24	93.62
578.40	93.62
578.56	91.28
578.72	16.38
578.88	21.06
579.04	51.49
579.21	46.81
579.37	72.56
579.53	63.19
579.69	0.00
579.85	0.00
580.01	32.77
580.17	0.00
580.33	49.15
580.49	21.06
580.65	102.98
580.82	42.13
580.98	2.34
581.14	0.00
581.30	63.19
581.46	0.00
581.62	58.51
581.78	49.15
581.94	0.00
582.10	23.41
582.26	14.04
582.42	7.02
582.58	63.19
582.74	25.75
582.90	9.36
583.06	0.00
583.22	51.49
583.38	0.00
583.54	56.17
583.70	53.83
583.86	35.11
584.02	39.79
584.18	0.00
584.34	72.56
584.50	14.04
584.66	72.56
584.82	0.00
584.98	0.00
585.14	110.01
585.30	21.06
585.46	46.81
585.62	21.06
585.78	0.00
585.94	30.43
586.10	0.00
586.26	7.02
586.42	81.92
586.58	25.75
586.74	16.38
586.90	81.92
587.06	56.17
587.22	128.73
587.38	58.51
587.54	72.56
587.70	74.90
587.86	18.72
588.02	7.02
588.18	0.00
588.34	39.79
588.49	16.38
588.65	63.19
588.81	46.81
588.97	51.49
589.13	74.90
589.29	65.54
589.45	0.00
589.61	16.38
589.77	18.72
589.93	0.00
590.08	79.58
590.24	65.54
590.40	0.00
590.56	56.17
590.72	14.04
590.88	0.00
591.04	32.77
591.20	53.83
591.35	49.15
591.51	16.38
591.67	9.36
591.83	7.02
591.99	11.70
592.15	72.56
592.31	4.68
592.46	63.19
592.62	91.28
592.78	65.54
592.94	7.02
593.10	49.15
593.26	81.92
593.41	32.77
593.57	42.13
593.73	77.24
593.89	23.41
594.05	0.00
594.20	0.00
594.36	32.77
594.52	140.43
594.68	25.75
594.84	93.62
594.99	39.79
595.15	58.51
595.31	0.00
595.47	42.13
595.62	14.04
595.78	25.75
595.94	35.11
596.10	56.17
596.25	74.90
596.41	0.00
596.57	74.90
596.73	2.34
596.88	11.70
597.04	49.15
597.20	56.17
597.36	35.11
597.51	58.51
597.67	25.75
597.83	93.62
597.99	9.36
598.14	56.17
598.30	39.79
598.46	30.43
598.61	70.22
598.77	121.71
598.93	56.17
599.09	21.06
599.24	72.56
599.40	152.13
599.56	46.81
599.71	0.00
599.87	9.36
600.03	56.17
600.18	30.43
600.34	84.26
600.50	70.22
600.65	95.96
600.81	9.36
600.97	98.30
601.12	44.47
601.28	56.17
601.44	37.45
601.59	39.79
601.75	46.81
601.91	4.68
602.06	70.22
602.22	0.00
602.37	0.00
602.53	9.36
602.69	21.06
602.84	0.00
603.00	0.00
603.16	18.72
603.31	49.15
603.47	42.13
603.62	25.75
603.78	124.05
603.94	67.88
604.09	46.81
604.25	72.56
604.40	14.04
604.56	63.19
604.71	30.43
604.87	112.35
605.03	37.45
605.18	46.81
605.34	21.06
605.49	37.45
605.65	32.77
605.80	0.00
605.96	65.54
606.12	32.77
606.27	0.00
606.43	14.04
606.58	23.41
606.74	18.72
606.89	14.04
607.05	65.54
607.20	32.77
607.36	0.00
607.51	65.54
607.67	107.66
607.82	25.75
607.98	72.56
608.13	25.75
608.29	72.56
608.44	44.47
608.60	58.51
608.75	67.88
608.91	32.77
609.06	37.45
609.22	0.00
609.37	23.41
609.53	0.00
609.68	44.47
609.84	0.00
609.99	28.09
610.15	51.49
610.30	35.11
610.46	46.81
610.61	72.56
610.76	121.71
610.92	74.90
611.07	28.09
611.23	56.17
611.38	67.88
611.54	11.70
611.69	49.15
611.84	79.58
612.00	67.88
612.15	28.09
612.31	28.09
612.46	21.06
612.62	70.22
612.77	46.81
612.92	140.43
613.08	58.51
613.23	63.19
613.39	0.00
613.54	30.43
613.69	0.00
613.85	23.41
614.00	91.28
614.15	91.28
614.31	58.51
614.46	56.17
614.62	0.00
614.77	46.81
614.92	25.75
615.08	14.04
615.23	0.00
615.38	14.04
615.54	56.17
615.69	28.09
615.84	0.00
616.00	67.88
616.15	131.07
616.30	0.00
616.46	46.81
616.61	60.85
616.76	51.49
616.92	74.90
617.07	44.47
617.22	95.96
617.37	0.00
617.53	53.83
617.68	0.00
617.83	49.15
617.99	126.39
618.14	39.79
618.29	56.17
618.45	58.51
618.60	0.00
618.75	0.00
618.90	0.00
619.06	9.36
619.21	63.19
619.36	79.58
619.51	18.72
619.67	9.36
619.82	0.00
619.97	39.79
620.12	30.43
620.28	25.75
620.43	81.92
620.58	18.72
620.73	35.11
620.89	0.00
621.04	37.45
621.19	28.09
621.34	9.36
621.49	2.34
621.65	77.24
621.80	72.56
621.95	0.00
622.10	42.13
622.25	63.19
622.41	56.17
622.56	14.04
622.71	0.00
622.86	39.79
623.01	16.38
623.16	98.30
623.32	51.49
623.47	46.81
623.62	0.00
623.77	46.81
623.92	0.00
624.07	0.00
624.23	91.28
624.38	30.43
624.53	51.49
624.68	4.68
624.83	70.22
624.98	88.94
625.13	30.43
625.29	39.79
625.44	0.00
625.59	28.09
625.74	72.56
625.89	4.68
626.04	0.00
626.19	65.54
626.34	46.81
626.49	49.15
626.65	0.00
626.80	25.75
626.95	0.00
627.10	67.88
627.25	0.00
627.40	0.00
627.55	98.30
627.70	0.00
627.85	0.00
628.00	56.17
628.15	23.41
628.30	30.43
628.45	42.13
628.60	7.02
628.76	0.00
628.91	23.41
629.06	107.66
629.21	18.72
629.36	42.13
629.51	30.43
629.66	56.17
629.81	21.06
629.96	7.02
630.11	0.00
630.26	0.00
630.41	0.00
630.56	4.68
630.71	23.41
630.86	49.15
631.01	39.79
631.16	74.90
631.31	84.26
631.46	95.96
631.61	114.69
631.76	63.19
631.91	0.00
632.06	77.24
632.21	42.13
632.36	35.11
632.51	42.13
632.66	7.02
632.81	67.88
632.96	0.00
633.10	0.00
633.25	46.81
633.40	95.96
633.55	51.49
633.70	7.02
633.85	107.66
634.00	81.92
634.15	70.22
634.30	56.17
634.45	0.00
634.60	46.81
634.75	39.79
634.90	23.41
635.05	9.36
635.19	0.00
635.34	16.38
635.49	53.83
635.64	0.00
635.79	0.00
635.94	56.17
636.09	49.15
636.24	0.00
636.39	56.17
636.53	60.85
636.68	21.06
636.83	0.00
636.98	9.36
637.13	28.09
637.28	0.00
637.43	117.03
637.57	23.41
637.72	30.43
637.87	93.62
638.02	67.88
638.17	25.75
638.32	0.00
638.46	58.51
638.61	23.41
638.76	14.04
638.91	32.77
639.06	9.36
639.20	28.09
639.35	53.83
639.50	25.75
639.65	0.00
639.80	102.98
639.94	0.00
640.09	39.79
640.24	60.85
640.39	0.00
640.54	25.75
640.68	39.79
640.83	0.00
640.98	30.43
641.13	112.35
641.27	0.00
641.42	53.83
641.57	32.77
641.72	35.11
641.86	30.43
642.01	16.38
642.16	9.36
642.31	56.17
642.45	18.72
642.60	11.70
642.75	53.83
642.90	42.13
643.04	53.83
643.19	32.77
643.34	9.36
643.48	58.51
643.63	32.77
643.78	32.77
643.93	58.51
644.07	77.24
644.22	53.83
644.37	58.51
644.51	14.04
644.66	72.56
644.81	25.75
644.95	0.00
645.10	74.90
645.25	11.70
645.39	86.60
645.54	46.81
645.69	70.22
645.83	16.38
645.98	21.06
646.13	9.36
646.27	0.00
646.42	67.88
646.57	28.09
646.71	51.49
646.86	56.17
647.00	4.68
647.15	51.49
647.30	28.09
647.44	42.13
647.59	28.09
647.74	37.45
647.88	4.68
648.03	23.41
648.17	39.79
648.32	56.17
648.47	28.09
648.61	30.43
648.76	0.00
648.90	0.00
649.05	39.79
649.20	25.75
649.34	39.79
649.49	88.94
649.63	65.54
649.78	21.06
649.92	0.00
650.07	79.58
650.21	128.73
650.36	42.13
650.51	9.36
650.65	58.51
650.80	0.00
650.94	32.77
651.09	23.41
651.23	28.09
651.38	0.00
651.52	49.15
651.67	60.85
651.81	39.79
651.96	42.13
652.10	14.04
652.25	0.00
652.39	7.02
652.54	49.15
652.68	18.72
652.83	60.85
652.97	42.13
653.12	7.02
653.26	72.56
653.41	77.24
653.55	58.51
653.70	93.62
653.84	11.70
653.99	0.00
654.13	44.47
654.27	0.00
654.42	25.75
654.56	98.30
654.71	28.09
654.85	74.90
655.00	25.75
655.14	0.00
655.29	7.02
655.43	0.00
655.57	23.41
655.72	35.11
655.86	28.09
656.01	86.60
656.15	65.54
656.30	46.81
656.44	63.19
656.58	0.00
656.73	0.00
656.87	0.00
657.01	4.68
657.16	60.85
657.30	49.15
657.45	7.02
657.59	37.45
657.73	11.70
657.88	25.75
658.02	0.00
658.16	42.13
658.31	53.83
658.45	18.72
658.60	2.34
658.74	37.45
658.88	11.70
659.03	72.56
659.17	7.02
659.31	121.71
659.46	0.00
659.60	16.38
659.74	4.68
659.89	11.70
660.03	0.00
660.17	79.58
660.32	0.00
660.46	84.26
660.60	46.81
660.74	95.96
660.89	58.51
661.03	0.00
661.17	0.00
661.32	42.13
661.46	0.00
661.60	44.47
661.74	16.38
661.89	35.11
662.03	0.00
662.17	14.04
662.31	110.01
662.46	37.45
662.60	32.77
662.74	9.36
662.88	16.38
663.03	35.11
663.17	0.00
663.31	63.19
663.45	0.00
663.60	56.17
663.74	25.75
663.88	25.75
664.02	2.34
664.17	81.92
664.31	2.34
664.45	58.51
664.59	7.02
664.73	77.24
664.88	51.49
665.02	9.36
665.16	0.00
665.30	14.04
665.44	60.85
665.59	67.88
665.73	56.17
665.87	21.06
666.01	53.83
666.15	0.00
666.29	0.00
666.44	56.17
666.58	42.13
666.72	9.36
666.86	0.00
667.00	37.45
667.14	11.70
667.28	56.17
667.43	0.00
667.57	37.45
667.71	11.70
667.85	51.49
667.99	51.49
668.13	46.81
668.27	14.04
668.41	49.15
668.56	79.58
668.70	0.00
668.84	18.72
668.98	32.77
669.12	0.00
669.26	72.56
669.40	72.56
669.54	0.00
669.68	56.17
669.82	0.00
669.96	60.85
670.10	23.41
670.25	23.41
670.39	35.11
670.53	14.04
670.67	51.49
670.81	23.41
670.95	4.68
671.09	49.15
671.23	21.06
671.37	53.83
671.51	117.03
671.65	44.47
671.79	0.00
671.93	81.92
672.07	37.45
672.21	32.77
672.35	56.17
672.49	0.00
672.63	23.41
672.77	25.75
672.91	4.68
673.05	0.00
673.19	9.36
673.33	0.00
673.47	0.00
673.61	0.00
673.75	60.85
673.89	0.00
674.03	0.00
674.17	0.00
674.31	32.77
674.45	0.00
674.59	16.38
674.73	0.00
674.87	28.09
675.01	23.41
675.15	46.81
675.29	39.79
675.43	0.00
675.56	58.51
675.70	0.00
675.84	23.41
675.98	0.00
676.12	0.00
676.26	14.04
676.40	0.00
676.54	49.15
676.68	21.06
676.82	51.49
676.96	16.38
677.10	25.75
677.23	11.70
677.37	28.09
677.51	91.28
677.65	23.41
677.79	9.36
677.93	25.75
678.07	28.09
678.21	11.70
678.34	51.49
678.48	74.90
678.62	46.81
678.76	25.75
678.90	9.36
679.04	74.90
679.18	93.62
679.31	35.11
679.45	4.68
679.59	0.00
679.73	121.71
679.87	16.38
680.00	119.37
680.14	0.00
680.28	49.15
680.42	2.34
680.56	39.79
680.70	14.04
680.83	72.56
680.97	65.54
681.11	0.00
681.25	0.00
681.39	65.54
681.52	0.00
681.66	63.19
681.80	84.26
681.94	11.70
682.07	39.79
682.21	86.60
682.35	79.58
682.49	0.00
682.62	42.13
682.76	35.11
682.90	74.90
683.04	65.54
683.17	23.41
683.31	79.58
683.45	9.36
683.59	0.00
683.72	25.75
683.86	72.56
684.00	4.68
684.13	56.17
684.27	86.60
684.41	79.58
684.55	0.00
684.68	81.92
684.82	14.04
684.96	37.45
685.09	0.00
685.23	77.24
685.37	0.00
685.50	77.24
685.64	84.26
685.78	84.26
685.91	77.24
686.05	0.00
686.19	77.24
686.32	84.26
686.46	86.60
686.60	25.75
686.73	86.60
686.87	65.54
687.01	46.81
687.14	0.00
687.28	70.22
687.42	51.49
687.55	21.06
687.69	14.04
687.82	0.00
687.96	42.13
688.10	4.68
688.23	49.15
688.37	18.72
688.50	0.00
688.64	23.41
688.78	18.72
688.91	0.00
689.05	100.64
689.18	49.15
689.32	2.34
689.46	42.13
689.59	74.90
689.73	60.85
689.86	0.00
690.00	0.00
690.13	72.56
690.27	30.43
690.41	53.83
690.54	98.30
690.68	53.83
690.81	58.51
690.95	14.04
691.08	0.00
691.22	37.45
691.35	86.60
691.49	4.68
691.62	81.92
691.76	46.81
691.89	4.68
692.03	93.62
692.16	72.56
692.30	39.79
692.43	21.06
692.57	51.49
692.70	18.72
692.84	72.56
692.97	16.38
693.11	21.06
693.24	35.11
693.38	25.75
693.51	67.88
693.65	53.83
693.78	7.02
693.92	0.00
694.05	37.45
694.19	44.47
694.32	0.00
694.45	9.36
694.59	32.77
694.72	25.75
694.86	32.77
694.99	0.00
695.13	46.81
695.26	60.85
695.39	0.00
695.53	32.77
695.66	58.51
695.80	7.02
695.93	0.00
696.07	60.85
696.20	56.17
696.33	0.00
696.47	58.51
696.60	44.47
696.73	42.13
696.87	9.36
697.00	11.70
697.14	0.00
697.27	0.00
697.40	53.83
697.54	30.43
697.67	44.47
697.80	112.35
697.94	2.34
698.07	70.22
698.21	14.04
698.34	0.00
698.47	0.00
698.61	37.45
698.74	56.17
698.87	53.83
699.01	14.04
699.14	0.00
699.27	58.51
699.40	51.49
699.54	9.36
699.67	35.11
699.80	14.04
699.94	32.77
700.07	28.09
700.20	0.00
700.34	0.00
700.47	0.00
700.60	30.43
700.73	39.79
700.87	28.09
701.00	51.49
701.13	39.79
701.26	0.00
701.40	51.49
701.53	0.00
701.66	25.75
701.79	79.58
701.93	23.41
702.06	70.22
702.19	56.17
702.32	112.35
702.46	49.15
702.59	18.72
702.72	28.09
702.85	0.00
702.99	0.00
703.12	46.81
703.25	30.43
703.38	16.38
703.51	70.22
703.65	0.00
703.78	0.00
703.91	35.11
704.04	117.03
704.17	21.06
704.31	0.00
704.44	35.11
704.57	98.30
704.70	7.02
704.83	67.88
704.96	14.04
705.10	74.90
705.23	39.79
>>>>>End Processed Spectral Data<<<<<
