SpectraSuite Data File
++++++++++++++++++++++++++++++++++++
Date: Fri Oct 04 12:13:37 GMT-05:00 2013
User: price-jones
Dark Spectrum Present: No
Reference Spectrum Present: No
Number of Sampled Component Spectra: 1
Spectrometers: USB2+H05261
Integration Time (usec): 10000 (USB2+H05261)
Spectra Averaged: 1 (USB2+H05261)
Boxcar Smoothing: 0 (USB2+H05261)
Correct for Electrical Dark: No (USB2+H05261)
Strobe/Lamp Enabled: No (USB2+H05261)
Correct for Detector Non-linearity: No (USB2+H05261)
Correct for Stray Light: No (USB2+H05261)
Number of Pixels in Processed Spectrum: 2048
>>>>>Begin Processed Spectral Data<<<<<
365.73	100.64
365.92	100.64
366.12	100.64
366.32	0.00
366.52	0.00
366.72	0.00
366.91	0.00
367.11	0.00
367.31	0.00
367.51	0.00
367.70	0.00
367.90	0.00
368.10	0.00
368.30	0.00
368.49	0.00
368.69	0.00
368.89	0.00
369.09	0.00
369.28	0.00
369.48	0.00
369.68	0.00
369.87	0.00
370.07	0.00
370.27	0.00
370.47	0.00
370.66	0.00
370.86	0.00
371.06	0.00
371.25	0.00
371.45	0.00
371.65	16.38
371.84	0.00
372.04	0.00
372.24	53.83
372.44	0.00
372.63	0.00
372.83	0.00
373.03	63.19
373.22	0.00
373.42	44.47
373.62	0.00
373.81	9.36
374.01	16.38
374.21	77.24
374.40	65.54
374.60	51.49
374.79	0.00
374.99	9.36
375.19	53.83
375.38	0.00
375.58	14.04
375.78	56.17
375.97	81.92
376.17	79.58
376.37	0.00
376.56	32.77
376.76	51.49
376.95	28.09
377.15	63.19
377.35	46.81
377.54	18.72
377.74	53.83
377.93	0.00
378.13	0.00
378.33	35.11
378.52	7.02
378.72	23.41
378.91	0.00
379.11	0.00
379.31	0.00
379.50	0.00
379.70	0.00
379.89	37.45
380.09	9.36
380.28	16.38
380.48	11.70
380.68	25.75
380.87	11.70
381.07	0.00
381.26	0.00
381.46	14.04
381.65	93.62
381.85	25.75
382.04	51.49
382.24	0.00
382.43	42.13
382.63	37.45
382.83	0.00
383.02	65.54
383.22	51.49
383.41	2.34
383.61	72.56
383.80	42.13
384.00	0.00
384.19	0.00
384.39	58.51
384.58	23.41
384.78	0.00
384.97	0.00
385.17	2.34
385.36	35.11
385.56	42.13
385.75	0.00
385.95	7.02
386.14	74.90
386.34	0.00
386.53	14.04
386.72	0.00
386.92	0.00
387.11	35.11
387.31	16.38
387.50	28.09
387.70	9.36
387.89	0.00
388.09	9.36
388.28	0.00
388.48	58.51
388.67	0.00
388.86	14.04
389.06	74.90
389.25	63.19
389.45	46.81
389.64	21.06
389.84	28.09
390.03	11.70
390.22	23.41
390.42	35.11
390.61	72.56
390.81	25.75
391.00	0.00
391.19	18.72
391.39	0.00
391.58	7.02
391.78	100.64
391.97	9.36
392.16	0.00
392.36	0.00
392.55	70.22
392.75	32.77
392.94	105.32
393.13	21.06
393.33	37.45
393.52	0.00
393.71	0.00
393.91	79.58
394.10	60.85
394.29	14.04
394.49	4.68
394.68	37.45
394.88	60.85
395.07	0.00
395.26	60.85
395.46	25.75
395.65	25.75
395.84	23.41
396.04	79.58
396.23	0.00
396.42	14.04
396.62	25.75
396.81	0.00
397.00	2.34
397.19	46.81
397.39	0.00
397.58	46.81
397.77	81.92
397.97	53.83
398.16	58.51
398.35	28.09
398.55	56.17
398.74	142.77
398.93	65.54
399.12	21.06
399.32	9.36
399.51	60.85
399.70	51.49
399.90	0.00
400.09	25.75
400.28	0.00
400.47	32.77
400.67	0.00
400.86	63.19
401.05	0.00
401.24	70.22
401.44	42.13
401.63	21.06
401.82	74.90
402.01	0.00
402.21	58.51
402.40	44.47
402.59	2.34
402.78	0.00
402.97	7.02
403.17	14.04
403.36	0.00
403.55	128.73
403.74	128.73
403.93	11.70
404.13	28.09
404.32	74.90
404.51	112.35
404.70	117.03
404.89	0.00
405.09	18.72
405.28	9.36
405.47	7.02
405.66	60.85
405.85	77.24
406.05	35.11
406.24	74.90
406.43	0.00
406.62	23.41
406.81	16.38
407.00	0.00
407.20	16.38
407.39	46.81
407.58	102.98
407.77	28.09
407.96	30.43
408.15	25.75
408.34	0.00
408.54	23.41
408.73	0.00
408.92	70.22
409.11	93.62
409.30	58.51
409.49	23.41
409.68	42.13
409.87	23.41
410.07	0.00
410.26	58.51
410.45	28.09
410.64	23.41
410.83	79.58
411.02	49.15
411.21	42.13
411.40	0.00
411.59	9.36
411.78	23.41
411.98	25.75
412.17	56.17
412.36	30.43
412.55	95.96
412.74	42.13
412.93	44.47
413.12	4.68
413.31	9.36
413.50	18.72
413.69	56.17
413.88	53.83
414.07	14.04
414.26	77.24
414.45	58.51
414.64	16.38
414.83	39.79
415.02	100.64
415.22	32.77
415.41	0.00
415.60	9.36
415.79	63.19
415.98	105.32
416.17	35.11
416.36	28.09
416.55	77.24
416.74	18.72
416.93	9.36
417.12	21.06
417.31	93.62
417.50	37.45
417.69	53.83
417.88	51.49
418.07	35.11
418.26	42.13
418.45	67.88
418.64	67.88
418.83	16.38
419.02	67.88
419.21	7.02
419.39	16.38
419.58	70.22
419.77	65.54
419.96	30.43
420.15	86.60
420.34	74.90
420.53	131.07
420.72	0.00
420.91	100.64
421.10	11.70
421.29	44.47
421.48	65.54
421.67	63.19
421.86	21.06
422.05	18.72
422.24	0.00
422.43	65.54
422.61	0.00
422.80	63.19
422.99	74.90
423.18	65.54
423.37	117.03
423.56	95.96
423.75	65.54
423.94	86.60
424.13	72.56
424.32	4.68
424.50	135.75
424.69	102.98
424.88	105.32
425.07	18.72
425.26	14.04
425.45	25.75
425.64	67.88
425.83	72.56
426.01	32.77
426.20	72.56
426.39	32.77
426.58	91.28
426.77	2.34
426.96	44.47
427.15	60.85
427.33	28.09
427.52	63.19
427.71	46.81
427.90	93.62
428.09	21.06
428.28	65.54
428.46	42.13
428.65	16.38
428.84	0.00
429.03	9.36
429.22	37.45
429.40	14.04
429.59	16.38
429.78	0.00
429.97	0.00
430.16	0.00
430.34	11.70
430.53	11.70
430.72	0.00
430.91	39.79
431.10	35.11
431.28	35.11
431.47	65.54
431.66	21.06
431.85	58.51
432.03	18.72
432.22	42.13
432.41	67.88
432.60	56.17
432.79	91.28
432.97	39.79
433.16	49.15
433.35	35.11
433.54	2.34
433.72	91.28
433.91	67.88
434.10	140.43
434.28	37.45
434.47	42.13
434.66	37.45
434.85	65.54
435.03	49.15
435.22	0.00
435.41	46.81
435.59	44.47
435.78	46.81
435.97	95.96
436.16	4.68
436.34	32.77
436.53	56.17
436.72	25.75
436.90	7.02
437.09	18.72
437.28	56.17
437.46	23.41
437.65	51.49
437.84	42.13
438.02	70.22
438.21	102.98
438.40	53.83
438.58	21.06
438.77	86.60
438.96	46.81
439.14	51.49
439.33	102.98
439.52	0.00
439.70	42.13
439.89	37.45
440.08	112.35
440.26	35.11
440.45	35.11
440.63	51.49
440.82	30.43
441.01	58.51
441.19	32.77
441.38	63.19
441.57	60.85
441.75	16.38
441.94	37.45
442.12	65.54
442.31	0.00
442.50	67.88
442.68	11.70
442.87	39.79
443.05	53.83
443.24	35.11
443.43	72.56
443.61	145.11
443.80	72.56
443.98	46.81
444.17	107.66
444.35	65.54
444.54	0.00
444.73	46.81
444.91	18.72
445.10	63.19
445.28	21.06
445.47	49.15
445.65	70.22
445.84	53.83
446.02	0.00
446.21	25.75
446.39	91.28
446.58	49.15
446.77	9.36
446.95	65.54
447.14	67.88
447.32	60.85
447.51	9.36
447.69	93.62
447.88	67.88
448.06	30.43
448.25	35.11
448.43	25.75
448.62	21.06
448.80	58.51
448.99	16.38
449.17	4.68
449.36	37.45
449.54	39.79
449.73	88.94
449.91	81.92
450.10	79.58
450.28	77.24
450.46	7.02
450.65	119.37
450.83	30.43
451.02	107.66
451.20	67.88
451.39	58.51
451.57	79.58
451.76	11.70
451.94	110.01
452.13	70.22
452.31	0.00
452.49	42.13
452.68	107.66
452.86	112.35
453.05	0.00
453.23	23.41
453.42	37.45
453.60	49.15
453.78	60.85
453.97	107.66
454.15	63.19
454.34	18.72
454.52	65.54
454.70	44.47
454.89	67.88
455.07	25.75
455.26	39.79
455.44	110.01
455.62	37.45
455.81	11.70
455.99	100.64
456.17	63.19
456.36	72.56
456.54	14.04
456.73	56.17
456.91	119.37
457.09	23.41
457.28	98.30
457.46	0.00
457.64	84.26
457.83	30.43
458.01	42.13
458.19	67.88
458.38	51.49
458.56	18.72
458.74	72.56
458.93	60.85
459.11	74.90
459.29	0.00
459.48	53.83
459.66	44.47
459.84	30.43
460.03	91.28
460.21	25.75
460.39	37.45
460.57	60.85
460.76	30.43
460.94	51.49
461.12	56.17
461.31	35.11
461.49	119.37
461.67	42.13
461.85	117.03
462.04	72.56
462.22	140.43
462.40	112.35
462.59	107.66
462.77	74.90
462.95	39.79
463.13	46.81
463.32	0.00
463.50	58.51
463.68	88.94
463.86	72.56
464.05	63.19
464.23	81.92
464.41	81.92
464.59	9.36
464.78	53.83
464.96	72.56
465.14	39.79
465.32	14.04
465.50	95.96
465.69	98.30
465.87	117.03
466.05	7.02
466.23	156.82
466.41	95.96
466.60	88.94
466.78	105.32
466.96	0.00
467.14	63.19
467.32	63.19
467.51	37.45
467.69	16.38
467.87	84.26
468.05	2.34
468.23	63.19
468.41	86.60
468.60	49.15
468.78	51.49
468.96	28.09
469.14	30.43
469.32	86.60
469.50	32.77
469.69	46.81
469.87	46.81
470.05	2.34
470.23	56.17
470.41	51.49
470.59	88.94
470.77	9.36
470.95	32.77
471.14	16.38
471.32	42.13
471.50	11.70
471.68	65.54
471.86	56.17
472.04	21.06
472.22	93.62
472.40	4.68
472.58	32.77
472.77	63.19
472.95	91.28
473.13	72.56
473.31	25.75
473.49	131.07
473.67	88.94
473.85	49.15
474.03	63.19
474.21	63.19
474.39	49.15
474.57	63.19
474.75	49.15
474.93	79.58
475.12	72.56
475.30	28.09
475.48	0.00
475.66	0.00
475.84	65.54
476.02	60.85
476.20	35.11
476.38	56.17
476.56	67.88
476.74	14.04
476.92	46.81
477.10	86.60
477.28	140.43
477.46	28.09
477.64	25.75
477.82	35.11
478.00	88.94
478.18	98.30
478.36	21.06
478.54	70.22
478.72	135.75
478.90	93.62
479.08	133.41
479.26	77.24
479.44	51.49
479.62	65.54
479.80	0.00
479.98	35.11
480.16	74.90
480.34	37.45
480.52	44.47
480.70	93.62
480.88	0.00
481.06	58.51
481.24	35.11
481.41	53.83
481.59	117.03
481.77	100.64
481.95	49.15
482.13	42.13
482.31	74.90
482.49	42.13
482.67	145.11
482.85	58.51
483.03	49.15
483.21	72.56
483.39	65.54
483.57	35.11
483.74	56.17
483.92	74.90
484.10	28.09
484.28	56.17
484.46	63.19
484.64	124.05
484.82	88.94
485.00	23.41
485.18	84.26
485.35	72.56
485.53	65.54
485.71	51.49
485.89	88.94
486.07	14.04
486.25	88.94
486.43	16.38
486.61	58.51
486.78	37.45
486.96	63.19
487.14	60.85
487.32	72.56
487.50	51.49
487.68	58.51
487.85	88.94
488.03	58.51
488.21	105.32
488.39	114.69
488.57	81.92
488.75	81.92
488.92	128.73
489.10	105.32
489.28	105.32
489.46	93.62
489.64	49.15
489.81	79.58
489.99	119.37
490.17	112.35
490.35	74.90
490.53	70.22
490.70	30.43
490.88	128.73
491.06	84.26
491.24	25.75
491.41	88.94
491.59	140.43
491.77	67.88
491.95	74.90
492.13	98.30
492.30	56.17
492.48	100.64
492.66	77.24
492.84	74.90
493.01	175.54
493.19	60.85
493.37	56.17
493.54	0.00
493.72	65.54
493.90	32.77
494.08	0.00
494.25	65.54
494.43	98.30
494.61	74.90
494.79	77.24
494.96	30.43
495.14	84.26
495.32	105.32
495.49	0.00
495.67	74.90
495.85	81.92
496.02	95.96
496.20	100.64
496.38	70.22
496.55	0.00
496.73	0.00
496.91	18.72
497.09	128.73
497.26	23.41
497.44	117.03
497.62	30.43
497.79	77.24
497.97	81.92
498.14	77.24
498.32	51.49
498.50	119.37
498.67	63.19
498.85	11.70
499.03	72.56
499.20	112.35
499.38	56.17
499.56	0.00
499.73	117.03
499.91	65.54
500.08	86.60
500.26	58.51
500.44	93.62
500.61	107.66
500.79	74.90
500.97	60.85
501.14	105.32
501.32	79.58
501.49	25.75
501.67	23.41
501.84	79.58
502.02	28.09
502.20	35.11
502.37	154.48
502.55	100.64
502.72	53.83
502.90	81.92
503.07	140.43
503.25	100.64
503.43	11.70
503.60	49.15
503.78	168.52
503.95	58.51
504.13	145.11
504.30	74.90
504.48	121.71
504.65	107.66
504.83	98.30
505.01	86.60
505.18	72.56
505.36	156.82
505.53	16.38
505.71	81.92
505.88	46.81
506.06	65.54
506.23	39.79
506.41	105.32
506.58	142.77
506.76	91.28
506.93	35.11
507.11	100.64
507.28	65.54
507.46	91.28
507.63	93.62
507.81	0.00
507.98	81.92
508.16	23.41
508.33	44.47
508.50	39.79
508.68	95.96
508.85	79.58
509.03	117.03
509.20	51.49
509.38	107.66
509.55	0.00
509.73	138.09
509.90	124.05
510.08	110.01
510.25	77.24
510.42	81.92
510.60	63.19
510.77	79.58
510.95	51.49
511.12	74.90
511.30	196.60
511.47	121.71
511.64	112.35
511.82	77.24
511.99	25.75
512.17	161.50
512.34	112.35
512.51	79.58
512.69	79.58
512.86	42.13
513.04	74.90
513.21	114.69
513.38	81.92
513.56	140.43
513.73	44.47
513.90	63.19
514.08	95.96
514.25	51.49
514.43	58.51
514.60	105.32
514.77	117.03
514.95	119.37
515.12	81.92
515.29	110.01
515.47	88.94
515.64	117.03
515.81	51.49
515.99	112.35
516.16	0.00
516.33	60.85
516.51	81.92
516.68	0.00
516.85	81.92
517.03	102.98
517.20	159.16
517.37	105.32
517.54	84.26
517.72	98.30
517.89	81.92
518.06	86.60
518.24	117.03
518.41	149.79
518.58	25.75
518.75	42.13
518.93	154.48
519.10	46.81
519.27	86.60
519.45	112.35
519.62	124.05
519.79	0.00
519.96	53.83
520.14	114.69
520.31	72.56
520.48	145.11
520.65	110.01
520.83	124.05
521.00	93.62
521.17	51.49
521.34	37.45
521.52	21.06
521.69	93.62
521.86	58.51
522.03	72.56
522.20	77.24
522.38	58.51
522.55	65.54
522.72	77.24
522.89	18.72
523.07	140.43
523.24	81.92
523.41	25.75
523.58	44.47
523.75	44.47
523.92	67.88
524.10	70.22
524.27	121.71
524.44	154.48
524.61	100.64
524.78	56.17
524.96	46.81
525.13	133.41
525.30	98.30
525.47	140.43
525.64	102.98
525.81	91.28
525.98	35.11
526.16	138.09
526.33	105.32
526.50	51.49
526.67	37.45
526.84	84.26
527.01	135.75
527.18	46.81
527.36	119.37
527.53	14.04
527.70	70.22
527.87	98.30
528.04	65.54
528.21	114.69
528.38	100.64
528.55	184.90
528.72	100.64
528.89	58.51
529.07	25.75
529.24	121.71
529.41	56.17
529.58	88.94
529.75	7.02
529.92	65.54
530.09	49.15
530.26	65.54
530.43	154.48
530.60	35.11
530.77	49.15
530.94	56.17
531.11	154.48
531.28	56.17
531.46	112.35
531.63	91.28
531.80	95.96
531.97	56.17
532.14	88.94
532.31	100.64
532.48	91.28
532.65	114.69
532.82	39.79
532.99	84.26
533.16	152.13
533.33	65.54
533.50	86.60
533.67	39.79
533.84	91.28
534.01	128.73
534.18	81.92
534.35	53.83
534.52	131.07
534.69	98.30
534.86	117.03
535.03	21.06
535.20	56.17
535.37	102.98
535.54	110.01
535.71	35.11
535.88	25.75
536.05	51.49
536.22	32.77
536.38	126.39
536.55	0.00
536.72	95.96
536.89	56.17
537.06	72.56
537.23	102.98
537.40	63.19
537.57	63.19
537.74	131.07
537.91	117.03
538.08	95.96
538.25	112.35
538.42	112.35
538.59	74.90
538.75	159.16
538.92	119.37
539.09	70.22
539.26	60.85
539.43	63.19
539.60	93.62
539.77	67.88
539.94	119.37
540.11	112.35
540.28	23.41
540.44	32.77
540.61	131.07
540.78	60.85
540.95	44.47
541.12	72.56
541.29	110.01
541.46	126.39
541.62	177.88
541.79	86.60
541.96	166.18
542.13	86.60
542.30	63.19
542.47	128.73
542.63	86.60
542.80	84.26
542.97	44.47
543.14	58.51
543.31	72.56
543.48	30.43
543.64	9.36
543.81	93.62
543.98	91.28
544.15	105.32
544.32	67.88
544.48	100.64
544.65	133.41
544.82	114.69
544.99	51.49
545.16	72.56
545.32	77.24
545.49	0.00
545.66	72.56
545.83	46.81
546.00	86.60
546.16	86.60
546.33	53.83
546.50	100.64
546.67	133.41
546.83	81.92
547.00	84.26
547.17	56.17
547.34	95.96
547.50	35.11
547.67	65.54
547.84	30.43
548.00	72.56
548.17	124.05
548.34	67.88
548.51	110.01
548.67	74.90
548.84	138.09
549.01	0.00
549.18	133.41
549.34	128.73
549.51	112.35
549.68	121.71
549.84	74.90
550.01	84.26
550.18	142.77
550.34	91.28
550.51	138.09
550.68	117.03
550.84	65.54
551.01	81.92
551.18	98.30
551.34	49.15
551.51	126.39
551.68	135.75
551.84	30.43
552.01	44.47
552.18	84.26
552.34	105.32
552.51	44.47
552.68	81.92
552.84	124.05
553.01	21.06
553.18	72.56
553.34	23.41
553.51	42.13
553.67	84.26
553.84	65.54
554.01	72.56
554.17	74.90
554.34	93.62
554.51	81.92
554.67	72.56
554.84	67.88
555.00	95.96
555.17	28.09
555.33	114.69
555.50	95.96
555.67	46.81
555.83	95.96
556.00	135.75
556.16	128.73
556.33	124.05
556.50	67.88
556.66	60.85
556.83	28.09
556.99	117.03
557.16	53.83
557.32	131.07
557.49	135.75
557.65	30.43
557.82	49.15
557.98	105.32
558.15	79.58
558.32	77.24
558.48	28.09
558.65	128.73
558.81	9.36
558.98	131.07
559.14	95.96
559.31	63.19
559.47	65.54
559.64	105.32
559.80	121.71
559.97	112.35
560.13	110.01
560.30	168.52
560.46	140.43
560.63	91.28
560.79	56.17
560.96	16.38
561.12	105.32
561.29	58.51
561.45	84.26
561.61	81.92
561.78	126.39
561.94	145.11
562.11	51.49
562.27	35.11
562.44	102.98
562.60	37.45
562.77	63.19
562.93	98.30
563.10	32.77
563.26	74.90
563.42	131.07
563.59	91.28
563.75	37.45
563.92	159.16
564.08	72.56
564.24	60.85
564.41	77.24
564.57	84.26
564.74	72.56
564.90	49.15
565.07	65.54
565.23	86.60
565.39	49.15
565.56	60.85
565.72	35.11
565.88	86.60
566.05	93.62
566.21	16.38
566.38	11.70
566.54	35.11
566.70	56.17
566.87	152.13
567.03	93.62
567.19	53.83
567.36	74.90
567.52	53.83
567.68	65.54
567.85	11.70
568.01	63.19
568.17	119.37
568.34	28.09
568.50	91.28
568.66	81.92
568.83	49.15
568.99	46.81
569.15	102.98
569.32	51.49
569.48	72.56
569.64	18.72
569.81	0.00
569.97	84.26
570.13	58.51
570.30	77.24
570.46	58.51
570.62	128.73
570.78	93.62
570.95	72.56
571.11	39.79
571.27	37.45
571.43	114.69
571.60	100.64
571.76	91.28
571.92	23.41
572.09	4.68
572.25	121.71
572.41	154.48
572.57	14.04
572.74	79.58
572.90	37.45
573.06	114.69
573.22	105.32
573.38	147.45
573.55	110.01
573.71	128.73
573.87	95.96
574.03	95.96
574.20	110.01
574.36	56.17
574.52	114.69
574.68	46.81
574.84	53.83
575.01	32.77
575.17	105.32
575.33	110.01
575.49	23.41
575.65	100.64
575.82	63.19
575.98	121.71
576.14	58.51
576.30	65.54
576.46	131.07
576.62	86.60
576.79	37.45
576.95	126.39
577.11	28.09
577.27	74.90
577.43	112.35
577.59	107.66
577.75	91.28
577.92	30.43
578.08	65.54
578.24	30.43
578.40	23.41
578.56	84.26
578.72	135.75
578.88	72.56
579.04	124.05
579.21	77.24
579.37	119.37
579.53	93.62
579.69	112.35
579.85	156.82
580.01	131.07
580.17	102.98
580.33	49.15
580.49	105.32
580.65	30.43
580.82	65.54
580.98	81.92
581.14	79.58
581.30	140.43
581.46	25.75
581.62	67.88
581.78	35.11
581.94	147.45
582.10	86.60
582.26	35.11
582.42	142.77
582.58	81.92
582.74	70.22
582.90	95.96
583.06	79.58
583.22	72.56
583.38	142.77
583.54	149.79
583.70	100.64
583.86	37.45
584.02	154.48
584.18	170.86
584.34	32.77
584.50	60.85
584.66	93.62
584.82	63.19
584.98	74.90
585.14	107.66
585.30	72.56
585.46	74.90
585.62	32.77
585.78	30.43
585.94	60.85
586.10	51.49
586.26	60.85
586.42	168.52
586.58	79.58
586.74	74.90
586.90	67.88
587.06	77.24
587.22	124.05
587.38	72.56
587.54	117.03
587.70	74.90
587.86	88.94
588.02	95.96
588.18	11.70
588.34	138.09
588.49	0.00
588.65	23.41
588.81	112.35
588.97	70.22
589.13	88.94
589.29	117.03
589.45	44.47
589.61	46.81
589.77	42.13
589.93	98.30
590.08	147.45
590.24	140.43
590.40	28.09
590.56	110.01
590.72	70.22
590.88	53.83
591.04	42.13
591.20	32.77
591.35	107.66
591.51	18.72
591.67	58.51
591.83	44.47
591.99	49.15
592.15	128.73
592.31	98.30
592.46	42.13
592.62	72.56
592.78	91.28
592.94	65.54
593.10	88.94
593.26	65.54
593.41	81.92
593.57	23.41
593.73	81.92
593.89	93.62
594.05	79.58
594.20	147.45
594.36	67.88
594.52	100.64
594.68	65.54
594.84	63.19
594.99	44.47
595.15	126.39
595.31	16.38
595.47	124.05
595.62	51.49
595.78	79.58
595.94	65.54
596.10	84.26
596.25	117.03
596.41	60.85
596.57	131.07
596.73	18.72
596.88	93.62
597.04	37.45
597.20	77.24
597.36	77.24
597.51	35.11
597.67	93.62
597.83	105.32
597.99	91.28
598.14	53.83
598.30	53.83
598.46	67.88
598.61	63.19
598.77	88.94
598.93	67.88
599.09	119.37
599.24	95.96
599.40	56.17
599.56	131.07
599.71	42.13
599.87	63.19
600.03	74.90
600.18	159.16
600.34	166.18
600.50	53.83
600.65	18.72
600.81	128.73
600.97	88.94
601.12	67.88
601.28	18.72
601.44	53.83
601.59	60.85
601.75	110.01
601.91	44.47
602.06	63.19
602.22	67.88
602.37	65.54
602.53	112.35
602.69	0.00
602.84	46.81
603.00	65.54
603.16	98.30
603.31	23.41
603.47	7.02
603.62	49.15
603.78	119.37
603.94	84.26
604.09	88.94
604.25	9.36
604.40	91.28
604.56	142.77
604.71	14.04
604.87	84.26
605.03	65.54
605.18	100.64
605.34	21.06
605.49	70.22
605.65	39.79
605.80	79.58
605.96	37.45
606.12	35.11
606.27	4.68
606.43	0.00
606.58	133.41
606.74	32.77
606.89	44.47
607.05	84.26
607.20	63.19
607.36	65.54
607.51	63.19
607.67	128.73
607.82	131.07
607.98	74.90
608.13	163.84
608.29	77.24
608.44	65.54
608.60	67.88
608.75	60.85
608.91	67.88
609.06	0.00
609.22	2.34
609.37	84.26
609.53	25.75
609.68	44.47
609.84	102.98
609.99	42.13
610.15	4.68
610.30	65.54
610.46	110.01
610.61	46.81
610.76	44.47
610.92	88.94
611.07	84.26
611.23	112.35
611.38	14.04
611.54	128.73
611.69	49.15
611.84	58.51
612.00	67.88
612.15	95.96
612.31	0.00
612.46	79.58
612.62	51.49
612.77	72.56
612.92	42.13
613.08	35.11
613.23	44.47
613.39	117.03
613.54	53.83
613.69	74.90
613.85	30.43
614.00	98.30
614.15	79.58
614.31	49.15
614.46	128.73
614.62	131.07
614.77	100.64
614.92	140.43
615.08	60.85
615.23	81.92
615.38	77.24
615.54	67.88
615.69	88.94
615.84	110.01
616.00	77.24
616.15	60.85
616.30	32.77
616.46	88.94
616.61	86.60
616.76	49.15
616.92	46.81
617.07	70.22
617.22	0.00
617.37	67.88
617.53	100.64
617.68	72.56
617.83	95.96
617.99	91.28
618.14	124.05
618.29	84.26
618.45	16.38
618.60	44.47
618.75	58.51
618.90	37.45
619.06	58.51
619.21	60.85
619.36	88.94
619.51	117.03
619.67	44.47
619.82	14.04
619.97	74.90
620.12	32.77
620.28	35.11
620.43	0.00
620.58	63.19
620.73	67.88
620.89	72.56
621.04	56.17
621.19	25.75
621.34	88.94
621.49	58.51
621.65	9.36
621.80	35.11
621.95	35.11
622.10	88.94
622.25	79.58
622.41	133.41
622.56	102.98
622.71	70.22
622.86	70.22
623.01	23.41
623.16	79.58
623.32	74.90
623.47	98.30
623.62	133.41
623.77	51.49
623.92	67.88
624.07	28.09
624.23	72.56
624.38	93.62
624.53	86.60
624.68	91.28
624.83	74.90
624.98	0.00
625.13	0.00
625.29	0.00
625.44	72.56
625.59	16.38
625.74	18.72
625.89	39.79
626.04	51.49
626.19	112.35
626.34	0.00
626.49	21.06
626.65	51.49
626.80	28.09
626.95	0.00
627.10	121.71
627.25	110.01
627.40	133.41
627.55	84.26
627.70	51.49
627.85	56.17
628.00	35.11
628.15	56.17
628.30	11.70
628.45	32.77
628.60	70.22
628.76	51.49
628.91	114.69
629.06	88.94
629.21	79.58
629.36	110.01
629.51	58.51
629.66	65.54
629.81	46.81
629.96	53.83
630.11	44.47
630.26	37.45
630.41	67.88
630.56	86.60
630.71	30.43
630.86	98.30
631.01	46.81
631.16	60.85
631.31	79.58
631.46	98.30
631.61	14.04
631.76	126.39
631.91	35.11
632.06	67.88
632.21	37.45
632.36	42.13
632.51	56.17
632.66	46.81
632.81	4.68
632.96	53.83
633.10	79.58
633.25	21.06
633.40	79.58
633.55	84.26
633.70	107.66
633.85	44.47
634.00	51.49
634.15	63.19
634.30	11.70
634.45	25.75
634.60	70.22
634.75	74.90
634.90	0.00
635.05	46.81
635.19	79.58
635.34	98.30
635.49	86.60
635.64	72.56
635.79	67.88
635.94	98.30
636.09	28.09
636.24	35.11
636.39	53.83
636.53	30.43
636.68	4.68
636.83	28.09
636.98	84.26
637.13	44.47
637.28	65.54
637.43	63.19
637.57	0.00
637.72	63.19
637.87	72.56
638.02	100.64
638.17	16.38
638.32	0.00
638.46	60.85
638.61	95.96
638.76	159.16
638.91	65.54
639.06	65.54
639.20	67.88
639.35	60.85
639.50	53.83
639.65	16.38
639.80	84.26
639.94	70.22
640.09	32.77
640.24	95.96
640.39	117.03
640.54	79.58
640.68	21.06
640.83	30.43
640.98	56.17
641.13	51.49
641.27	60.85
641.42	42.13
641.57	0.00
641.72	93.62
641.86	58.51
642.01	84.26
642.16	117.03
642.31	72.56
642.45	18.72
642.60	60.85
642.75	42.13
642.90	98.30
643.04	37.45
643.19	84.26
643.34	65.54
643.48	42.13
643.63	0.00
643.78	46.81
643.93	49.15
644.07	100.64
644.22	32.77
644.37	60.85
644.51	25.75
644.66	70.22
644.81	46.81
644.95	0.00
645.10	32.77
645.25	32.77
645.39	128.73
645.54	63.19
645.69	86.60
645.83	79.58
645.98	37.45
646.13	39.79
646.27	0.00
646.42	93.62
646.57	86.60
646.71	65.54
646.86	51.49
647.00	51.49
647.15	9.36
647.30	9.36
647.44	32.77
647.59	46.81
647.74	0.00
647.88	70.22
648.03	9.36
648.17	51.49
648.32	102.98
648.47	70.22
648.61	114.69
648.76	39.79
648.90	21.06
649.05	63.19
649.20	53.83
649.34	32.77
649.49	88.94
649.63	58.51
649.78	72.56
649.92	131.07
650.07	18.72
650.21	91.28
650.36	39.79
650.51	128.73
650.65	28.09
650.80	63.19
650.94	14.04
651.09	44.47
651.23	77.24
651.38	58.51
651.52	74.90
651.67	32.77
651.81	46.81
651.96	44.47
652.10	21.06
652.25	46.81
652.39	74.90
652.54	79.58
652.68	79.58
652.83	35.11
652.97	16.38
653.12	2.34
653.26	18.72
653.41	58.51
653.55	18.72
653.70	42.13
653.84	44.47
653.99	91.28
654.13	4.68
654.27	42.13
654.42	44.47
654.56	42.13
654.71	0.00
654.85	23.41
655.00	11.70
655.14	39.79
655.29	39.79
655.43	117.03
655.57	0.00
655.72	67.88
655.86	65.54
656.01	23.41
656.15	74.90
656.30	100.64
656.44	105.32
656.58	30.43
656.73	30.43
656.87	70.22
657.01	102.98
657.16	60.85
657.30	25.75
657.45	79.58
657.59	51.49
657.73	0.00
657.88	95.96
658.02	0.00
658.16	121.71
658.31	67.88
658.45	72.56
658.60	98.30
658.74	102.98
658.88	7.02
659.03	23.41
659.17	37.45
659.31	58.51
659.46	114.69
659.60	0.00
659.74	74.90
659.89	23.41
660.03	86.60
660.17	25.75
660.32	65.54
660.46	67.88
660.60	63.19
660.74	110.01
660.89	58.51
661.03	84.26
661.17	35.11
661.32	56.17
661.46	93.62
661.60	91.28
661.74	65.54
661.89	65.54
662.03	28.09
662.17	11.70
662.31	32.77
662.46	70.22
662.60	114.69
662.74	21.06
662.88	0.00
663.03	44.47
663.17	9.36
663.31	140.43
663.45	0.00
663.60	51.49
663.74	30.43
663.88	44.47
664.02	84.26
664.17	46.81
664.31	91.28
664.45	105.32
664.59	166.18
664.73	0.00
664.88	58.51
665.02	9.36
665.16	67.88
665.30	114.69
665.44	23.41
665.59	30.43
665.73	63.19
665.87	25.75
666.01	91.28
666.15	63.19
666.29	0.00
666.44	0.00
666.58	74.90
666.72	25.75
666.86	30.43
667.00	74.90
667.14	25.75
667.28	119.37
667.43	81.92
667.57	65.54
667.71	79.58
667.85	0.00
667.99	16.38
668.13	30.43
668.27	65.54
668.41	16.38
668.56	56.17
668.70	70.22
668.84	65.54
668.98	49.15
669.12	0.00
669.26	23.41
669.40	56.17
669.54	77.24
669.68	4.68
669.82	21.06
669.96	2.34
670.10	39.79
670.25	9.36
670.39	60.85
670.53	100.64
670.67	67.88
670.81	39.79
670.95	39.79
671.09	49.15
671.23	42.13
671.37	91.28
671.51	32.77
671.65	72.56
671.79	60.85
671.93	77.24
672.07	81.92
672.21	44.47
672.35	0.00
672.49	98.30
672.63	46.81
672.77	60.85
672.91	42.13
673.05	79.58
673.19	9.36
673.33	51.49
673.47	18.72
673.61	112.35
673.75	16.38
673.89	44.47
674.03	65.54
674.17	35.11
674.31	25.75
674.45	35.11
674.59	0.00
674.73	0.00
674.87	105.32
675.01	72.56
675.15	70.22
675.29	0.00
675.43	46.81
675.56	88.94
675.70	84.26
675.84	63.19
675.98	0.00
676.12	23.41
676.26	121.71
676.40	135.75
676.54	46.81
676.68	70.22
676.82	58.51
676.96	0.00
677.10	37.45
677.23	7.02
677.37	105.32
677.51	60.85
677.65	56.17
677.79	37.45
677.93	95.96
678.07	39.79
678.21	93.62
678.34	91.28
678.48	74.90
678.62	42.13
678.76	70.22
678.90	28.09
679.04	72.56
679.18	23.41
679.31	2.34
679.45	0.00
679.59	25.75
679.73	60.85
679.87	21.06
680.00	16.38
680.14	84.26
680.28	23.41
680.42	11.70
680.56	93.62
680.70	81.92
680.83	28.09
680.97	0.00
681.11	56.17
681.25	56.17
681.39	0.00
681.52	0.00
681.66	53.83
681.80	28.09
681.94	37.45
682.07	28.09
682.21	0.00
682.35	95.96
682.49	72.56
682.62	84.26
682.76	49.15
682.90	14.04
683.04	46.81
683.17	0.00
683.31	77.24
683.45	65.54
683.59	67.88
683.72	58.51
683.86	0.00
684.00	28.09
684.13	79.58
684.27	39.79
684.41	65.54
684.55	53.83
684.68	102.98
684.82	9.36
684.96	86.60
685.09	0.00
685.23	107.66
685.37	0.00
685.50	0.00
685.64	58.51
685.78	0.00
685.91	21.06
686.05	0.00
686.19	37.45
686.32	2.34
686.46	77.24
686.60	37.45
686.73	14.04
686.87	35.11
687.01	51.49
687.14	58.51
687.28	49.15
687.42	0.00
687.55	51.49
687.69	11.70
687.82	0.00
687.96	0.00
688.10	4.68
688.23	18.72
688.37	32.77
688.50	2.34
688.64	51.49
688.78	0.00
688.91	9.36
689.05	18.72
689.18	32.77
689.32	9.36
689.46	0.00
689.59	51.49
689.73	0.00
689.86	0.00
690.00	39.79
690.13	30.43
690.27	37.45
690.41	0.00
690.54	81.92
690.68	112.35
690.81	77.24
690.95	56.17
691.08	42.13
691.22	77.24
691.35	0.00
691.49	88.94
691.62	84.26
691.76	65.54
691.89	77.24
692.03	49.15
692.16	65.54
692.30	0.00
692.43	21.06
692.57	67.88
692.70	23.41
692.84	21.06
692.97	9.36
693.11	65.54
693.24	0.00
693.38	16.38
693.51	0.00
693.65	42.13
693.78	25.75
693.92	86.60
694.05	16.38
694.19	77.24
694.32	11.70
694.45	58.51
694.59	72.56
694.72	58.51
694.86	35.11
694.99	7.02
695.13	86.60
695.26	28.09
695.39	51.49
695.53	72.56
695.66	0.00
695.80	21.06
695.93	126.39
696.07	74.90
696.20	56.17
696.33	84.26
696.47	81.92
696.60	11.70
696.73	11.70
696.87	39.79
697.00	16.38
697.14	0.00
697.27	30.43
697.40	91.28
697.54	65.54
697.67	60.85
697.80	0.00
697.94	65.54
698.07	70.22
698.21	25.75
698.34	0.00
698.47	39.79
698.61	105.32
698.74	63.19
698.87	35.11
699.01	126.39
699.14	67.88
699.27	46.81
699.40	49.15
699.54	35.11
699.67	72.56
699.80	18.72
699.94	35.11
700.07	42.13
700.20	32.77
700.34	65.54
700.47	7.02
700.60	46.81
700.73	74.90
700.87	11.70
701.00	60.85
701.13	107.66
701.26	60.85
701.40	9.36
701.53	70.22
701.66	0.00
701.79	7.02
701.93	23.41
702.06	7.02
702.19	0.00
702.32	23.41
702.46	4.68
702.59	0.00
702.72	58.51
702.85	28.09
702.99	67.88
703.12	46.81
703.25	46.81
703.38	37.45
703.51	18.72
703.65	21.06
703.78	18.72
703.91	67.88
704.04	23.41
704.17	72.56
704.31	14.04
704.44	16.38
704.57	42.13
704.70	56.17
704.83	0.00
704.96	0.00
705.10	0.00
705.23	70.22
>>>>>End Processed Spectral Data<<<<<
