SpectraSuite Data File
++++++++++++++++++++++++++++++++++++
Date: Fri Oct 04 12:13:36 GMT-05:00 2013
User: price-jones
Dark Spectrum Present: No
Reference Spectrum Present: No
Number of Sampled Component Spectra: 1
Spectrometers: USB2+H05261
Integration Time (usec): 10000 (USB2+H05261)
Spectra Averaged: 1 (USB2+H05261)
Boxcar Smoothing: 0 (USB2+H05261)
Correct for Electrical Dark: No (USB2+H05261)
Strobe/Lamp Enabled: No (USB2+H05261)
Correct for Detector Non-linearity: No (USB2+H05261)
Correct for Stray Light: No (USB2+H05261)
Number of Pixels in Processed Spectrum: 2048
>>>>>Begin Processed Spectral Data<<<<<
365.73	0.00
365.92	0.00
366.12	0.00
366.32	0.00
366.52	0.00
366.72	0.00
366.91	0.00
367.11	0.00
367.31	0.00
367.51	0.00
367.70	0.00
367.90	0.00
368.10	0.00
368.30	0.00
368.49	0.00
368.69	0.00
368.89	0.00
369.09	0.00
369.28	0.00
369.48	0.00
369.68	0.00
369.87	0.00
370.07	0.00
370.27	0.00
370.47	0.00
370.66	0.00
370.86	0.00
371.06	0.00
371.25	0.00
371.45	0.00
371.65	0.00
371.84	4.68
372.04	16.38
372.24	0.00
372.44	0.00
372.63	0.00
372.83	0.00
373.03	0.00
373.22	0.00
373.42	23.41
373.62	14.04
373.81	39.79
374.01	14.04
374.21	88.94
374.40	70.22
374.60	39.79
374.79	23.41
374.99	56.17
375.19	93.62
375.38	79.58
375.58	44.47
375.78	0.00
375.97	51.49
376.17	37.45
376.37	51.49
376.56	37.45
376.76	56.17
376.95	23.41
377.15	100.64
377.35	28.09
377.54	39.79
377.74	0.00
377.93	30.43
378.13	0.00
378.33	0.00
378.52	39.79
378.72	44.47
378.91	0.00
379.11	28.09
379.31	42.13
379.50	70.22
379.70	0.00
379.89	67.88
380.09	53.83
380.28	0.00
380.48	21.06
380.68	21.06
380.87	53.83
381.07	18.72
381.26	0.00
381.46	35.11
381.65	9.36
381.85	21.06
382.04	79.58
382.24	11.70
382.43	4.68
382.63	30.43
382.83	0.00
383.02	74.90
383.22	98.30
383.41	35.11
383.61	4.68
383.80	30.43
384.00	18.72
384.19	21.06
384.39	67.88
384.58	0.00
384.78	42.13
384.97	37.45
385.17	0.00
385.36	30.43
385.56	16.38
385.75	0.00
385.95	63.19
386.14	65.54
386.34	0.00
386.53	21.06
386.72	14.04
386.92	0.00
387.11	0.00
387.31	39.79
387.50	2.34
387.70	0.00
387.89	0.00
388.09	81.92
388.28	0.00
388.48	35.11
388.67	11.70
388.86	28.09
389.06	42.13
389.25	58.51
389.45	67.88
389.64	14.04
389.84	39.79
390.03	102.98
390.22	16.38
390.42	0.00
390.61	21.06
390.81	0.00
391.00	70.22
391.19	16.38
391.39	7.02
391.58	0.00
391.78	44.47
391.97	67.88
392.16	0.00
392.36	37.45
392.55	0.00
392.75	56.17
392.94	0.00
393.13	56.17
393.33	124.05
393.52	77.24
393.71	70.22
393.91	23.41
394.10	39.79
394.29	72.56
394.49	7.02
394.68	0.00
394.88	77.24
395.07	21.06
395.26	77.24
395.46	74.90
395.65	30.43
395.84	67.88
396.04	49.15
396.23	0.00
396.42	46.81
396.62	42.13
396.81	30.43
397.00	28.09
397.19	32.77
397.39	0.00
397.58	58.51
397.77	79.58
397.97	56.17
398.16	60.85
398.35	51.49
398.55	35.11
398.74	0.00
398.93	7.02
399.12	121.71
399.32	14.04
399.51	0.00
399.70	65.54
399.90	4.68
400.09	25.75
400.28	2.34
400.47	25.75
400.67	7.02
400.86	9.36
401.05	58.51
401.24	25.75
401.44	23.41
401.63	79.58
401.82	25.75
402.01	60.85
402.21	39.79
402.40	46.81
402.59	110.01
402.78	7.02
402.97	28.09
403.17	14.04
403.36	0.00
403.55	32.77
403.74	121.71
403.93	35.11
404.13	37.45
404.32	0.00
404.51	18.72
404.70	9.36
404.89	0.00
405.09	0.00
405.28	42.13
405.47	51.49
405.66	46.81
405.85	56.17
406.05	37.45
406.24	28.09
406.43	30.43
406.62	46.81
406.81	86.60
407.00	65.54
407.20	67.88
407.39	0.00
407.58	44.47
407.77	4.68
407.96	7.02
408.15	11.70
408.34	0.00
408.54	37.45
408.73	0.00
408.92	42.13
409.11	4.68
409.30	37.45
409.49	56.17
409.68	46.81
409.87	28.09
410.07	16.38
410.26	93.62
410.45	51.49
410.64	65.54
410.83	46.81
411.02	0.00
411.21	25.75
411.40	65.54
411.59	0.00
411.78	39.79
411.98	30.43
412.17	58.51
412.36	30.43
412.55	0.00
412.74	77.24
412.93	74.90
413.12	25.75
413.31	46.81
413.50	0.00
413.69	7.02
413.88	39.79
414.07	21.06
414.26	30.43
414.45	9.36
414.64	49.15
414.83	105.32
415.02	9.36
415.22	25.75
415.41	58.51
415.60	72.56
415.79	35.11
415.98	84.26
416.17	67.88
416.36	46.81
416.55	7.02
416.74	46.81
416.93	0.00
417.12	35.11
417.31	49.15
417.50	93.62
417.69	18.72
417.88	32.77
418.07	30.43
418.26	88.94
418.45	11.70
418.64	149.79
418.83	0.00
419.02	65.54
419.21	14.04
419.39	23.41
419.58	79.58
419.77	70.22
419.96	49.15
420.15	88.94
420.34	4.68
420.53	44.47
420.72	77.24
420.91	60.85
421.10	79.58
421.29	0.00
421.48	0.00
421.67	37.45
421.86	117.03
422.05	4.68
422.24	67.88
422.43	42.13
422.61	93.62
422.80	63.19
422.99	95.96
423.18	14.04
423.37	37.45
423.56	7.02
423.75	42.13
423.94	18.72
424.13	32.77
424.32	37.45
424.50	0.00
424.69	16.38
424.88	60.85
425.07	23.41
425.26	25.75
425.45	65.54
425.64	14.04
425.83	93.62
426.01	56.17
426.20	67.88
426.39	16.38
426.58	81.92
426.77	60.85
426.96	51.49
427.15	0.00
427.33	65.54
427.52	2.34
427.71	7.02
427.90	18.72
428.09	79.58
428.28	58.51
428.46	18.72
428.65	72.56
428.84	16.38
429.03	67.88
429.22	0.00
429.40	39.79
429.59	100.64
429.78	58.51
429.97	88.94
430.16	30.43
430.34	56.17
430.53	77.24
430.72	53.83
430.91	51.49
431.10	42.13
431.28	16.38
431.47	0.00
431.66	11.70
431.85	91.28
432.03	79.58
432.22	95.96
432.41	98.30
432.60	53.83
432.79	86.60
432.97	35.11
433.16	11.70
433.35	28.09
433.54	0.00
433.72	77.24
433.91	11.70
434.10	7.02
434.28	18.72
434.47	77.24
434.66	21.06
434.85	49.15
435.03	4.68
435.22	42.13
435.41	77.24
435.59	81.92
435.78	23.41
435.97	107.66
436.16	11.70
436.34	23.41
436.53	14.04
436.72	37.45
436.90	37.45
437.09	58.51
437.28	95.96
437.46	77.24
437.65	63.19
437.84	18.72
438.02	0.00
438.21	65.54
438.40	32.77
438.58	25.75
438.77	86.60
438.96	0.00
439.14	37.45
439.33	28.09
439.52	95.96
439.70	84.26
439.89	58.51
440.08	0.00
440.26	77.24
440.45	0.00
440.63	9.36
440.82	70.22
441.01	44.47
441.19	65.54
441.38	23.41
441.57	72.56
441.75	30.43
441.94	67.88
442.12	4.68
442.31	77.24
442.50	42.13
442.68	84.26
442.87	21.06
443.05	117.03
443.24	14.04
443.43	51.49
443.61	0.00
443.80	56.17
443.98	93.62
444.17	32.77
444.35	86.60
444.54	70.22
444.73	37.45
444.91	2.34
445.10	77.24
445.28	30.43
445.47	49.15
445.65	4.68
445.84	63.19
446.02	81.92
446.21	51.49
446.39	49.15
446.58	21.06
446.77	4.68
446.95	56.17
447.14	56.17
447.32	98.30
447.51	95.96
447.69	95.96
447.88	42.13
448.06	35.11
448.25	2.34
448.43	58.51
448.62	28.09
448.80	37.45
448.99	67.88
449.17	77.24
449.36	35.11
449.54	32.77
449.73	32.77
449.91	65.54
450.10	11.70
450.28	63.19
450.46	42.13
450.65	65.54
450.83	63.19
451.02	53.83
451.20	124.05
451.39	100.64
451.57	93.62
451.76	32.77
451.94	53.83
452.13	81.92
452.31	93.62
452.49	60.85
452.68	46.81
452.86	0.00
453.05	51.49
453.23	53.83
453.42	121.71
453.60	63.19
453.78	86.60
453.97	49.15
454.15	70.22
454.34	60.85
454.52	18.72
454.70	51.49
454.89	77.24
455.07	28.09
455.26	35.11
455.44	72.56
455.62	102.98
455.81	39.79
455.99	21.06
456.17	44.47
456.36	46.81
456.54	51.49
456.73	14.04
456.91	91.28
457.09	53.83
457.28	53.83
457.46	56.17
457.64	28.09
457.83	23.41
458.01	74.90
458.19	86.60
458.38	51.49
458.56	56.17
458.74	23.41
458.93	98.30
459.11	56.17
459.29	58.51
459.48	100.64
459.66	4.68
459.84	7.02
460.03	37.45
460.21	98.30
460.39	70.22
460.57	49.15
460.76	58.51
460.94	39.79
461.12	74.90
461.31	67.88
461.49	0.00
461.67	70.22
461.85	65.54
462.04	53.83
462.22	67.88
462.40	93.62
462.59	0.00
462.77	16.38
462.95	135.75
463.13	53.83
463.32	4.68
463.50	98.30
463.68	81.92
463.86	60.85
464.05	86.60
464.23	135.75
464.41	14.04
464.59	65.54
464.78	53.83
464.96	72.56
465.14	100.64
465.32	49.15
465.50	46.81
465.69	35.11
465.87	65.54
466.05	42.13
466.23	93.62
466.41	140.43
466.60	51.49
466.78	93.62
466.96	42.13
467.14	46.81
467.32	35.11
467.51	124.05
467.69	4.68
467.87	70.22
468.05	56.17
468.23	16.38
468.41	35.11
468.60	88.94
468.78	37.45
468.96	32.77
469.14	81.92
469.32	51.49
469.50	39.79
469.69	107.66
469.87	44.47
470.05	42.13
470.23	126.39
470.41	32.77
470.59	9.36
470.77	81.92
470.95	77.24
471.14	117.03
471.32	28.09
471.50	18.72
471.68	39.79
471.86	79.58
472.04	14.04
472.22	16.38
472.40	2.34
472.58	95.96
472.77	60.85
472.95	102.98
473.13	14.04
473.31	30.43
473.49	37.45
473.67	58.51
473.85	51.49
474.03	28.09
474.21	46.81
474.39	46.81
474.57	84.26
474.75	91.28
474.93	117.03
475.12	81.92
475.30	30.43
475.48	30.43
475.66	163.84
475.84	105.32
476.02	81.92
476.20	84.26
476.38	53.83
476.56	63.19
476.74	37.45
476.92	51.49
477.10	35.11
477.28	28.09
477.46	0.00
477.64	0.00
477.82	95.96
478.00	37.45
478.18	86.60
478.36	121.71
478.54	35.11
478.72	88.94
478.90	86.60
479.08	51.49
479.26	93.62
479.44	60.85
479.62	91.28
479.80	23.41
479.98	39.79
480.16	42.13
480.34	98.30
480.52	44.47
480.70	102.98
480.88	53.83
481.06	49.15
481.24	77.24
481.41	77.24
481.59	93.62
481.77	126.39
481.95	0.00
482.13	70.22
482.31	49.15
482.49	9.36
482.67	18.72
482.85	81.92
483.03	7.02
483.21	56.17
483.39	0.00
483.57	4.68
483.74	2.34
483.92	51.49
484.10	9.36
484.28	154.48
484.46	70.22
484.64	74.90
484.82	51.49
485.00	42.13
485.18	35.11
485.35	23.41
485.53	117.03
485.71	100.64
485.89	70.22
486.07	25.75
486.25	0.00
486.43	86.60
486.61	140.43
486.78	25.75
486.96	63.19
487.14	91.28
487.32	102.98
487.50	35.11
487.68	44.47
487.85	67.88
488.03	100.64
488.21	67.88
488.39	18.72
488.57	152.13
488.75	95.96
488.92	95.96
489.10	105.32
489.28	102.98
489.46	14.04
489.64	84.26
489.81	35.11
489.99	102.98
490.17	53.83
490.35	79.58
490.53	46.81
490.70	124.05
490.88	58.51
491.06	30.43
491.24	110.01
491.41	37.45
491.59	117.03
491.77	0.00
491.95	102.98
492.13	77.24
492.30	121.71
492.48	67.88
492.66	51.49
492.84	25.75
493.01	53.83
493.19	88.94
493.37	65.54
493.54	88.94
493.72	49.15
493.90	72.56
494.08	70.22
494.25	11.70
494.43	119.37
494.61	42.13
494.79	117.03
494.96	65.54
495.14	60.85
495.32	88.94
495.49	53.83
495.67	25.75
495.85	110.01
496.02	72.56
496.20	100.64
496.38	56.17
496.55	161.50
496.73	145.11
496.91	58.51
497.09	77.24
497.26	84.26
497.44	128.73
497.62	14.04
497.79	140.43
497.97	65.54
498.14	32.77
498.32	110.01
498.50	42.13
498.67	140.43
498.85	124.05
499.03	67.88
499.20	88.94
499.38	28.09
499.56	117.03
499.73	135.75
499.91	86.60
500.08	72.56
500.26	110.01
500.44	67.88
500.61	42.13
500.79	35.11
500.97	98.30
501.14	88.94
501.32	119.37
501.49	72.56
501.67	37.45
501.84	44.47
502.02	84.26
502.20	126.39
502.37	72.56
502.55	28.09
502.72	84.26
502.90	30.43
503.07	32.77
503.25	63.19
503.43	9.36
503.60	114.69
503.78	56.17
503.95	93.62
504.13	138.09
504.30	88.94
504.48	67.88
504.65	98.30
504.83	21.06
505.01	145.11
505.18	53.83
505.36	79.58
505.53	84.26
505.71	35.11
505.88	9.36
506.06	14.04
506.23	84.26
506.41	93.62
506.58	56.17
506.76	91.28
506.93	152.13
507.11	21.06
507.28	42.13
507.46	0.00
507.63	9.36
507.81	74.90
507.98	63.19
508.16	93.62
508.33	119.37
508.50	46.81
508.68	67.88
508.85	138.09
509.03	42.13
509.20	7.02
509.38	67.88
509.55	63.19
509.73	70.22
509.90	58.51
510.08	72.56
510.25	124.05
510.42	121.71
510.60	56.17
510.77	77.24
510.95	110.01
511.12	56.17
511.30	37.45
511.47	72.56
511.64	35.11
511.82	65.54
511.99	77.24
512.17	11.70
512.34	51.49
512.51	112.35
512.69	14.04
512.86	9.36
513.04	79.58
513.21	107.66
513.38	56.17
513.56	67.88
513.73	72.56
513.90	77.24
514.08	77.24
514.25	124.05
514.43	0.00
514.60	67.88
514.77	131.07
514.95	161.50
515.12	0.00
515.29	70.22
515.47	140.43
515.64	124.05
515.81	77.24
515.99	46.81
516.16	81.92
516.33	107.66
516.51	72.56
516.68	105.32
516.85	91.28
517.03	67.88
517.20	46.81
517.37	46.81
517.54	30.43
517.72	102.98
517.89	102.98
518.06	63.19
518.24	60.85
518.41	124.05
518.58	93.62
518.75	117.03
518.93	72.56
519.10	81.92
519.27	91.28
519.45	86.60
519.62	140.43
519.79	60.85
519.96	126.39
520.14	42.13
520.31	9.36
520.48	81.92
520.65	124.05
520.83	70.22
521.00	4.68
521.17	86.60
521.34	74.90
521.52	79.58
521.69	133.41
521.86	95.96
522.03	35.11
522.20	107.66
522.38	60.85
522.55	105.32
522.72	105.32
522.89	60.85
523.07	39.79
523.24	16.38
523.41	53.83
523.58	18.72
523.75	102.98
523.92	67.88
524.10	88.94
524.27	93.62
524.44	39.79
524.61	114.69
524.78	88.94
524.96	60.85
525.13	187.24
525.30	110.01
525.47	53.83
525.64	100.64
525.81	51.49
525.98	79.58
526.16	70.22
526.33	65.54
526.50	28.09
526.67	91.28
526.84	107.66
527.01	56.17
527.18	119.37
527.36	88.94
527.53	46.81
527.70	117.03
527.87	100.64
528.04	51.49
528.21	135.75
528.38	124.05
528.55	95.96
528.72	74.90
528.89	131.07
529.07	98.30
529.24	70.22
529.41	4.68
529.58	67.88
529.75	65.54
529.92	81.92
530.09	91.28
530.26	145.11
530.43	102.98
530.60	102.98
530.77	135.75
530.94	74.90
531.11	86.60
531.28	49.15
531.46	88.94
531.63	65.54
531.80	70.22
531.97	107.66
532.14	105.32
532.31	74.90
532.48	119.37
532.65	81.92
532.82	110.01
532.99	11.70
533.16	102.98
533.33	98.30
533.50	65.54
533.67	91.28
533.84	163.84
534.01	91.28
534.18	56.17
534.35	102.98
534.52	65.54
534.69	147.45
534.86	21.06
535.03	67.88
535.20	74.90
535.37	81.92
535.54	86.60
535.71	72.56
535.88	95.96
536.05	140.43
536.22	93.62
536.38	110.01
536.55	58.51
536.72	93.62
536.89	81.92
537.06	56.17
537.23	44.47
537.40	88.94
537.57	39.79
537.74	124.05
537.91	60.85
538.08	72.56
538.25	131.07
538.42	105.32
538.59	84.26
538.75	32.77
538.92	133.41
539.09	70.22
539.26	25.75
539.43	88.94
539.60	107.66
539.77	105.32
539.94	102.98
540.11	30.43
540.28	102.98
540.44	74.90
540.61	51.49
540.78	9.36
540.95	32.77
541.12	79.58
541.29	46.81
541.46	74.90
541.62	77.24
541.79	91.28
541.96	74.90
542.13	51.49
542.30	51.49
542.47	7.02
542.63	93.62
542.80	23.41
542.97	60.85
543.14	32.77
543.31	149.79
543.48	110.01
543.64	42.13
543.81	58.51
543.98	93.62
544.15	95.96
544.32	77.24
544.48	35.11
544.65	142.77
544.82	154.48
544.99	182.56
545.16	102.98
545.32	86.60
545.49	105.32
545.66	121.71
545.83	74.90
546.00	110.01
546.16	98.30
546.33	121.71
546.50	86.60
546.67	98.30
546.83	65.54
547.00	93.62
547.17	81.92
547.34	23.41
547.50	58.51
547.67	42.13
547.84	72.56
548.00	35.11
548.17	77.24
548.34	86.60
548.51	72.56
548.67	44.47
548.84	133.41
549.01	86.60
549.18	60.85
549.34	46.81
549.51	102.98
549.68	81.92
549.84	65.54
550.01	28.09
550.18	93.62
550.34	86.60
550.51	86.60
550.68	0.00
550.84	58.51
551.01	95.96
551.18	63.19
551.34	102.98
551.51	98.30
551.68	81.92
551.84	100.64
552.01	28.09
552.18	63.19
552.34	124.05
552.51	39.79
552.68	79.58
552.84	72.56
553.01	53.83
553.18	79.58
553.34	124.05
553.51	46.81
553.67	74.90
553.84	51.49
554.01	138.09
554.17	70.22
554.34	95.96
554.51	95.96
554.67	98.30
554.84	72.56
555.00	74.90
555.17	81.92
555.33	93.62
555.50	91.28
555.67	91.28
555.83	107.66
556.00	35.11
556.16	126.39
556.33	100.64
556.50	37.45
556.66	67.88
556.83	110.01
556.99	81.92
557.16	72.56
557.32	79.58
557.49	58.51
557.65	51.49
557.82	16.38
557.98	42.13
558.15	100.64
558.32	74.90
558.48	119.37
558.65	107.66
558.81	107.66
558.98	124.05
559.14	46.81
559.31	65.54
559.47	119.37
559.64	79.58
559.80	37.45
559.97	77.24
560.13	70.22
560.30	51.49
560.46	102.98
560.63	72.56
560.79	70.22
560.96	72.56
561.12	65.54
561.29	110.01
561.45	72.56
561.61	112.35
561.78	102.98
561.94	107.66
562.11	67.88
562.27	86.60
562.44	65.54
562.60	84.26
562.77	23.41
562.93	128.73
563.10	70.22
563.26	74.90
563.42	0.00
563.59	86.60
563.75	112.35
563.92	112.35
564.08	23.41
564.24	79.58
564.41	133.41
564.57	65.54
564.74	65.54
564.90	11.70
565.07	91.28
565.23	112.35
565.39	77.24
565.56	112.35
565.72	46.81
565.88	60.85
566.05	110.01
566.21	119.37
566.38	100.64
566.54	140.43
566.70	140.43
566.87	95.96
567.03	42.13
567.19	114.69
567.36	98.30
567.52	46.81
567.68	70.22
567.85	53.83
568.01	25.75
568.17	14.04
568.34	91.28
568.50	138.09
568.66	91.28
568.83	0.00
568.99	51.49
569.15	4.68
569.32	93.62
569.48	7.02
569.64	39.79
569.81	0.00
569.97	44.47
570.13	112.35
570.30	79.58
570.46	46.81
570.62	11.70
570.78	63.19
570.95	67.88
571.11	49.15
571.27	126.39
571.43	133.41
571.60	84.26
571.76	60.85
571.92	30.43
572.09	65.54
572.25	74.90
572.41	0.00
572.57	74.90
572.74	79.58
572.90	98.30
573.06	23.41
573.22	79.58
573.38	25.75
573.55	39.79
573.71	63.19
573.87	119.37
574.03	105.32
574.20	95.96
574.36	79.58
574.52	70.22
574.68	56.17
574.84	63.19
575.01	86.60
575.17	79.58
575.33	124.05
575.49	114.69
575.65	44.47
575.82	79.58
575.98	37.45
576.14	79.58
576.30	98.30
576.46	105.32
576.62	72.56
576.79	110.01
576.95	53.83
577.11	88.94
577.27	215.33
577.43	128.73
577.59	28.09
577.75	42.13
577.92	37.45
578.08	74.90
578.24	0.00
578.40	79.58
578.56	86.60
578.72	65.54
578.88	44.47
579.04	42.13
579.21	49.15
579.37	121.71
579.53	145.11
579.69	32.77
579.85	72.56
580.01	102.98
580.17	49.15
580.33	72.56
580.49	84.26
580.65	60.85
580.82	112.35
580.98	56.17
581.14	63.19
581.30	56.17
581.46	63.19
581.62	60.85
581.78	128.73
581.94	46.81
582.10	100.64
582.26	0.00
582.42	60.85
582.58	53.83
582.74	135.75
582.90	53.83
583.06	124.05
583.22	70.22
583.38	131.07
583.54	74.90
583.70	124.05
583.86	138.09
584.02	91.28
584.18	16.38
584.34	86.60
584.50	100.64
584.66	88.94
584.82	0.00
584.98	105.32
585.14	107.66
585.30	32.77
585.46	46.81
585.62	28.09
585.78	25.75
585.94	70.22
586.10	93.62
586.26	42.13
586.42	93.62
586.58	100.64
586.74	88.94
586.90	102.98
587.06	98.30
587.22	0.00
587.38	135.75
587.54	77.24
587.70	60.85
587.86	0.00
588.02	88.94
588.18	46.81
588.34	53.83
588.49	119.37
588.65	67.88
588.81	9.36
588.97	39.79
589.13	42.13
589.29	67.88
589.45	74.90
589.61	46.81
589.77	63.19
589.93	117.03
590.08	63.19
590.24	67.88
590.40	77.24
590.56	149.79
590.72	56.17
590.88	7.02
591.04	95.96
591.20	44.47
591.35	161.50
591.51	46.81
591.67	65.54
591.83	86.60
591.99	53.83
592.15	39.79
592.31	107.66
592.46	84.26
592.62	84.26
592.78	28.09
592.94	63.19
593.10	74.90
593.26	72.56
593.41	142.77
593.57	77.24
593.73	28.09
593.89	44.47
594.05	74.90
594.20	72.56
594.36	0.00
594.52	114.69
594.68	70.22
594.84	135.75
594.99	117.03
595.15	105.32
595.31	49.15
595.47	98.30
595.62	128.73
595.78	49.15
595.94	23.41
596.10	42.13
596.25	60.85
596.41	49.15
596.57	105.32
596.73	81.92
596.88	70.22
597.04	86.60
597.20	53.83
597.36	32.77
597.51	67.88
597.67	44.47
597.83	126.39
597.99	7.02
598.14	112.35
598.30	95.96
598.46	102.98
598.61	88.94
598.77	93.62
598.93	46.81
599.09	42.13
599.24	49.15
599.40	93.62
599.56	140.43
599.71	70.22
599.87	53.83
600.03	102.98
600.18	102.98
600.34	133.41
600.50	70.22
600.65	46.81
600.81	117.03
600.97	63.19
601.12	84.26
601.28	70.22
601.44	49.15
601.59	7.02
601.75	70.22
601.91	119.37
602.06	49.15
602.22	107.66
602.37	81.92
602.53	152.13
602.69	58.51
602.84	28.09
603.00	16.38
603.16	84.26
603.31	72.56
603.47	25.75
603.62	70.22
603.78	56.17
603.94	46.81
604.09	21.06
604.25	100.64
604.40	86.60
604.56	114.69
604.71	98.30
604.87	84.26
605.03	100.64
605.18	23.41
605.34	77.24
605.49	32.77
605.65	25.75
605.80	46.81
605.96	65.54
606.12	56.17
606.27	81.92
606.43	84.26
606.58	145.11
606.74	9.36
606.89	84.26
607.05	140.43
607.20	95.96
607.36	88.94
607.51	63.19
607.67	11.70
607.82	110.01
607.98	124.05
608.13	72.56
608.29	70.22
608.44	53.83
608.60	56.17
608.75	46.81
608.91	131.07
609.06	91.28
609.22	95.96
609.37	88.94
609.53	30.43
609.68	100.64
609.84	58.51
609.99	79.58
610.15	67.88
610.30	79.58
610.46	65.54
610.61	72.56
610.76	110.01
610.92	102.98
611.07	133.41
611.23	91.28
611.38	100.64
611.54	107.66
611.69	140.43
611.84	67.88
612.00	0.00
612.15	30.43
612.31	46.81
612.46	154.48
612.62	110.01
612.77	79.58
612.92	72.56
613.08	30.43
613.23	70.22
613.39	42.13
613.54	63.19
613.69	35.11
613.85	56.17
614.00	81.92
614.15	0.00
614.31	91.28
614.46	88.94
614.62	0.00
614.77	100.64
614.92	133.41
615.08	46.81
615.23	91.28
615.38	67.88
615.54	35.11
615.69	65.54
615.84	56.17
616.00	58.51
616.15	53.83
616.30	70.22
616.46	84.26
616.61	39.79
616.76	30.43
616.92	53.83
617.07	67.88
617.22	105.32
617.37	86.60
617.53	60.85
617.68	14.04
617.83	84.26
617.99	44.47
618.14	84.26
618.29	28.09
618.45	21.06
618.60	56.17
618.75	70.22
618.90	9.36
619.06	51.49
619.21	46.81
619.36	102.98
619.51	32.77
619.67	30.43
619.82	9.36
619.97	72.56
620.12	88.94
620.28	84.26
620.43	65.54
620.58	0.00
620.73	56.17
620.89	72.56
621.04	53.83
621.19	124.05
621.34	126.39
621.49	37.45
621.65	53.83
621.80	7.02
621.95	58.51
622.10	74.90
622.25	44.47
622.41	28.09
622.56	35.11
622.71	107.66
622.86	119.37
623.01	112.35
623.16	28.09
623.32	46.81
623.47	77.24
623.62	84.26
623.77	39.79
623.92	98.30
624.07	51.49
624.23	91.28
624.38	60.85
624.53	0.00
624.68	105.32
624.83	58.51
624.98	187.24
625.13	168.52
625.29	65.54
625.44	35.11
625.59	147.45
625.74	70.22
625.89	81.92
626.04	88.94
626.19	77.24
626.34	53.83
626.49	35.11
626.65	58.51
626.80	95.96
626.95	51.49
627.10	28.09
627.25	42.13
627.40	51.49
627.55	67.88
627.70	60.85
627.85	9.36
628.00	91.28
628.15	37.45
628.30	0.00
628.45	46.81
628.60	105.32
628.76	119.37
628.91	77.24
629.06	9.36
629.21	23.41
629.36	102.98
629.51	79.58
629.66	91.28
629.81	0.00
629.96	128.73
630.11	42.13
630.26	4.68
630.41	46.81
630.56	70.22
630.71	112.35
630.86	56.17
631.01	65.54
631.16	93.62
631.31	39.79
631.46	95.96
631.61	60.85
631.76	14.04
631.91	67.88
632.06	77.24
632.21	102.98
632.36	42.13
632.51	23.41
632.66	110.01
632.81	49.15
632.96	42.13
633.10	25.75
633.25	110.01
633.40	9.36
633.55	138.09
633.70	25.75
633.85	35.11
634.00	51.49
634.15	72.56
634.30	86.60
634.45	91.28
634.60	156.82
634.75	91.28
634.90	91.28
635.05	23.41
635.19	86.60
635.34	46.81
635.49	23.41
635.64	18.72
635.79	0.00
635.94	51.49
636.09	49.15
636.24	35.11
636.39	23.41
636.53	51.49
636.68	18.72
636.83	39.79
636.98	84.26
637.13	121.71
637.28	58.51
637.43	72.56
637.57	86.60
637.72	21.06
637.87	32.77
638.02	0.00
638.17	81.92
638.32	44.47
638.46	53.83
638.61	88.94
638.76	95.96
638.91	79.58
639.06	49.15
639.20	72.56
639.35	128.73
639.50	28.09
639.65	30.43
639.80	37.45
639.94	98.30
640.09	7.02
640.24	23.41
640.39	58.51
640.54	131.07
640.68	58.51
640.83	21.06
640.98	39.79
641.13	25.75
641.27	60.85
641.42	35.11
641.57	11.70
641.72	110.01
641.86	2.34
642.01	72.56
642.16	0.00
642.31	37.45
642.45	77.24
642.60	91.28
642.75	65.54
642.90	42.13
643.04	63.19
643.19	79.58
643.34	35.11
643.48	32.77
643.63	135.75
643.78	72.56
643.93	70.22
644.07	14.04
644.22	77.24
644.37	84.26
644.51	131.07
644.66	16.38
644.81	28.09
644.95	16.38
645.10	74.90
645.25	7.02
645.39	44.47
645.54	7.02
645.69	35.11
645.83	42.13
645.98	49.15
646.13	140.43
646.27	56.17
646.42	86.60
646.57	88.94
646.71	39.79
646.86	86.60
647.00	28.09
647.15	65.54
647.30	11.70
647.44	53.83
647.59	21.06
647.74	14.04
647.88	79.58
648.03	93.62
648.17	18.72
648.32	16.38
648.47	110.01
648.61	44.47
648.76	46.81
648.90	58.51
649.05	32.77
649.20	98.30
649.34	49.15
649.49	44.47
649.63	65.54
649.78	60.85
649.92	65.54
650.07	67.88
650.21	93.62
650.36	37.45
650.51	79.58
650.65	81.92
650.80	46.81
650.94	70.22
651.09	105.32
651.23	9.36
651.38	16.38
651.52	126.39
651.67	23.41
651.81	14.04
651.96	18.72
652.10	70.22
652.25	65.54
652.39	100.64
652.54	0.00
652.68	77.24
652.83	42.13
652.97	18.72
653.12	91.28
653.26	30.43
653.41	67.88
653.55	39.79
653.70	100.64
653.84	100.64
653.99	95.96
654.13	25.75
654.27	42.13
654.42	81.92
654.56	70.22
654.71	88.94
654.85	91.28
655.00	63.19
655.14	32.77
655.29	35.11
655.43	105.32
655.57	39.79
655.72	102.98
655.86	70.22
656.01	133.41
656.15	58.51
656.30	100.64
656.44	84.26
656.58	74.90
656.73	37.45
656.87	0.00
657.01	79.58
657.16	32.77
657.30	49.15
657.45	37.45
657.59	60.85
657.73	44.47
657.88	37.45
658.02	44.47
658.16	65.54
658.31	4.68
658.45	30.43
658.60	42.13
658.74	72.56
658.88	28.09
659.03	14.04
659.17	86.60
659.31	77.24
659.46	58.51
659.60	67.88
659.74	0.00
659.89	0.00
660.03	46.81
660.17	32.77
660.32	14.04
660.46	60.85
660.60	70.22
660.74	58.51
660.89	21.06
661.03	14.04
661.17	0.00
661.32	56.17
661.46	142.77
661.60	42.13
661.74	2.34
661.89	37.45
662.03	100.64
662.17	46.81
662.31	23.41
662.46	84.26
662.60	98.30
662.74	140.43
662.88	53.83
663.03	81.92
663.17	49.15
663.31	70.22
663.45	56.17
663.60	30.43
663.74	107.66
663.88	25.75
664.02	56.17
664.17	0.00
664.31	44.47
664.45	58.51
664.59	0.00
664.73	53.83
664.88	51.49
665.02	21.06
665.16	44.47
665.30	77.24
665.44	51.49
665.59	46.81
665.73	56.17
665.87	93.62
666.01	7.02
666.15	21.06
666.29	32.77
666.44	81.92
666.58	119.37
666.72	37.45
666.86	79.58
667.00	74.90
667.14	58.51
667.28	49.15
667.43	95.96
667.57	0.00
667.71	131.07
667.85	56.17
667.99	37.45
668.13	81.92
668.27	42.13
668.41	53.83
668.56	70.22
668.70	0.00
668.84	25.75
668.98	107.66
669.12	11.70
669.26	95.96
669.40	18.72
669.54	70.22
669.68	74.90
669.82	42.13
669.96	107.66
670.10	18.72
670.25	49.15
670.39	46.81
670.53	95.96
670.67	30.43
670.81	30.43
670.95	7.02
671.09	70.22
671.23	100.64
671.37	37.45
671.51	51.49
671.65	81.92
671.79	37.45
671.93	30.43
672.07	58.51
672.21	58.51
672.35	0.00
672.49	63.19
672.63	0.00
672.77	32.77
672.91	42.13
673.05	67.88
673.19	60.85
673.33	37.45
673.47	21.06
673.61	0.00
673.75	58.51
673.89	35.11
674.03	0.00
674.17	18.72
674.31	0.00
674.45	0.00
674.59	105.32
674.73	0.00
674.87	18.72
675.01	21.06
675.15	46.81
675.29	0.00
675.43	46.81
675.56	88.94
675.70	39.79
675.84	35.11
675.98	0.00
676.12	23.41
676.26	44.47
676.40	44.47
676.54	18.72
676.68	60.85
676.82	98.30
676.96	0.00
677.10	0.00
677.23	56.17
677.37	0.00
677.51	74.90
677.65	58.51
677.79	37.45
677.93	53.83
678.07	77.24
678.21	0.00
678.34	67.88
678.48	56.17
678.62	49.15
678.76	2.34
678.90	25.75
679.04	81.92
679.18	0.00
679.31	42.13
679.45	0.00
679.59	0.00
679.73	79.58
679.87	14.04
680.00	0.00
680.14	60.85
680.28	84.26
680.42	9.36
680.56	74.90
680.70	32.77
680.83	28.09
680.97	16.38
681.11	49.15
681.25	100.64
681.39	67.88
681.52	42.13
681.66	2.34
681.80	81.92
681.94	14.04
682.07	25.75
682.21	46.81
682.35	58.51
682.49	11.70
682.62	81.92
682.76	46.81
682.90	42.13
683.04	30.43
683.17	0.00
683.31	95.96
683.45	21.06
683.59	0.00
683.72	102.98
683.86	23.41
684.00	4.68
684.13	44.47
684.27	0.00
684.41	16.38
684.55	18.72
684.68	25.75
684.82	11.70
684.96	79.58
685.09	51.49
685.23	23.41
685.37	0.00
685.50	25.75
685.64	42.13
685.78	23.41
685.91	56.17
686.05	121.71
686.19	81.92
686.32	65.54
686.46	25.75
686.60	74.90
686.73	0.00
686.87	23.41
687.01	53.83
687.14	0.00
687.28	0.00
687.42	0.00
687.55	18.72
687.69	114.69
687.82	74.90
687.96	32.77
688.10	70.22
688.23	74.90
688.37	9.36
688.50	0.00
688.64	0.00
688.78	16.38
688.91	37.45
689.05	18.72
689.18	107.66
689.32	9.36
689.46	60.85
689.59	28.09
689.73	60.85
689.86	67.88
690.00	60.85
690.13	0.00
690.27	0.00
690.41	0.00
690.54	18.72
690.68	35.11
690.81	84.26
690.95	49.15
691.08	91.28
691.22	28.09
691.35	72.56
691.49	39.79
691.62	37.45
691.76	0.00
691.89	25.75
692.03	84.26
692.16	4.68
692.30	28.09
692.43	67.88
692.57	63.19
692.70	2.34
692.84	49.15
692.97	81.92
693.11	9.36
693.24	32.77
693.38	28.09
693.51	58.51
693.65	88.94
693.78	4.68
693.92	81.92
694.05	0.00
694.19	11.70
694.32	23.41
694.45	30.43
694.59	32.77
694.72	14.04
694.86	63.19
694.99	138.09
695.13	51.49
695.26	0.00
695.39	42.13
695.53	0.00
695.66	46.81
695.80	77.24
695.93	42.13
696.07	23.41
696.20	65.54
696.33	0.00
696.47	95.96
696.60	28.09
696.73	0.00
696.87	53.83
697.00	88.94
697.14	35.11
697.27	51.49
697.40	39.79
697.54	18.72
697.67	58.51
697.80	105.32
697.94	7.02
698.07	14.04
698.21	53.83
698.34	21.06
698.47	4.68
698.61	28.09
698.74	56.17
698.87	46.81
699.01	0.00
699.14	49.15
699.27	14.04
699.40	44.47
699.54	25.75
699.67	79.58
699.80	25.75
699.94	37.45
700.07	79.58
700.20	65.54
700.34	0.00
700.47	37.45
700.60	117.03
700.73	56.17
700.87	0.00
701.00	60.85
701.13	51.49
701.26	81.92
701.40	14.04
701.53	72.56
701.66	49.15
701.79	9.36
701.93	21.06
702.06	70.22
702.19	56.17
702.32	53.83
702.46	16.38
702.59	0.00
702.72	0.00
702.85	32.77
702.99	39.79
703.12	51.49
703.25	72.56
703.38	95.96
703.51	63.19
703.65	25.75
703.78	74.90
703.91	0.00
704.04	88.94
704.17	18.72
704.31	86.60
704.44	60.85
704.57	37.45
704.70	37.45
704.83	16.38
704.96	67.88
705.10	7.02
705.23	0.00
>>>>>End Processed Spectral Data<<<<<
