SpectraSuite Data File
++++++++++++++++++++++++++++++++++++
Date: Fri Oct 04 12:13:25 GMT-05:00 2013
User: price-jones
Dark Spectrum Present: No
Reference Spectrum Present: No
Number of Sampled Component Spectra: 1
Spectrometers: USB2+H05261
Integration Time (usec): 10000 (USB2+H05261)
Spectra Averaged: 1 (USB2+H05261)
Boxcar Smoothing: 0 (USB2+H05261)
Correct for Electrical Dark: No (USB2+H05261)
Strobe/Lamp Enabled: No (USB2+H05261)
Correct for Detector Non-linearity: No (USB2+H05261)
Correct for Stray Light: No (USB2+H05261)
Number of Pixels in Processed Spectrum: 2048
>>>>>Begin Processed Spectral Data<<<<<
365.73	0.00
365.92	0.00
366.12	0.00
366.32	0.00
366.52	0.00
366.72	0.00
366.91	0.00
367.11	0.00
367.31	0.00
367.51	0.00
367.70	0.00
367.90	0.00
368.10	0.00
368.30	0.00
368.49	0.00
368.69	0.00
368.89	0.00
369.09	0.00
369.28	0.00
369.48	0.00
369.68	0.00
369.87	0.00
370.07	0.00
370.27	0.00
370.47	0.00
370.66	0.00
370.86	0.00
371.06	0.00
371.25	0.00
371.45	0.00
371.65	14.04
371.84	0.00
372.04	0.00
372.24	0.00
372.44	11.70
372.63	0.00
372.83	0.00
373.03	37.45
373.22	18.72
373.42	0.00
373.62	11.70
373.81	18.72
374.01	0.00
374.21	2.34
374.40	51.49
374.60	121.71
374.79	65.54
374.99	21.06
375.19	16.38
375.38	18.72
375.58	16.38
375.78	53.83
375.97	39.79
376.17	138.09
376.37	60.85
376.56	49.15
376.76	72.56
376.95	0.00
377.15	32.77
377.35	37.45
377.54	35.11
377.74	42.13
377.93	0.00
378.13	0.00
378.33	138.09
378.52	58.51
378.72	21.06
378.91	58.51
379.11	21.06
379.31	0.00
379.50	11.70
379.70	0.00
379.89	72.56
380.09	49.15
380.28	37.45
380.48	0.00
380.68	9.36
380.87	0.00
381.07	9.36
381.26	14.04
381.46	0.00
381.65	0.00
381.85	14.04
382.04	0.00
382.24	56.17
382.43	0.00
382.63	0.00
382.83	0.00
383.02	67.88
383.22	42.13
383.41	0.00
383.61	4.68
383.80	25.75
384.00	65.54
384.19	44.47
384.39	4.68
384.58	44.47
384.78	53.83
384.97	0.00
385.17	18.72
385.36	9.36
385.56	25.75
385.75	67.88
385.95	18.72
386.14	46.81
386.34	46.81
386.53	49.15
386.72	49.15
386.92	32.77
387.11	42.13
387.31	0.00
387.50	0.00
387.70	37.45
387.89	42.13
388.09	0.00
388.28	11.70
388.48	98.30
388.67	23.41
388.86	60.85
389.06	65.54
389.25	0.00
389.45	46.81
389.64	28.09
389.84	0.00
390.03	9.36
390.22	0.00
390.42	4.68
390.61	100.64
390.81	53.83
391.00	30.43
391.19	70.22
391.39	14.04
391.58	23.41
391.78	44.47
391.97	105.32
392.16	7.02
392.36	0.00
392.55	30.43
392.75	2.34
392.94	65.54
393.13	23.41
393.33	88.94
393.52	42.13
393.71	0.00
393.91	18.72
394.10	39.79
394.29	32.77
394.49	0.00
394.68	0.00
394.88	65.54
395.07	0.00
395.26	42.13
395.46	23.41
395.65	16.38
395.84	0.00
396.04	0.00
396.23	32.77
396.42	14.04
396.62	2.34
396.81	42.13
397.00	18.72
397.19	56.17
397.39	81.92
397.58	0.00
397.77	0.00
397.97	46.81
398.16	74.90
398.35	16.38
398.55	58.51
398.74	16.38
398.93	0.00
399.12	81.92
399.32	0.00
399.51	0.00
399.70	0.00
399.90	0.00
400.09	16.38
400.28	35.11
400.47	0.00
400.67	39.79
400.86	2.34
401.05	35.11
401.24	11.70
401.44	35.11
401.63	0.00
401.82	39.79
402.01	81.92
402.21	35.11
402.40	58.51
402.59	53.83
402.78	46.81
402.97	35.11
403.17	0.00
403.36	2.34
403.55	72.56
403.74	56.17
403.93	91.28
404.13	35.11
404.32	100.64
404.51	58.51
404.70	44.47
404.89	32.77
405.09	35.11
405.28	18.72
405.47	60.85
405.66	42.13
405.85	25.75
406.05	56.17
406.24	9.36
406.43	110.01
406.62	37.45
406.81	77.24
407.00	51.49
407.20	0.00
407.39	37.45
407.58	23.41
407.77	32.77
407.96	0.00
408.15	32.77
408.34	51.49
408.54	81.92
408.73	72.56
408.92	0.00
409.11	126.39
409.30	23.41
409.49	9.36
409.68	0.00
409.87	11.70
410.07	0.00
410.26	56.17
410.45	53.83
410.64	53.83
410.83	65.54
411.02	0.00
411.21	28.09
411.40	2.34
411.59	0.00
411.78	2.34
411.98	0.00
412.17	7.02
412.36	0.00
412.55	58.51
412.74	32.77
412.93	37.45
413.12	0.00
413.31	46.81
413.50	56.17
413.69	0.00
413.88	0.00
414.07	0.00
414.26	65.54
414.45	14.04
414.64	18.72
414.83	23.41
415.02	35.11
415.22	9.36
415.41	25.75
415.60	14.04
415.79	53.83
415.98	86.60
416.17	91.28
416.36	16.38
416.55	0.00
416.74	77.24
416.93	74.90
417.12	44.47
417.31	0.00
417.50	44.47
417.69	63.19
417.88	77.24
418.07	0.00
418.26	0.00
418.45	14.04
418.64	53.83
418.83	0.00
419.02	86.60
419.21	21.06
419.39	0.00
419.58	79.58
419.77	0.00
419.96	4.68
420.15	42.13
420.34	0.00
420.53	7.02
420.72	77.24
420.91	23.41
421.10	28.09
421.29	46.81
421.48	88.94
421.67	56.17
421.86	0.00
422.05	18.72
422.24	21.06
422.43	37.45
422.61	60.85
422.80	18.72
422.99	56.17
423.18	0.00
423.37	11.70
423.56	28.09
423.75	42.13
423.94	21.06
424.13	46.81
424.32	28.09
424.50	128.73
424.69	0.00
424.88	30.43
425.07	0.00
425.26	2.34
425.45	42.13
425.64	11.70
425.83	44.47
426.01	4.68
426.20	0.00
426.39	51.49
426.58	0.00
426.77	0.00
426.96	0.00
427.15	9.36
427.33	60.85
427.52	37.45
427.71	60.85
427.90	60.85
428.09	74.90
428.28	0.00
428.46	58.51
428.65	4.68
428.84	11.70
429.03	51.49
429.22	0.00
429.40	70.22
429.59	32.77
429.78	46.81
429.97	65.54
430.16	0.00
430.34	18.72
430.53	0.00
430.72	117.03
430.91	21.06
431.10	4.68
431.28	56.17
431.47	28.09
431.66	0.00
431.85	21.06
432.03	28.09
432.22	25.75
432.41	0.00
432.60	35.11
432.79	63.19
432.97	0.00
433.16	0.00
433.35	37.45
433.54	74.90
433.72	7.02
433.91	42.13
434.10	74.90
434.28	65.54
434.47	86.60
434.66	11.70
434.85	70.22
435.03	7.02
435.22	28.09
435.41	39.79
435.59	49.15
435.78	72.56
435.97	0.00
436.16	0.00
436.34	0.00
436.53	0.00
436.72	63.19
436.90	35.11
437.09	32.77
437.28	25.75
437.46	70.22
437.65	42.13
437.84	35.11
438.02	0.00
438.21	14.04
438.40	28.09
438.58	30.43
438.77	100.64
438.96	25.75
439.14	91.28
439.33	30.43
439.52	84.26
439.70	63.19
439.89	121.71
440.08	23.41
440.26	42.13
440.45	4.68
440.63	9.36
440.82	56.17
441.01	37.45
441.19	0.00
441.38	0.00
441.57	0.00
441.75	18.72
441.94	23.41
442.12	42.13
442.31	60.85
442.50	93.62
442.68	0.00
442.87	32.77
443.05	44.47
443.24	4.68
443.43	23.41
443.61	0.00
443.80	58.51
443.98	0.00
444.17	32.77
444.35	0.00
444.54	18.72
444.73	32.77
444.91	23.41
445.10	72.56
445.28	21.06
445.47	0.00
445.65	77.24
445.84	0.00
446.02	16.38
446.21	4.68
446.39	49.15
446.58	28.09
446.77	107.66
446.95	0.00
447.14	58.51
447.32	51.49
447.51	0.00
447.69	21.06
447.88	4.68
448.06	0.00
448.25	23.41
448.43	0.00
448.62	0.00
448.80	16.38
448.99	0.00
449.17	63.19
449.36	28.09
449.54	58.51
449.73	35.11
449.91	46.81
450.10	81.92
450.28	56.17
450.46	93.62
450.65	0.00
450.83	7.02
451.02	0.00
451.20	42.13
451.39	67.88
451.57	67.88
451.76	79.58
451.94	7.02
452.13	30.43
452.31	121.71
452.49	72.56
452.68	25.75
452.86	95.96
453.05	32.77
453.23	0.00
453.42	0.00
453.60	49.15
453.78	42.13
453.97	0.00
454.15	49.15
454.34	44.47
454.52	0.00
454.70	0.00
454.89	35.11
455.07	0.00
455.26	21.06
455.44	30.43
455.62	74.90
455.81	0.00
455.99	0.00
456.17	39.79
456.36	58.51
456.54	58.51
456.73	84.26
456.91	30.43
457.09	2.34
457.28	56.17
457.46	0.00
457.64	28.09
457.83	72.56
458.01	70.22
458.19	0.00
458.38	65.54
458.56	2.34
458.74	0.00
458.93	35.11
459.11	18.72
459.29	18.72
459.48	81.92
459.66	25.75
459.84	0.00
460.03	37.45
460.21	32.77
460.39	2.34
460.57	7.02
460.76	0.00
460.94	77.24
461.12	42.13
461.31	72.56
461.49	81.92
461.67	0.00
461.85	25.75
462.04	2.34
462.22	140.43
462.40	63.19
462.59	81.92
462.77	42.13
462.95	0.00
463.13	42.13
463.32	2.34
463.50	28.09
463.68	28.09
463.86	63.19
464.05	70.22
464.23	131.07
464.41	32.77
464.59	23.41
464.78	0.00
464.96	70.22
465.14	74.90
465.32	91.28
465.50	67.88
465.69	0.00
465.87	67.88
466.05	37.45
466.23	37.45
466.41	0.00
466.60	0.00
466.78	58.51
466.96	65.54
467.14	25.75
467.32	98.30
467.51	0.00
467.69	0.00
467.87	102.98
468.05	51.49
468.23	70.22
468.41	23.41
468.60	42.13
468.78	42.13
468.96	74.90
469.14	105.32
469.32	67.88
469.50	0.00
469.69	72.56
469.87	37.45
470.05	65.54
470.23	25.75
470.41	23.41
470.59	39.79
470.77	44.47
470.95	0.00
471.14	156.82
471.32	102.98
471.50	53.83
471.68	25.75
471.86	0.00
472.04	0.00
472.22	93.62
472.40	70.22
472.58	16.38
472.77	86.60
472.95	67.88
473.13	72.56
473.31	117.03
473.49	30.43
473.67	0.00
473.85	0.00
474.03	32.77
474.21	32.77
474.39	28.09
474.57	21.06
474.75	74.90
474.93	0.00
475.12	9.36
475.30	16.38
475.48	9.36
475.66	14.04
475.84	112.35
476.02	11.70
476.20	79.58
476.38	0.00
476.56	0.00
476.74	37.45
476.92	51.49
477.10	81.92
477.28	0.00
477.46	30.43
477.64	56.17
477.82	51.49
478.00	93.62
478.18	110.01
478.36	0.00
478.54	56.17
478.72	93.62
478.90	37.45
479.08	67.88
479.26	44.47
479.44	0.00
479.62	46.81
479.80	25.75
479.98	32.77
480.16	25.75
480.34	32.77
480.52	39.79
480.70	0.00
480.88	35.11
481.06	65.54
481.24	21.06
481.41	2.34
481.59	32.77
481.77	95.96
481.95	56.17
482.13	9.36
482.31	30.43
482.49	7.02
482.67	18.72
482.85	28.09
483.03	65.54
483.21	72.56
483.39	18.72
483.57	0.00
483.74	37.45
483.92	37.45
484.10	30.43
484.28	44.47
484.46	79.58
484.64	58.51
484.82	70.22
485.00	63.19
485.18	51.49
485.35	65.54
485.53	0.00
485.71	23.41
485.89	16.38
486.07	77.24
486.25	63.19
486.43	58.51
486.61	4.68
486.78	14.04
486.96	95.96
487.14	30.43
487.32	39.79
487.50	0.00
487.68	30.43
487.85	53.83
488.03	25.75
488.21	58.51
488.39	18.72
488.57	60.85
488.75	49.15
488.92	102.98
489.10	0.00
489.28	67.88
489.46	65.54
489.64	0.00
489.81	39.79
489.99	9.36
490.17	131.07
490.35	88.94
490.53	30.43
490.70	79.58
490.88	49.15
491.06	79.58
491.24	11.70
491.41	81.92
491.59	98.30
491.77	0.00
491.95	53.83
492.13	51.49
492.30	63.19
492.48	9.36
492.66	0.00
492.84	39.79
493.01	0.00
493.19	11.70
493.37	21.06
493.54	25.75
493.72	23.41
493.90	88.94
494.08	60.85
494.25	28.09
494.43	65.54
494.61	32.77
494.79	105.32
494.96	16.38
495.14	9.36
495.32	0.00
495.49	72.56
495.67	0.00
495.85	46.81
496.02	46.81
496.20	25.75
496.38	46.81
496.55	0.00
496.73	46.81
496.91	81.92
497.09	37.45
497.26	93.62
497.44	39.79
497.62	32.77
497.79	18.72
497.97	11.70
498.14	56.17
498.32	0.00
498.50	9.36
498.67	58.51
498.85	37.45
499.03	0.00
499.20	0.00
499.38	77.24
499.56	18.72
499.73	42.13
499.91	121.71
500.08	46.81
500.26	102.98
500.44	53.83
500.61	93.62
500.79	65.54
500.97	18.72
501.14	37.45
501.32	2.34
501.49	107.66
501.67	44.47
501.84	42.13
502.02	44.47
502.20	63.19
502.37	60.85
502.55	56.17
502.72	18.72
502.90	86.60
503.07	30.43
503.25	37.45
503.43	39.79
503.60	65.54
503.78	81.92
503.95	9.36
504.13	65.54
504.30	72.56
504.48	58.51
504.65	46.81
504.83	74.90
505.01	30.43
505.18	21.06
505.36	25.75
505.53	67.88
505.71	100.64
505.88	70.22
506.06	63.19
506.23	142.77
506.41	35.11
506.58	11.70
506.76	16.38
506.93	51.49
507.11	37.45
507.28	93.62
507.46	70.22
507.63	28.09
507.81	46.81
507.98	67.88
508.16	0.00
508.33	37.45
508.50	35.11
508.68	28.09
508.85	44.47
509.03	28.09
509.20	49.15
509.38	16.38
509.55	0.00
509.73	102.98
509.90	133.41
510.08	70.22
510.25	60.85
510.42	105.32
510.60	2.34
510.77	56.17
510.95	95.96
511.12	86.60
511.30	93.62
511.47	0.00
511.64	49.15
511.82	32.77
511.99	11.70
512.17	28.09
512.34	49.15
512.51	79.58
512.69	79.58
512.86	44.47
513.04	28.09
513.21	60.85
513.38	25.75
513.56	28.09
513.73	46.81
513.90	53.83
514.08	44.47
514.25	0.00
514.43	21.06
514.60	9.36
514.77	0.00
514.95	84.26
515.12	9.36
515.29	23.41
515.47	44.47
515.64	0.00
515.81	44.47
515.99	79.58
516.16	21.06
516.33	21.06
516.51	21.06
516.68	81.92
516.85	65.54
517.03	14.04
517.20	74.90
517.37	102.98
517.54	30.43
517.72	56.17
517.89	67.88
518.06	18.72
518.24	46.81
518.41	67.88
518.58	102.98
518.75	79.58
518.93	30.43
519.10	102.98
519.27	58.51
519.45	67.88
519.62	42.13
519.79	53.83
519.96	18.72
520.14	11.70
520.31	60.85
520.48	7.02
520.65	98.30
520.83	25.75
521.00	119.37
521.17	67.88
521.34	14.04
521.52	39.79
521.69	37.45
521.86	58.51
522.03	58.51
522.20	39.79
522.38	44.47
522.55	42.13
522.72	79.58
522.89	53.83
523.07	74.90
523.24	37.45
523.41	51.49
523.58	56.17
523.75	49.15
523.92	98.30
524.10	70.22
524.27	65.54
524.44	0.00
524.61	72.56
524.78	49.15
524.96	0.00
525.13	79.58
525.30	49.15
525.47	35.11
525.64	2.34
525.81	25.75
525.98	0.00
526.16	0.00
526.33	74.90
526.50	37.45
526.67	88.94
526.84	51.49
527.01	37.45
527.18	42.13
527.36	74.90
527.53	28.09
527.70	51.49
527.87	37.45
528.04	7.02
528.21	4.68
528.38	49.15
528.55	77.24
528.72	65.54
528.89	0.00
529.07	56.17
529.24	84.26
529.41	79.58
529.58	91.28
529.75	14.04
529.92	72.56
530.09	70.22
530.26	18.72
530.43	77.24
530.60	0.00
530.77	86.60
530.94	63.19
531.11	11.70
531.28	42.13
531.46	0.00
531.63	79.58
531.80	23.41
531.97	0.00
532.14	23.41
532.31	14.04
532.48	9.36
532.65	44.47
532.82	23.41
532.99	77.24
533.16	16.38
533.33	9.36
533.50	84.26
533.67	81.92
533.84	88.94
534.01	63.19
534.18	51.49
534.35	18.72
534.52	72.56
534.69	42.13
534.86	9.36
535.03	46.81
535.20	56.17
535.37	39.79
535.54	11.70
535.71	44.47
535.88	0.00
536.05	0.00
536.22	49.15
536.38	23.41
536.55	18.72
536.72	28.09
536.89	25.75
537.06	35.11
537.23	0.00
537.40	0.00
537.57	65.54
537.74	91.28
537.91	21.06
538.08	23.41
538.25	53.83
538.42	86.60
538.59	39.79
538.75	88.94
538.92	88.94
539.09	0.00
539.26	42.13
539.43	51.49
539.60	117.03
539.77	138.09
539.94	51.49
540.11	16.38
540.28	49.15
540.44	28.09
540.61	39.79
540.78	2.34
540.95	32.77
541.12	42.13
541.29	30.43
541.46	35.11
541.62	21.06
541.79	0.00
541.96	0.00
542.13	37.45
542.30	11.70
542.47	0.00
542.63	72.56
542.80	0.00
542.97	0.00
543.14	51.49
543.31	110.01
543.48	37.45
543.64	65.54
543.81	37.45
543.98	23.41
544.15	93.62
544.32	0.00
544.48	4.68
544.65	65.54
544.82	18.72
544.99	42.13
545.16	28.09
545.32	0.00
545.49	9.36
545.66	77.24
545.83	28.09
546.00	0.00
546.16	67.88
546.33	88.94
546.50	51.49
546.67	23.41
546.83	2.34
547.00	0.00
547.17	21.06
547.34	32.77
547.50	0.00
547.67	42.13
547.84	42.13
548.00	46.81
548.17	37.45
548.34	21.06
548.51	51.49
548.67	0.00
548.84	58.51
549.01	46.81
549.18	35.11
549.34	93.62
549.51	67.88
549.68	58.51
549.84	65.54
550.01	58.51
550.18	42.13
550.34	0.00
550.51	42.13
550.68	9.36
550.84	46.81
551.01	74.90
551.18	100.64
551.34	0.00
551.51	63.19
551.68	39.79
551.84	63.19
552.01	0.00
552.18	44.47
552.34	60.85
552.51	102.98
552.68	32.77
552.84	46.81
553.01	37.45
553.18	74.90
553.34	32.77
553.51	14.04
553.67	53.83
553.84	32.77
554.01	58.51
554.17	67.88
554.34	16.38
554.51	7.02
554.67	28.09
554.84	77.24
555.00	32.77
555.17	93.62
555.33	114.69
555.50	2.34
555.67	18.72
555.83	39.79
556.00	32.77
556.16	37.45
556.33	58.51
556.50	25.75
556.66	14.04
556.83	14.04
556.99	70.22
557.16	44.47
557.32	72.56
557.49	9.36
557.65	46.81
557.82	79.58
557.98	42.13
558.15	0.00
558.32	95.96
558.48	98.30
558.65	28.09
558.81	46.81
558.98	0.00
559.14	100.64
559.31	7.02
559.47	0.00
559.64	70.22
559.80	32.77
559.97	16.38
560.13	0.00
560.30	46.81
560.46	46.81
560.63	0.00
560.79	37.45
560.96	65.54
561.12	70.22
561.29	39.79
561.45	25.75
561.61	2.34
561.78	32.77
561.94	0.00
562.11	49.15
562.27	37.45
562.44	37.45
562.60	23.41
562.77	14.04
562.93	44.47
563.10	77.24
563.26	93.62
563.42	56.17
563.59	100.64
563.75	46.81
563.92	32.77
564.08	63.19
564.24	51.49
564.41	65.54
564.57	72.56
564.74	16.38
564.90	0.00
565.07	51.49
565.23	0.00
565.39	46.81
565.56	0.00
565.72	65.54
565.88	30.43
566.05	4.68
566.21	60.85
566.38	21.06
566.54	0.00
566.70	65.54
566.87	51.49
567.03	74.90
567.19	46.81
567.36	0.00
567.52	37.45
567.68	28.09
567.85	16.38
568.01	70.22
568.17	0.00
568.34	2.34
568.50	0.00
568.66	0.00
568.83	35.11
568.99	107.66
569.15	39.79
569.32	65.54
569.48	60.85
569.64	72.56
569.81	0.00
569.97	102.98
570.13	114.69
570.30	14.04
570.46	4.68
570.62	44.47
570.78	117.03
570.95	91.28
571.11	11.70
571.27	84.26
571.43	0.00
571.60	0.00
571.76	0.00
571.92	16.38
572.09	0.00
572.25	65.54
572.41	51.49
572.57	7.02
572.74	86.60
572.90	7.02
573.06	58.51
573.22	28.09
573.38	25.75
573.55	91.28
573.71	86.60
573.87	56.17
574.03	32.77
574.20	32.77
574.36	86.60
574.52	25.75
574.68	128.73
574.84	86.60
575.01	88.94
575.17	86.60
575.33	11.70
575.49	53.83
575.65	18.72
575.82	44.47
575.98	88.94
576.14	42.13
576.30	102.98
576.46	39.79
576.62	42.13
576.79	84.26
576.95	0.00
577.11	37.45
577.27	9.36
577.43	21.06
577.59	18.72
577.75	42.13
577.92	51.49
578.08	30.43
578.24	35.11
578.40	63.19
578.56	7.02
578.72	32.77
578.88	35.11
579.04	9.36
579.21	67.88
579.37	112.35
579.53	11.70
579.69	142.77
579.85	46.81
580.01	140.43
580.17	63.19
580.33	0.00
580.49	53.83
580.65	117.03
580.82	18.72
580.98	37.45
581.14	46.81
581.30	91.28
581.46	63.19
581.62	0.00
581.78	67.88
581.94	46.81
582.10	7.02
582.26	0.00
582.42	98.30
582.58	44.47
582.74	25.75
582.90	18.72
583.06	53.83
583.22	60.85
583.38	16.38
583.54	23.41
583.70	107.66
583.86	32.77
584.02	95.96
584.18	35.11
584.34	56.17
584.50	93.62
584.66	521.94
584.82	1476.88
584.98	2174.36
585.14	1881.79
585.30	1224.10
585.46	821.53
585.62	486.83
585.78	205.97
585.94	131.07
586.10	23.41
586.26	60.85
586.42	0.00
586.58	14.04
586.74	67.88
586.90	0.00
587.06	21.06
587.22	0.00
587.38	16.38
587.54	58.51
587.70	180.22
587.86	248.10
588.02	210.65
588.18	110.01
588.34	77.24
588.49	98.30
588.65	114.69
588.81	32.77
588.97	56.17
589.13	37.45
589.29	46.81
589.45	56.17
589.61	0.00
589.77	28.09
589.93	0.00
590.08	0.00
590.24	35.11
590.40	65.54
590.56	107.66
590.72	56.17
590.88	72.56
591.04	63.19
591.20	74.90
591.35	53.83
591.51	0.00
591.67	28.09
591.83	25.75
591.99	7.02
592.15	30.43
592.31	9.36
592.46	14.04
592.62	23.41
592.78	175.54
592.94	11.70
593.10	42.13
593.26	18.72
593.41	11.70
593.57	42.13
593.73	63.19
593.89	107.66
594.05	266.82
594.20	330.02
594.36	229.37
594.52	154.48
594.68	173.20
594.84	156.82
594.99	145.11
595.15	81.92
595.31	21.06
595.47	98.30
595.62	0.00
595.78	23.41
595.94	44.47
596.10	0.00
596.25	4.68
596.41	51.49
596.57	0.00
596.73	0.00
596.88	23.41
597.04	88.94
597.20	128.73
597.36	121.71
597.51	65.54
597.67	102.98
597.83	4.68
597.99	63.19
598.14	0.00
598.30	0.00
598.46	23.41
598.61	32.77
598.77	7.02
598.93	86.60
599.09	16.38
599.24	25.75
599.40	53.83
599.56	39.79
599.71	53.83
599.87	100.64
600.03	42.13
600.18	23.41
600.34	23.41
600.50	53.83
600.65	37.45
600.81	7.02
600.97	42.13
601.12	72.56
601.28	44.47
601.44	25.75
601.59	28.09
601.75	98.30
601.91	67.88
602.06	11.70
602.22	74.90
602.37	81.92
602.53	51.49
602.69	128.73
602.84	102.98
603.00	121.71
603.16	65.54
603.31	53.83
603.47	32.77
603.62	16.38
603.78	0.00
603.94	65.54
604.09	35.11
604.25	110.01
604.40	110.01
604.56	4.68
604.71	63.19
604.87	25.75
605.03	70.22
605.18	28.09
605.34	53.83
605.49	112.35
605.65	0.00
605.80	0.00
605.96	51.49
606.12	63.19
606.27	9.36
606.43	18.72
606.58	37.45
606.74	30.43
606.89	140.43
607.05	271.50
607.20	229.37
607.36	166.18
607.51	77.24
607.67	149.79
607.82	105.32
607.98	110.01
608.13	56.17
608.29	56.17
608.44	67.88
608.60	0.00
608.75	11.70
608.91	37.45
609.06	205.97
609.22	304.27
609.37	397.89
609.53	383.85
609.68	252.78
609.84	184.90
609.99	119.37
610.15	72.56
610.30	105.32
610.46	30.43
610.61	65.54
610.76	0.00
610.92	51.49
611.07	0.00
611.23	70.22
611.38	30.43
611.54	0.00
611.69	46.81
611.84	39.79
612.00	25.75
612.15	23.41
612.31	58.51
612.46	37.45
612.62	56.17
612.77	58.51
612.92	128.73
613.08	93.62
613.23	30.43
613.39	0.00
613.54	84.26
613.69	210.65
613.85	449.38
614.00	578.11
614.15	723.23
614.31	575.77
614.46	266.82
614.62	220.01
614.77	79.58
614.92	65.54
615.08	86.60
615.23	91.28
615.38	70.22
615.54	18.72
615.69	79.58
615.84	173.20
616.00	184.90
616.15	234.05
616.30	229.37
616.46	126.39
616.61	131.07
616.76	25.75
616.92	98.30
617.07	107.66
617.22	91.28
617.37	93.62
617.53	107.66
617.68	0.00
617.83	0.00
617.99	0.00
618.14	51.49
618.29	21.06
618.45	53.83
618.60	0.00
618.75	58.51
618.90	28.09
619.06	46.81
619.21	58.51
619.36	56.17
619.51	81.92
619.67	32.77
619.82	25.75
619.97	39.79
620.12	39.79
620.28	28.09
620.43	74.90
620.58	95.96
620.73	0.00
620.89	42.13
621.04	25.75
621.19	114.69
621.34	93.62
621.49	159.16
621.65	175.54
621.80	74.90
621.95	72.56
622.10	51.49
622.25	81.92
622.41	28.09
622.56	74.90
622.71	86.60
622.86	49.15
623.01	0.00
623.16	16.38
623.32	28.09
623.47	37.45
623.62	32.77
623.77	32.77
623.92	0.00
624.07	46.81
624.23	49.15
624.38	74.90
624.53	39.79
624.68	32.77
624.83	21.06
624.98	37.45
625.13	56.17
625.29	16.38
625.44	49.15
625.59	0.00
625.74	79.58
625.89	46.81
626.04	84.26
626.19	269.16
626.34	404.91
626.49	362.78
626.65	341.72
626.80	184.90
626.95	119.37
627.10	140.43
627.25	91.28
627.40	105.32
627.55	77.24
627.70	131.07
627.85	128.73
628.00	9.36
628.15	46.81
628.30	56.17
628.45	79.58
628.60	70.22
628.76	0.00
628.91	0.00
629.06	58.51
629.21	0.00
629.36	37.45
629.51	46.81
629.66	9.36
629.81	51.49
629.96	14.04
630.11	140.43
630.26	117.03
630.41	170.86
630.56	67.88
630.71	100.64
630.86	119.37
631.01	11.70
631.16	0.00
631.31	67.88
631.46	0.00
631.61	0.00
631.76	105.32
631.91	58.51
632.06	30.43
632.21	39.79
632.36	53.83
632.51	98.30
632.66	51.49
632.81	98.30
632.96	168.52
633.10	196.60
633.25	189.58
633.40	252.78
633.55	175.54
633.70	156.82
633.85	119.37
634.00	35.11
634.15	0.00
634.30	35.11
634.45	98.30
634.60	2.34
634.75	0.00
634.90	60.85
635.05	42.13
635.19	44.47
635.34	0.00
635.49	0.00
635.64	18.72
635.79	21.06
635.94	46.81
636.09	0.00
636.24	102.98
636.39	2.34
636.53	37.45
636.68	46.81
636.83	21.06
636.98	93.62
637.13	51.49
637.28	32.77
637.43	42.13
637.57	100.64
637.72	95.96
637.87	241.08
638.02	447.04
638.17	585.13
638.32	409.59
638.46	304.27
638.61	196.60
638.76	114.69
638.91	86.60
639.06	39.79
639.20	42.13
639.35	4.68
639.50	49.15
639.65	194.26
639.80	409.59
639.94	657.69
640.09	760.67
640.24	596.84
640.39	390.87
640.54	198.95
640.68	102.98
640.83	79.58
640.98	67.88
641.13	67.88
641.27	28.09
641.42	42.13
641.57	49.15
641.72	63.19
641.86	53.83
642.01	0.00
642.16	51.49
642.31	37.45
642.45	131.07
642.60	131.07
642.75	46.81
642.90	65.54
643.04	86.60
643.19	72.56
643.34	53.83
643.48	53.83
643.63	2.34
643.78	32.77
643.93	7.02
644.07	74.90
644.22	14.04
644.37	79.58
644.51	42.13
644.66	0.00
644.81	28.09
644.95	70.22
645.10	58.51
645.25	72.56
645.39	23.41
645.54	67.88
645.69	44.47
645.83	72.56
645.98	49.15
646.13	0.00
646.27	4.68
646.42	39.79
646.57	0.00
646.71	0.00
646.86	14.04
647.00	74.90
647.15	0.00
647.30	7.02
647.44	30.43
647.59	79.58
647.74	0.00
647.88	51.49
648.03	74.90
648.17	18.72
648.32	0.00
648.47	49.15
648.61	11.70
648.76	67.88
648.90	32.77
649.05	0.00
649.20	0.00
649.34	46.81
649.49	0.00
649.63	42.13
649.78	0.00
649.92	30.43
650.07	0.00
650.21	163.84
650.36	318.31
650.51	411.93
650.65	301.93
650.80	208.31
650.94	173.20
651.09	126.39
651.23	65.54
651.38	39.79
651.52	126.39
651.67	70.22
651.81	74.90
651.96	84.26
652.10	63.19
652.25	0.00
652.39	11.70
652.54	42.13
652.68	35.11
652.83	0.00
652.97	93.62
653.12	147.45
653.26	110.01
653.41	121.71
653.55	25.75
653.70	84.26
653.84	37.45
653.99	0.00
654.13	81.92
654.27	0.00
654.42	86.60
654.56	46.81
654.71	84.26
654.85	11.70
655.00	16.38
655.14	70.22
655.29	49.15
655.43	112.35
655.57	16.38
655.72	18.72
655.86	56.17
656.01	0.00
656.15	49.15
656.30	37.45
656.44	32.77
656.58	39.79
656.73	58.51
656.87	44.47
657.01	4.68
657.16	35.11
657.30	35.11
657.45	88.94
657.59	74.90
657.73	79.58
657.88	37.45
658.02	0.00
658.16	25.75
658.31	0.00
658.45	63.19
658.60	9.36
658.74	0.00
658.88	0.00
659.03	9.36
659.17	16.38
659.31	30.43
659.46	95.96
659.60	201.29
659.74	191.92
659.89	79.58
660.03	166.18
660.17	152.13
660.32	0.00
660.46	81.92
660.60	42.13
660.74	0.00
660.89	0.00
661.03	11.70
661.17	18.72
661.32	67.88
661.46	74.90
661.60	100.64
661.74	0.00
661.89	0.00
662.03	77.24
662.17	2.34
662.31	77.24
662.46	16.38
662.60	16.38
662.74	65.54
662.88	0.00
663.03	46.81
663.17	46.81
663.31	91.28
663.45	44.47
663.60	21.06
663.74	49.15
663.88	100.64
664.02	0.00
664.17	28.09
664.31	32.77
664.45	53.83
664.59	70.22
664.73	74.90
664.88	124.05
665.02	51.49
665.16	51.49
665.30	0.00
665.44	79.58
665.59	0.00
665.73	35.11
665.87	30.43
666.01	16.38
666.15	46.81
666.29	0.00
666.44	0.00
666.58	44.47
666.72	39.79
666.86	0.00
667.00	0.00
667.14	49.15
667.28	95.96
667.43	201.29
667.57	311.29
667.71	330.02
667.85	273.84
667.99	173.20
668.13	133.41
668.27	166.18
668.41	79.58
668.56	51.49
668.70	84.26
668.84	156.82
668.98	79.58
669.12	70.22
669.26	51.49
669.40	0.00
669.54	72.56
669.68	0.00
669.82	18.72
669.96	0.00
670.10	35.11
670.25	0.00
670.39	51.49
670.53	60.85
670.67	60.85
670.81	0.00
670.95	25.75
671.09	25.75
671.23	23.41
671.37	126.39
671.51	154.48
671.65	238.73
671.79	191.92
671.93	72.56
672.07	182.56
672.21	39.79
672.35	35.11
672.49	81.92
672.63	39.79
672.77	67.88
672.91	0.00
673.05	0.00
673.19	2.34
673.33	0.00
673.47	4.68
673.61	42.13
673.75	0.00
673.89	9.36
674.03	65.54
674.17	0.00
674.31	0.00
674.45	72.56
674.59	51.49
674.73	67.88
674.87	28.09
675.01	16.38
675.15	72.56
675.29	91.28
675.43	86.60
675.56	63.19
675.70	25.75
675.84	77.24
675.98	63.19
676.12	60.85
676.26	0.00
676.40	56.17
676.54	0.00
676.68	30.43
676.82	25.75
676.96	72.56
677.10	63.19
677.23	0.00
677.37	65.54
677.51	9.36
677.65	35.11
677.79	37.45
677.93	39.79
678.07	37.45
678.21	56.17
678.34	0.00
678.48	0.00
678.62	0.00
678.76	42.13
678.90	0.00
679.04	25.75
679.18	46.81
679.31	0.00
679.45	77.24
679.59	65.54
679.73	42.13
679.87	25.75
680.00	11.70
680.14	39.79
680.28	0.00
680.42	0.00
680.56	44.47
680.70	60.85
680.83	56.17
680.97	4.68
681.11	70.22
681.25	0.00
681.39	16.38
681.52	74.90
681.66	9.36
681.80	0.00
681.94	65.54
682.07	16.38
682.21	2.34
682.35	102.98
682.49	53.83
682.62	30.43
682.76	0.00
682.90	37.45
683.04	14.04
683.17	81.92
683.31	0.00
683.45	44.47
683.59	42.13
683.72	67.88
683.86	119.37
684.00	32.77
684.13	0.00
684.27	0.00
684.41	14.04
684.55	65.54
684.68	42.13
684.82	0.00
684.96	0.00
685.09	44.47
685.23	0.00
685.37	35.11
685.50	67.88
685.64	35.11
685.78	0.00
685.91	4.68
686.05	0.00
686.19	65.54
686.32	16.38
686.46	112.35
686.60	51.49
686.73	46.81
686.87	23.41
687.01	91.28
687.14	0.00
687.28	0.00
687.42	23.41
687.55	46.81
687.69	39.79
687.82	74.90
687.96	0.00
688.10	32.77
688.23	14.04
688.37	0.00
688.50	32.77
688.64	0.00
688.78	49.15
688.91	0.00
689.05	91.28
689.18	70.22
689.32	23.41
689.46	0.00
689.59	37.45
689.73	18.72
689.86	0.00
690.00	0.00
690.13	0.00
690.27	77.24
690.41	81.92
690.54	51.49
690.68	25.75
690.81	74.90
690.95	0.00
691.08	11.70
691.22	25.75
691.35	67.88
691.49	88.94
691.62	39.79
691.76	0.00
691.89	60.85
692.03	53.83
692.16	0.00
692.30	37.45
692.43	18.72
692.57	67.88
692.70	117.03
692.84	205.97
692.97	145.11
693.11	74.90
693.24	35.11
693.38	23.41
693.51	49.15
693.65	95.96
693.78	86.60
693.92	72.56
694.05	42.13
694.19	18.72
694.32	53.83
694.45	0.00
694.59	14.04
694.72	4.68
694.86	0.00
694.99	25.75
695.13	28.09
695.26	42.13
695.39	18.72
695.53	58.51
695.66	58.51
695.80	18.72
695.93	86.60
696.07	0.00
696.20	53.83
696.33	88.94
696.47	95.96
696.60	51.49
696.73	30.43
696.87	4.68
697.00	23.41
697.14	88.94
697.27	7.02
697.40	102.98
697.54	0.00
697.67	0.00
697.80	16.38
697.94	42.13
698.07	70.22
698.21	28.09
698.34	32.77
698.47	70.22
698.61	72.56
698.74	60.85
698.87	11.70
699.01	65.54
699.14	98.30
699.27	0.00
699.40	9.36
699.54	138.09
699.67	49.15
699.80	14.04
699.94	0.00
700.07	28.09
700.20	124.05
700.34	0.00
700.47	0.00
700.60	2.34
700.73	46.81
700.87	28.09
701.00	63.19
701.13	2.34
701.26	28.09
701.40	0.00
701.53	11.70
701.66	25.75
701.79	49.15
701.93	32.77
702.06	42.13
702.19	44.47
702.32	53.83
702.46	67.88
702.59	107.66
702.72	37.45
702.85	65.54
702.99	212.99
703.12	236.39
703.25	217.67
703.38	301.93
703.51	259.80
703.65	138.09
703.78	138.09
703.91	135.75
704.04	81.92
704.17	60.85
704.31	79.58
704.44	30.43
704.57	0.00
704.70	32.77
704.83	0.00
704.96	88.94
705.10	49.15
705.23	25.75
>>>>>End Processed Spectral Data<<<<<
