SpectraSuite Data File
++++++++++++++++++++++++++++++++++++
Date: Fri Oct 04 12:13:24 GMT-05:00 2013
User: price-jones
Dark Spectrum Present: No
Reference Spectrum Present: No
Number of Sampled Component Spectra: 1
Spectrometers: USB2+H05261
Integration Time (usec): 10000 (USB2+H05261)
Spectra Averaged: 1 (USB2+H05261)
Boxcar Smoothing: 0 (USB2+H05261)
Correct for Electrical Dark: No (USB2+H05261)
Strobe/Lamp Enabled: No (USB2+H05261)
Correct for Detector Non-linearity: No (USB2+H05261)
Correct for Stray Light: No (USB2+H05261)
Number of Pixels in Processed Spectrum: 2048
>>>>>Begin Processed Spectral Data<<<<<
365.73	0.00
365.92	0.00
366.12	0.00
366.32	0.00
366.52	0.00
366.72	0.00
366.91	0.00
367.11	0.00
367.31	0.00
367.51	0.00
367.70	0.00
367.90	0.00
368.10	0.00
368.30	0.00
368.49	0.00
368.69	0.00
368.89	0.00
369.09	0.00
369.28	0.00
369.48	0.00
369.68	0.00
369.87	0.00
370.07	0.00
370.27	0.00
370.47	0.00
370.66	0.00
370.86	0.00
371.06	0.00
371.25	0.00
371.45	0.00
371.65	0.00
371.84	0.00
372.04	2.34
372.24	0.00
372.44	0.00
372.63	9.36
372.83	58.51
373.03	58.51
373.22	60.85
373.42	100.64
373.62	16.38
373.81	60.85
374.01	30.43
374.21	14.04
374.40	39.79
374.60	67.88
374.79	0.00
374.99	0.00
375.19	39.79
375.38	72.56
375.58	60.85
375.78	65.54
375.97	14.04
376.17	0.00
376.37	21.06
376.56	0.00
376.76	0.00
376.95	51.49
377.15	63.19
377.35	39.79
377.54	18.72
377.74	51.49
377.93	25.75
378.13	0.00
378.33	56.17
378.52	0.00
378.72	25.75
378.91	23.41
379.11	0.00
379.31	0.00
379.50	37.45
379.70	37.45
379.89	0.00
380.09	0.00
380.28	0.00
380.48	42.13
380.68	0.00
380.87	44.47
381.07	0.00
381.26	23.41
381.46	0.00
381.65	18.72
381.85	53.83
382.04	58.51
382.24	0.00
382.43	18.72
382.63	65.54
382.83	0.00
383.02	11.70
383.22	0.00
383.41	0.00
383.61	79.58
383.80	56.17
384.00	21.06
384.19	63.19
384.39	23.41
384.58	0.00
384.78	37.45
384.97	28.09
385.17	65.54
385.36	25.75
385.56	58.51
385.75	0.00
385.95	79.58
386.14	35.11
386.34	0.00
386.53	65.54
386.72	42.13
386.92	0.00
387.11	0.00
387.31	0.00
387.50	60.85
387.70	65.54
387.89	32.77
388.09	0.00
388.28	37.45
388.48	32.77
388.67	0.00
388.86	30.43
389.06	2.34
389.25	0.00
389.45	23.41
389.64	58.51
389.84	0.00
390.03	0.00
390.22	0.00
390.42	46.81
390.61	77.24
390.81	0.00
391.00	0.00
391.19	37.45
391.39	0.00
391.58	4.68
391.78	42.13
391.97	25.75
392.16	65.54
392.36	37.45
392.55	58.51
392.75	18.72
392.94	28.09
393.13	16.38
393.33	77.24
393.52	0.00
393.71	14.04
393.91	0.00
394.10	0.00
394.29	58.51
394.49	67.88
394.68	0.00
394.88	0.00
395.07	18.72
395.26	25.75
395.46	0.00
395.65	42.13
395.84	7.02
396.04	21.06
396.23	65.54
396.42	21.06
396.62	46.81
396.81	44.47
397.00	23.41
397.19	2.34
397.39	51.49
397.58	65.54
397.77	0.00
397.97	0.00
398.16	23.41
398.35	53.83
398.55	25.75
398.74	4.68
398.93	16.38
399.12	16.38
399.32	39.79
399.51	63.19
399.70	4.68
399.90	49.15
400.09	21.06
400.28	63.19
400.47	0.00
400.67	9.36
400.86	0.00
401.05	32.77
401.24	35.11
401.44	53.83
401.63	9.36
401.82	63.19
402.01	25.75
402.21	95.96
402.40	32.77
402.59	0.00
402.78	14.04
402.97	70.22
403.17	11.70
403.36	0.00
403.55	93.62
403.74	37.45
403.93	21.06
404.13	44.47
404.32	16.38
404.51	0.00
404.70	51.49
404.89	0.00
405.09	102.98
405.28	0.00
405.47	49.15
405.66	49.15
405.85	46.81
406.05	37.45
406.24	46.81
406.43	60.85
406.62	25.75
406.81	72.56
407.00	0.00
407.20	32.77
407.39	0.00
407.58	11.70
407.77	58.51
407.96	4.68
408.15	0.00
408.34	79.58
408.54	2.34
408.73	39.79
408.92	51.49
409.11	58.51
409.30	79.58
409.49	32.77
409.68	14.04
409.87	49.15
410.07	37.45
410.26	0.00
410.45	0.00
410.64	23.41
410.83	0.00
411.02	65.54
411.21	63.19
411.40	0.00
411.59	63.19
411.78	9.36
411.98	44.47
412.17	65.54
412.36	74.90
412.55	58.51
412.74	37.45
412.93	39.79
413.12	56.17
413.31	37.45
413.50	21.06
413.69	0.00
413.88	28.09
414.07	58.51
414.26	0.00
414.45	9.36
414.64	32.77
414.83	91.28
415.02	0.00
415.22	0.00
415.41	0.00
415.60	0.00
415.79	0.00
415.98	0.00
416.17	35.11
416.36	16.38
416.55	37.45
416.74	0.00
416.93	0.00
417.12	14.04
417.31	28.09
417.50	32.77
417.69	35.11
417.88	37.45
418.07	35.11
418.26	42.13
418.45	77.24
418.64	0.00
418.83	14.04
419.02	63.19
419.21	39.79
419.39	72.56
419.58	21.06
419.77	16.38
419.96	30.43
420.15	0.00
420.34	0.00
420.53	72.56
420.72	65.54
420.91	42.13
421.10	14.04
421.29	93.62
421.48	42.13
421.67	0.00
421.86	21.06
422.05	0.00
422.24	51.49
422.43	39.79
422.61	39.79
422.80	72.56
422.99	35.11
423.18	42.13
423.37	30.43
423.56	0.00
423.75	53.83
423.94	56.17
424.13	46.81
424.32	42.13
424.50	79.58
424.69	0.00
424.88	16.38
425.07	51.49
425.26	102.98
425.45	42.13
425.64	58.51
425.83	21.06
426.01	9.36
426.20	46.81
426.39	0.00
426.58	49.15
426.77	81.92
426.96	138.09
427.15	67.88
427.33	35.11
427.52	0.00
427.71	46.81
427.90	56.17
428.09	14.04
428.28	95.96
428.46	4.68
428.65	39.79
428.84	18.72
429.03	79.58
429.22	0.00
429.40	49.15
429.59	9.36
429.78	67.88
429.97	42.13
430.16	72.56
430.34	14.04
430.53	44.47
430.72	7.02
430.91	93.62
431.10	0.00
431.28	0.00
431.47	46.81
431.66	25.75
431.85	88.94
432.03	0.00
432.22	86.60
432.41	53.83
432.60	42.13
432.79	30.43
432.97	21.06
433.16	9.36
433.35	42.13
433.54	51.49
433.72	0.00
433.91	44.47
434.10	7.02
434.28	0.00
434.47	74.90
434.66	16.38
434.85	0.00
435.03	0.00
435.22	2.34
435.41	21.06
435.59	39.79
435.78	114.69
435.97	9.36
436.16	53.83
436.34	74.90
436.53	102.98
436.72	128.73
436.90	14.04
437.09	0.00
437.28	0.00
437.46	60.85
437.65	46.81
437.84	23.41
438.02	0.00
438.21	42.13
438.40	9.36
438.58	0.00
438.77	32.77
438.96	14.04
439.14	39.79
439.33	91.28
439.52	0.00
439.70	44.47
439.89	30.43
440.08	39.79
440.26	53.83
440.45	74.90
440.63	46.81
440.82	14.04
441.01	107.66
441.19	28.09
441.38	44.47
441.57	11.70
441.75	2.34
441.94	51.49
442.12	0.00
442.31	46.81
442.50	35.11
442.68	4.68
442.87	28.09
443.05	0.00
443.24	39.79
443.43	18.72
443.61	0.00
443.80	51.49
443.98	16.38
444.17	0.00
444.35	72.56
444.54	42.13
444.73	58.51
444.91	9.36
445.10	14.04
445.28	60.85
445.47	42.13
445.65	30.43
445.84	16.38
446.02	7.02
446.21	53.83
446.39	70.22
446.58	9.36
446.77	28.09
446.95	0.00
447.14	46.81
447.32	0.00
447.51	21.06
447.69	65.54
447.88	65.54
448.06	46.81
448.25	39.79
448.43	28.09
448.62	25.75
448.80	88.94
448.99	18.72
449.17	93.62
449.36	21.06
449.54	0.00
449.73	23.41
449.91	58.51
450.10	100.64
450.28	37.45
450.46	0.00
450.65	18.72
450.83	25.75
451.02	21.06
451.20	30.43
451.39	84.26
451.57	0.00
451.76	91.28
451.94	0.00
452.13	0.00
452.31	16.38
452.49	4.68
452.68	0.00
452.86	18.72
453.05	67.88
453.23	88.94
453.42	0.00
453.60	0.00
453.78	37.45
453.97	51.49
454.15	11.70
454.34	0.00
454.52	0.00
454.70	32.77
454.89	56.17
455.07	0.00
455.26	86.60
455.44	14.04
455.62	16.38
455.81	28.09
455.99	42.13
456.17	60.85
456.36	107.66
456.54	2.34
456.73	53.83
456.91	49.15
457.09	11.70
457.28	81.92
457.46	21.06
457.64	74.90
457.83	84.26
458.01	28.09
458.19	46.81
458.38	51.49
458.56	93.62
458.74	86.60
458.93	56.17
459.11	14.04
459.29	65.54
459.48	37.45
459.66	30.43
459.84	65.54
460.03	63.19
460.21	86.60
460.39	0.00
460.57	14.04
460.76	39.79
460.94	37.45
461.12	133.41
461.31	35.11
461.49	4.68
461.67	0.00
461.85	86.60
462.04	51.49
462.22	42.13
462.40	84.26
462.59	81.92
462.77	0.00
462.95	23.41
463.13	21.06
463.32	51.49
463.50	0.00
463.68	25.75
463.86	56.17
464.05	53.83
464.23	51.49
464.41	39.79
464.59	93.62
464.78	18.72
464.96	65.54
465.14	37.45
465.32	4.68
465.50	32.77
465.69	0.00
465.87	42.13
466.05	7.02
466.23	32.77
466.41	53.83
466.60	35.11
466.78	30.43
466.96	0.00
467.14	95.96
467.32	79.58
467.51	0.00
467.69	37.45
467.87	110.01
468.05	7.02
468.23	32.77
468.41	0.00
468.60	32.77
468.78	28.09
468.96	42.13
469.14	21.06
469.32	30.43
469.50	30.43
469.69	56.17
469.87	51.49
470.05	4.68
470.23	86.60
470.41	39.79
470.59	42.13
470.77	63.19
470.95	84.26
471.14	53.83
471.32	0.00
471.50	0.00
471.68	0.00
471.86	46.81
472.04	46.81
472.22	25.75
472.40	18.72
472.58	9.36
472.77	23.41
472.95	9.36
473.13	0.00
473.31	74.90
473.49	49.15
473.67	35.11
473.85	28.09
474.03	28.09
474.21	2.34
474.39	63.19
474.57	16.38
474.75	63.19
474.93	32.77
475.12	39.79
475.30	0.00
475.48	23.41
475.66	9.36
475.84	16.38
476.02	72.56
476.20	51.49
476.38	0.00
476.56	0.00
476.74	58.51
476.92	32.77
477.10	98.30
477.28	58.51
477.46	44.47
477.64	0.00
477.82	58.51
478.00	42.13
478.18	37.45
478.36	11.70
478.54	39.79
478.72	0.00
478.90	0.00
479.08	4.68
479.26	74.90
479.44	77.24
479.62	35.11
479.80	23.41
479.98	0.00
480.16	0.00
480.34	21.06
480.52	49.15
480.70	35.11
480.88	67.88
481.06	0.00
481.24	70.22
481.41	11.70
481.59	0.00
481.77	0.00
481.95	35.11
482.13	0.00
482.31	65.54
482.49	56.17
482.67	60.85
482.85	21.06
483.03	98.30
483.21	0.00
483.39	16.38
483.57	7.02
483.74	60.85
483.92	30.43
484.10	46.81
484.28	81.92
484.46	81.92
484.64	88.94
484.82	79.58
485.00	98.30
485.18	102.98
485.35	0.00
485.53	35.11
485.71	0.00
485.89	28.09
486.07	37.45
486.25	65.54
486.43	0.00
486.61	9.36
486.78	32.77
486.96	18.72
487.14	44.47
487.32	51.49
487.50	4.68
487.68	112.35
487.85	63.19
488.03	53.83
488.21	67.88
488.39	39.79
488.57	46.81
488.75	35.11
488.92	77.24
489.10	23.41
489.28	65.54
489.46	30.43
489.64	11.70
489.81	102.98
489.99	70.22
490.17	114.69
490.35	9.36
490.53	23.41
490.70	51.49
490.88	0.00
491.06	25.75
491.24	49.15
491.41	67.88
491.59	70.22
491.77	72.56
491.95	70.22
492.13	0.00
492.30	72.56
492.48	0.00
492.66	93.62
492.84	49.15
493.01	51.49
493.19	46.81
493.37	56.17
493.54	86.60
493.72	60.85
493.90	18.72
494.08	56.17
494.25	51.49
494.43	121.71
494.61	121.71
494.79	51.49
494.96	65.54
495.14	154.48
495.32	53.83
495.49	63.19
495.67	18.72
495.85	37.45
496.02	0.00
496.20	79.58
496.38	32.77
496.55	25.75
496.73	81.92
496.91	7.02
497.09	9.36
497.26	16.38
497.44	67.88
497.62	70.22
497.79	63.19
497.97	32.77
498.14	32.77
498.32	0.00
498.50	16.38
498.67	16.38
498.85	21.06
499.03	72.56
499.20	0.00
499.38	117.03
499.56	79.58
499.73	67.88
499.91	0.00
500.08	16.38
500.26	35.11
500.44	16.38
500.61	2.34
500.79	63.19
500.97	117.03
501.14	81.92
501.32	32.77
501.49	105.32
501.67	0.00
501.84	65.54
502.02	46.81
502.20	67.88
502.37	51.49
502.55	25.75
502.72	23.41
502.90	56.17
503.07	28.09
503.25	74.90
503.43	42.13
503.60	23.41
503.78	77.24
503.95	107.66
504.13	0.00
504.30	98.30
504.48	77.24
504.65	65.54
504.83	14.04
505.01	51.49
505.18	77.24
505.36	105.32
505.53	67.88
505.71	25.75
505.88	37.45
506.06	102.98
506.23	100.64
506.41	81.92
506.58	51.49
506.76	18.72
506.93	56.17
507.11	0.00
507.28	4.68
507.46	79.58
507.63	70.22
507.81	35.11
507.98	0.00
508.16	28.09
508.33	18.72
508.50	84.26
508.68	107.66
508.85	32.77
509.03	46.81
509.20	21.06
509.38	65.54
509.55	0.00
509.73	126.39
509.90	70.22
510.08	32.77
510.25	51.49
510.42	37.45
510.60	21.06
510.77	21.06
510.95	30.43
511.12	0.00
511.30	25.75
511.47	77.24
511.64	42.13
511.82	56.17
511.99	58.51
512.17	56.17
512.34	35.11
512.51	42.13
512.69	14.04
512.86	56.17
513.04	86.60
513.21	58.51
513.38	86.60
513.56	91.28
513.73	44.47
513.90	81.92
514.08	25.75
514.25	18.72
514.43	42.13
514.60	74.90
514.77	65.54
514.95	39.79
515.12	86.60
515.29	21.06
515.47	77.24
515.64	0.00
515.81	39.79
515.99	25.75
516.16	16.38
516.33	77.24
516.51	37.45
516.68	37.45
516.85	60.85
517.03	60.85
517.20	0.00
517.37	72.56
517.54	0.00
517.72	63.19
517.89	46.81
518.06	65.54
518.24	93.62
518.41	95.96
518.58	105.32
518.75	18.72
518.93	44.47
519.10	16.38
519.27	74.90
519.45	60.85
519.62	35.11
519.79	100.64
519.96	18.72
520.14	63.19
520.31	37.45
520.48	18.72
520.65	4.68
520.83	0.00
521.00	44.47
521.17	105.32
521.34	77.24
521.52	4.68
521.69	56.17
521.86	58.51
522.03	53.83
522.20	28.09
522.38	30.43
522.55	30.43
522.72	44.47
522.89	124.05
523.07	88.94
523.24	28.09
523.41	21.06
523.58	49.15
523.75	84.26
523.92	25.75
524.10	58.51
524.27	58.51
524.44	49.15
524.61	86.60
524.78	86.60
524.96	81.92
525.13	51.49
525.30	138.09
525.47	100.64
525.64	91.28
525.81	112.35
525.98	4.68
526.16	98.30
526.33	32.77
526.50	16.38
526.67	77.24
526.84	56.17
527.01	2.34
527.18	128.73
527.36	32.77
527.53	9.36
527.70	65.54
527.87	51.49
528.04	98.30
528.21	23.41
528.38	46.81
528.55	72.56
528.72	56.17
528.89	86.60
529.07	117.03
529.24	53.83
529.41	0.00
529.58	42.13
529.75	0.00
529.92	35.11
530.09	77.24
530.26	7.02
530.43	42.13
530.60	74.90
530.77	42.13
530.94	46.81
531.11	56.17
531.28	32.77
531.46	133.41
531.63	30.43
531.80	88.94
531.97	58.51
532.14	77.24
532.31	70.22
532.48	60.85
532.65	32.77
532.82	37.45
532.99	77.24
533.16	14.04
533.33	81.92
533.50	16.38
533.67	42.13
533.84	32.77
534.01	60.85
534.18	70.22
534.35	100.64
534.52	37.45
534.69	95.96
534.86	0.00
535.03	117.03
535.20	65.54
535.37	67.88
535.54	30.43
535.71	23.41
535.88	0.00
536.05	11.70
536.22	49.15
536.38	79.58
536.55	14.04
536.72	9.36
536.89	44.47
537.06	74.90
537.23	121.71
537.40	16.38
537.57	51.49
537.74	28.09
537.91	56.17
538.08	23.41
538.25	70.22
538.42	140.43
538.59	74.90
538.75	70.22
538.92	65.54
539.09	46.81
539.26	102.98
539.43	44.47
539.60	39.79
539.77	37.45
539.94	18.72
540.11	107.66
540.28	131.07
540.44	44.47
540.61	67.88
540.78	4.68
540.95	67.88
541.12	14.04
541.29	42.13
541.46	91.28
541.62	105.32
541.79	21.06
541.96	0.00
542.13	67.88
542.30	46.81
542.47	67.88
542.63	95.96
542.80	30.43
542.97	107.66
543.14	56.17
543.31	72.56
543.48	58.51
543.64	88.94
543.81	51.49
543.98	91.28
544.15	74.90
544.32	91.28
544.48	21.06
544.65	51.49
544.82	70.22
544.99	74.90
545.16	21.06
545.32	0.00
545.49	67.88
545.66	84.26
545.83	88.94
546.00	95.96
546.16	84.26
546.33	95.96
546.50	42.13
546.67	42.13
546.83	70.22
547.00	46.81
547.17	9.36
547.34	58.51
547.50	0.00
547.67	63.19
547.84	0.00
548.00	0.00
548.17	44.47
548.34	0.00
548.51	79.58
548.67	88.94
548.84	60.85
549.01	39.79
549.18	70.22
549.34	56.17
549.51	25.75
549.68	35.11
549.84	11.70
550.01	42.13
550.18	60.85
550.34	0.00
550.51	49.15
550.68	53.83
550.84	77.24
551.01	51.49
551.18	32.77
551.34	39.79
551.51	86.60
551.68	86.60
551.84	70.22
552.01	70.22
552.18	30.43
552.34	7.02
552.51	18.72
552.68	23.41
552.84	28.09
553.01	46.81
553.18	98.30
553.34	0.00
553.51	72.56
553.67	46.81
553.84	63.19
554.01	86.60
554.17	42.13
554.34	32.77
554.51	2.34
554.67	46.81
554.84	21.06
555.00	100.64
555.17	0.00
555.33	32.77
555.50	63.19
555.67	84.26
555.83	67.88
556.00	25.75
556.16	74.90
556.33	0.00
556.50	53.83
556.66	77.24
556.83	67.88
556.99	93.62
557.16	126.39
557.32	37.45
557.49	0.00
557.65	81.92
557.82	4.68
557.98	53.83
558.15	56.17
558.32	37.45
558.48	0.00
558.65	88.94
558.81	152.13
558.98	32.77
559.14	46.81
559.31	30.43
559.47	39.79
559.64	21.06
559.80	39.79
559.97	0.00
560.13	70.22
560.30	9.36
560.46	16.38
560.63	86.60
560.79	128.73
560.96	0.00
561.12	25.75
561.29	0.00
561.45	35.11
561.61	77.24
561.78	98.30
561.94	81.92
562.11	102.98
562.27	58.51
562.44	110.01
562.60	4.68
562.77	4.68
562.93	51.49
563.10	77.24
563.26	25.75
563.42	100.64
563.59	0.00
563.75	0.00
563.92	56.17
564.08	60.85
564.24	30.43
564.41	58.51
564.57	60.85
564.74	65.54
564.90	60.85
565.07	70.22
565.23	102.98
565.39	65.54
565.56	72.56
565.72	72.56
565.88	84.26
566.05	79.58
566.21	77.24
566.38	21.06
566.54	21.06
566.70	70.22
566.87	0.00
567.03	74.90
567.19	93.62
567.36	23.41
567.52	95.96
567.68	74.90
567.85	95.96
568.01	53.83
568.17	0.00
568.34	70.22
568.50	46.81
568.66	37.45
568.83	0.00
568.99	37.45
569.15	63.19
569.32	65.54
569.48	49.15
569.64	114.69
569.81	67.88
569.97	30.43
570.13	2.34
570.30	98.30
570.46	30.43
570.62	0.00
570.78	18.72
570.95	39.79
571.11	39.79
571.27	107.66
571.43	74.90
571.60	112.35
571.76	2.34
571.92	100.64
572.09	79.58
572.25	124.05
572.41	56.17
572.57	37.45
572.74	74.90
572.90	0.00
573.06	72.56
573.22	0.00
573.38	32.77
573.55	0.00
573.71	21.06
573.87	77.24
574.03	7.02
574.20	0.00
574.36	23.41
574.52	37.45
574.68	42.13
574.84	102.98
575.01	42.13
575.17	77.24
575.33	0.00
575.49	93.62
575.65	72.56
575.82	0.00
575.98	65.54
576.14	51.49
576.30	70.22
576.46	65.54
576.62	88.94
576.79	74.90
576.95	23.41
577.11	114.69
577.27	86.60
577.43	25.75
577.59	0.00
577.75	86.60
577.92	56.17
578.08	58.51
578.24	28.09
578.40	14.04
578.56	0.00
578.72	30.43
578.88	88.94
579.04	84.26
579.21	58.51
579.37	112.35
579.53	44.47
579.69	0.00
579.85	0.00
580.01	65.54
580.17	67.88
580.33	18.72
580.49	95.96
580.65	44.47
580.82	88.94
580.98	46.81
581.14	79.58
581.30	9.36
581.46	65.54
581.62	18.72
581.78	32.77
581.94	119.37
582.10	46.81
582.26	49.15
582.42	23.41
582.58	121.71
582.74	35.11
582.90	70.22
583.06	121.71
583.22	65.54
583.38	0.00
583.54	30.43
583.70	79.58
583.86	58.51
584.02	135.75
584.18	70.22
584.34	39.79
584.50	7.02
584.66	11.70
584.82	51.49
584.98	95.96
585.14	0.00
585.30	88.94
585.46	46.81
585.62	65.54
585.78	131.07
585.94	77.24
586.10	0.00
586.26	121.71
586.42	81.92
586.58	0.00
586.74	39.79
586.90	98.30
587.06	32.77
587.22	49.15
587.38	0.00
587.54	30.43
587.70	18.72
587.86	0.00
588.02	0.00
588.18	4.68
588.34	0.00
588.49	4.68
588.65	74.90
588.81	53.83
588.97	60.85
589.13	93.62
589.29	37.45
589.45	39.79
589.61	63.19
589.77	114.69
589.93	0.00
590.08	86.60
590.24	44.47
590.40	65.54
590.56	7.02
590.72	56.17
590.88	100.64
591.04	60.85
591.20	0.00
591.35	0.00
591.51	51.49
591.67	60.85
591.83	114.69
591.99	79.58
592.15	77.24
592.31	23.41
592.46	81.92
592.62	56.17
592.78	32.77
592.94	88.94
593.10	23.41
593.26	77.24
593.41	21.06
593.57	56.17
593.73	32.77
593.89	0.00
594.05	11.70
594.20	39.79
594.36	81.92
594.52	58.51
594.68	30.43
594.84	30.43
594.99	70.22
595.15	0.00
595.31	0.00
595.47	60.85
595.62	39.79
595.78	21.06
595.94	18.72
596.10	0.00
596.25	0.00
596.41	23.41
596.57	25.75
596.73	28.09
596.88	60.85
597.04	53.83
597.20	9.36
597.36	28.09
597.51	74.90
597.67	56.17
597.83	0.00
597.99	4.68
598.14	88.94
598.30	91.28
598.46	32.77
598.61	53.83
598.77	23.41
598.93	56.17
599.09	23.41
599.24	37.45
599.40	51.49
599.56	0.00
599.71	4.68
599.87	16.38
600.03	11.70
600.18	30.43
600.34	30.43
600.50	0.00
600.65	67.88
600.81	2.34
600.97	32.77
601.12	77.24
601.28	53.83
601.44	28.09
601.59	42.13
601.75	7.02
601.91	0.00
602.06	93.62
602.22	72.56
602.37	56.17
602.53	98.30
602.69	84.26
602.84	49.15
603.00	51.49
603.16	56.17
603.31	53.83
603.47	138.09
603.62	67.88
603.78	72.56
603.94	98.30
604.09	21.06
604.25	21.06
604.40	28.09
604.56	0.00
604.71	0.00
604.87	79.58
605.03	35.11
605.18	98.30
605.34	39.79
605.49	102.98
605.65	51.49
605.80	37.45
605.96	88.94
606.12	49.15
606.27	0.00
606.43	11.70
606.58	56.17
606.74	11.70
606.89	86.60
607.05	0.00
607.20	63.19
607.36	53.83
607.51	0.00
607.67	16.38
607.82	35.11
607.98	14.04
608.13	105.32
608.29	86.60
608.44	72.56
608.60	42.13
608.75	79.58
608.91	32.77
609.06	70.22
609.22	117.03
609.37	84.26
609.53	37.45
609.68	25.75
609.84	18.72
609.99	32.77
610.15	49.15
610.30	65.54
610.46	60.85
610.61	53.83
610.76	126.39
610.92	0.00
611.07	135.75
611.23	32.77
611.38	72.56
611.54	105.32
611.69	46.81
611.84	51.49
612.00	79.58
612.15	18.72
612.31	14.04
612.46	56.17
612.62	77.24
612.77	42.13
612.92	35.11
613.08	58.51
613.23	110.01
613.39	79.58
613.54	86.60
613.69	86.60
613.85	49.15
614.00	28.09
614.15	37.45
614.31	18.72
614.46	28.09
614.62	11.70
614.77	0.00
614.92	91.28
615.08	0.00
615.23	0.00
615.38	60.85
615.54	72.56
615.69	28.09
615.84	60.85
616.00	67.88
616.15	11.70
616.30	70.22
616.46	67.88
616.61	51.49
616.76	58.51
616.92	91.28
617.07	65.54
617.22	46.81
617.37	53.83
617.53	37.45
617.68	7.02
617.83	46.81
617.99	11.70
618.14	9.36
618.29	28.09
618.45	42.13
618.60	72.56
618.75	0.00
618.90	16.38
619.06	58.51
619.21	98.30
619.36	30.43
619.51	35.11
619.67	7.02
619.82	88.94
619.97	30.43
620.12	28.09
620.28	117.03
620.43	9.36
620.58	25.75
620.73	28.09
620.89	91.28
621.04	93.62
621.19	67.88
621.34	56.17
621.49	0.00
621.65	49.15
621.80	28.09
621.95	0.00
622.10	7.02
622.25	25.75
622.41	105.32
622.56	49.15
622.71	42.13
622.86	58.51
623.01	4.68
623.16	56.17
623.32	91.28
623.47	88.94
623.62	39.79
623.77	14.04
623.92	79.58
624.07	28.09
624.23	105.32
624.38	49.15
624.53	0.00
624.68	93.62
624.83	51.49
624.98	9.36
625.13	0.00
625.29	88.94
625.44	32.77
625.59	70.22
625.74	4.68
625.89	0.00
626.04	58.51
626.19	0.00
626.34	21.06
626.49	79.58
626.65	112.35
626.80	51.49
626.95	37.45
627.10	14.04
627.25	51.49
627.40	0.00
627.55	51.49
627.70	107.66
627.85	14.04
628.00	51.49
628.15	0.00
628.30	0.00
628.45	21.06
628.60	32.77
628.76	25.75
628.91	152.13
629.06	7.02
629.21	32.77
629.36	0.00
629.51	49.15
629.66	53.83
629.81	53.83
629.96	77.24
630.11	58.51
630.26	2.34
630.41	95.96
630.56	16.38
630.71	7.02
630.86	21.06
631.01	0.00
631.16	16.38
631.31	86.60
631.46	42.13
631.61	30.43
631.76	32.77
631.91	65.54
632.06	60.85
632.21	65.54
632.36	16.38
632.51	51.49
632.66	9.36
632.81	28.09
632.96	81.92
633.10	49.15
633.25	25.75
633.40	88.94
633.55	72.56
633.70	7.02
633.85	0.00
634.00	105.32
634.15	46.81
634.30	14.04
634.45	30.43
634.60	0.00
634.75	9.36
634.90	14.04
635.05	0.00
635.19	25.75
635.34	4.68
635.49	0.00
635.64	16.38
635.79	112.35
635.94	16.38
636.09	49.15
636.24	60.85
636.39	44.47
636.53	0.00
636.68	7.02
636.83	81.92
636.98	44.47
637.13	72.56
637.28	117.03
637.43	98.30
637.57	2.34
637.72	42.13
637.87	37.45
638.02	7.02
638.17	46.81
638.32	35.11
638.46	51.49
638.61	56.17
638.76	81.92
638.91	79.58
639.06	32.77
639.20	63.19
639.35	0.00
639.50	16.38
639.65	77.24
639.80	60.85
639.94	65.54
640.09	0.00
640.24	0.00
640.39	32.77
640.54	63.19
640.68	56.17
640.83	0.00
640.98	56.17
641.13	32.77
641.27	44.47
641.42	30.43
641.57	0.00
641.72	0.00
641.86	28.09
642.01	4.68
642.16	65.54
642.31	32.77
642.45	25.75
642.60	42.13
642.75	60.85
642.90	86.60
643.04	42.13
643.19	102.98
643.34	60.85
643.48	0.00
643.63	93.62
643.78	23.41
643.93	11.70
644.07	58.51
644.22	51.49
644.37	42.13
644.51	79.58
644.66	58.51
644.81	77.24
644.95	56.17
645.10	30.43
645.25	70.22
645.39	21.06
645.54	0.00
645.69	51.49
645.83	79.58
645.98	32.77
646.13	0.00
646.27	98.30
646.42	42.13
646.57	56.17
646.71	65.54
646.86	72.56
647.00	74.90
647.15	67.88
647.30	0.00
647.44	0.00
647.59	32.77
647.74	25.75
647.88	51.49
648.03	42.13
648.17	0.00
648.32	2.34
648.47	21.06
648.61	0.00
648.76	56.17
648.90	30.43
649.05	53.83
649.20	0.00
649.34	30.43
649.49	79.58
649.63	60.85
649.78	21.06
649.92	28.09
650.07	124.05
650.21	11.70
650.36	44.47
650.51	51.49
650.65	32.77
650.80	9.36
650.94	63.19
651.09	11.70
651.23	70.22
651.38	2.34
651.52	0.00
651.67	23.41
651.81	32.77
651.96	0.00
652.10	39.79
652.25	39.79
652.39	18.72
652.54	114.69
652.68	18.72
652.83	67.88
652.97	77.24
653.12	46.81
653.26	0.00
653.41	49.15
653.55	23.41
653.70	37.45
653.84	25.75
653.99	53.83
654.13	51.49
654.27	28.09
654.42	0.00
654.56	67.88
654.71	35.11
654.85	44.47
655.00	77.24
655.14	79.58
655.29	72.56
655.43	0.00
655.57	30.43
655.72	0.00
655.86	0.00
656.01	0.00
656.15	7.02
656.30	105.32
656.44	0.00
656.58	0.00
656.73	58.51
656.87	79.58
657.01	18.72
657.16	23.41
657.30	7.02
657.45	30.43
657.59	0.00
657.73	60.85
657.88	28.09
658.02	39.79
658.16	60.85
658.31	14.04
658.45	9.36
658.60	28.09
658.74	37.45
658.88	0.00
659.03	0.00
659.17	16.38
659.31	25.75
659.46	37.45
659.60	35.11
659.74	98.30
659.89	100.64
660.03	56.17
660.17	25.75
660.32	79.58
660.46	65.54
660.60	86.60
660.74	28.09
660.89	32.77
661.03	60.85
661.17	42.13
661.32	53.83
661.46	30.43
661.60	0.00
661.74	53.83
661.89	11.70
662.03	25.75
662.17	0.00
662.31	32.77
662.46	7.02
662.60	28.09
662.74	0.00
662.88	0.00
663.03	2.34
663.17	67.88
663.31	77.24
663.45	7.02
663.60	56.17
663.74	60.85
663.88	49.15
664.02	25.75
664.17	46.81
664.31	0.00
664.45	0.00
664.59	42.13
664.73	21.06
664.88	32.77
665.02	0.00
665.16	0.00
665.30	0.00
665.44	79.58
665.59	60.85
665.73	70.22
665.87	4.68
666.01	30.43
666.15	53.83
666.29	51.49
666.44	42.13
666.58	39.79
666.72	0.00
666.86	28.09
667.00	74.90
667.14	0.00
667.28	7.02
667.43	46.81
667.57	39.79
667.71	60.85
667.85	16.38
667.99	124.05
668.13	44.47
668.27	0.00
668.41	2.34
668.56	56.17
668.70	51.49
668.84	63.19
668.98	81.92
669.12	74.90
669.26	112.35
669.40	51.49
669.54	11.70
669.68	86.60
669.82	44.47
669.96	56.17
670.10	0.00
670.25	0.00
670.39	0.00
670.53	58.51
670.67	84.26
670.81	42.13
670.95	0.00
671.09	42.13
671.23	105.32
671.37	65.54
671.51	67.88
671.65	60.85
671.79	0.00
671.93	74.90
672.07	56.17
672.21	98.30
672.35	79.58
672.49	105.32
672.63	32.77
672.77	110.01
672.91	0.00
673.05	58.51
673.19	39.79
673.33	30.43
673.47	63.19
673.61	39.79
673.75	0.00
673.89	0.00
674.03	35.11
674.17	9.36
674.31	0.00
674.45	23.41
674.59	58.51
674.73	23.41
674.87	46.81
675.01	25.75
675.15	65.54
675.29	44.47
675.43	0.00
675.56	28.09
675.70	21.06
675.84	23.41
675.98	77.24
676.12	70.22
676.26	44.47
676.40	37.45
676.54	0.00
676.68	16.38
676.82	51.49
676.96	65.54
677.10	28.09
677.23	0.00
677.37	0.00
677.51	79.58
677.65	58.51
677.79	0.00
677.93	0.00
678.07	58.51
678.21	0.00
678.34	42.13
678.48	0.00
678.62	39.79
678.76	56.17
678.90	56.17
679.04	84.26
679.18	65.54
679.31	0.00
679.45	72.56
679.59	44.47
679.73	4.68
679.87	112.35
680.00	79.58
680.14	42.13
680.28	39.79
680.42	0.00
680.56	60.85
680.70	77.24
680.83	7.02
680.97	74.90
681.11	58.51
681.25	0.00
681.39	7.02
681.52	42.13
681.66	49.15
681.80	23.41
681.94	44.47
682.07	4.68
682.21	110.01
682.35	46.81
682.49	44.47
682.62	74.90
682.76	32.77
682.90	9.36
683.04	11.70
683.17	7.02
683.31	58.51
683.45	100.64
683.59	0.00
683.72	0.00
683.86	0.00
684.00	2.34
684.13	0.00
684.27	65.54
684.41	91.28
684.55	145.11
684.68	21.06
684.82	46.81
684.96	0.00
685.09	23.41
685.23	65.54
685.37	53.83
685.50	0.00
685.64	77.24
685.78	58.51
685.91	32.77
686.05	67.88
686.19	46.81
686.32	18.72
686.46	0.00
686.60	30.43
686.73	30.43
686.87	4.68
687.01	53.83
687.14	107.66
687.28	0.00
687.42	124.05
687.55	56.17
687.69	0.00
687.82	35.11
687.96	46.81
688.10	23.41
688.23	51.49
688.37	23.41
688.50	0.00
688.64	67.88
688.78	25.75
688.91	58.51
689.05	32.77
689.18	0.00
689.32	0.00
689.46	58.51
689.59	0.00
689.73	0.00
689.86	25.75
690.00	0.00
690.13	58.51
690.27	0.00
690.41	0.00
690.54	28.09
690.68	56.17
690.81	28.09
690.95	67.88
691.08	0.00
691.22	46.81
691.35	28.09
691.49	30.43
691.62	0.00
691.76	39.79
691.89	91.28
692.03	65.54
692.16	105.32
692.30	81.92
692.43	21.06
692.57	0.00
692.70	4.68
692.84	63.19
692.97	0.00
693.11	21.06
693.24	49.15
693.38	0.00
693.51	4.68
693.65	0.00
693.78	11.70
693.92	51.49
694.05	14.04
694.19	63.19
694.32	11.70
694.45	0.00
694.59	4.68
694.72	0.00
694.86	37.45
694.99	117.03
695.13	88.94
695.26	0.00
695.39	46.81
695.53	88.94
695.66	0.00
695.80	32.77
695.93	72.56
696.07	84.26
696.20	91.28
696.33	7.02
696.47	74.90
696.60	32.77
696.73	67.88
696.87	0.00
697.00	25.75
697.14	14.04
697.27	117.03
697.40	11.70
697.54	9.36
697.67	42.13
697.80	9.36
697.94	32.77
698.07	0.00
698.21	0.00
698.34	0.00
698.47	39.79
698.61	102.98
698.74	46.81
698.87	63.19
699.01	16.38
699.14	95.96
699.27	51.49
699.40	70.22
699.54	7.02
699.67	37.45
699.80	39.79
699.94	32.77
700.07	9.36
700.20	95.96
700.34	0.00
700.47	105.32
700.60	0.00
700.73	2.34
700.87	0.00
701.00	37.45
701.13	37.45
701.26	95.96
701.40	44.47
701.53	67.88
701.66	117.03
701.79	37.45
701.93	42.13
702.06	35.11
702.19	23.41
702.32	58.51
702.46	0.00
702.59	4.68
702.72	0.00
702.85	46.81
702.99	0.00
703.12	0.00
703.25	0.00
703.38	2.34
703.51	25.75
703.65	0.00
703.78	88.94
703.91	121.71
704.04	65.54
704.17	51.49
704.31	37.45
704.44	65.54
704.57	42.13
704.70	79.58
704.83	25.75
704.96	21.06
705.10	56.17
705.23	44.47
>>>>>End Processed Spectral Data<<<<<
