SpectraSuite Data File
++++++++++++++++++++++++++++++++++++
Date: Fri Oct 04 12:13:45 GMT-05:00 2013
User: price-jones
Dark Spectrum Present: No
Reference Spectrum Present: No
Number of Sampled Component Spectra: 1
Spectrometers: USB2+H05261
Integration Time (usec): 10000 (USB2+H05261)
Spectra Averaged: 1 (USB2+H05261)
Boxcar Smoothing: 0 (USB2+H05261)
Correct for Electrical Dark: No (USB2+H05261)
Strobe/Lamp Enabled: No (USB2+H05261)
Correct for Detector Non-linearity: No (USB2+H05261)
Correct for Stray Light: No (USB2+H05261)
Number of Pixels in Processed Spectrum: 2048
>>>>>Begin Processed Spectral Data<<<<<
365.73	25.75
365.92	25.75
366.12	25.75
366.32	0.00
366.52	0.00
366.72	0.00
366.91	0.00
367.11	0.00
367.31	0.00
367.51	0.00
367.70	0.00
367.90	0.00
368.10	0.00
368.30	0.00
368.49	0.00
368.69	0.00
368.89	0.00
369.09	0.00
369.28	0.00
369.48	0.00
369.68	0.00
369.87	0.00
370.07	0.00
370.27	0.00
370.47	0.00
370.66	0.00
370.86	11.70
371.06	0.00
371.25	0.00
371.45	0.00
371.65	37.45
371.84	0.00
372.04	0.00
372.24	2.34
372.44	4.68
372.63	0.00
372.83	0.00
373.03	0.00
373.22	21.06
373.42	39.79
373.62	0.00
373.81	60.85
374.01	18.72
374.21	67.88
374.40	37.45
374.60	95.96
374.79	11.70
374.99	0.00
375.19	0.00
375.38	51.49
375.58	77.24
375.78	60.85
375.97	63.19
376.17	0.00
376.37	9.36
376.56	0.00
376.76	42.13
376.95	0.00
377.15	67.88
377.35	74.90
377.54	0.00
377.74	49.15
377.93	39.79
378.13	105.32
378.33	114.69
378.52	28.09
378.72	30.43
378.91	32.77
379.11	60.85
379.31	30.43
379.50	30.43
379.70	95.96
379.89	35.11
380.09	30.43
380.28	9.36
380.48	0.00
380.68	32.77
380.87	0.00
381.07	18.72
381.26	37.45
381.46	37.45
381.65	11.70
381.85	70.22
382.04	0.00
382.24	0.00
382.43	25.75
382.63	39.79
382.83	39.79
383.02	70.22
383.22	30.43
383.41	46.81
383.61	0.00
383.80	39.79
384.00	51.49
384.19	65.54
384.39	74.90
384.58	0.00
384.78	0.00
384.97	32.77
385.17	7.02
385.36	0.00
385.56	60.85
385.75	0.00
385.95	0.00
386.14	0.00
386.34	0.00
386.53	18.72
386.72	0.00
386.92	0.00
387.11	21.06
387.31	0.00
387.50	46.81
387.70	0.00
387.89	2.34
388.09	30.43
388.28	37.45
388.48	65.54
388.67	72.56
388.86	0.00
389.06	88.94
389.25	14.04
389.45	49.15
389.64	0.00
389.84	0.00
390.03	2.34
390.22	42.13
390.42	0.00
390.61	9.36
390.81	0.00
391.00	70.22
391.19	0.00
391.39	37.45
391.58	14.04
391.78	9.36
391.97	14.04
392.16	11.70
392.36	37.45
392.55	49.15
392.75	21.06
392.94	42.13
393.13	49.15
393.33	14.04
393.52	4.68
393.71	44.47
393.91	72.56
394.10	4.68
394.29	49.15
394.49	16.38
394.68	0.00
394.88	14.04
395.07	119.37
395.26	0.00
395.46	35.11
395.65	39.79
395.84	65.54
396.04	67.88
396.23	35.11
396.42	49.15
396.62	0.00
396.81	42.13
397.00	91.28
397.19	51.49
397.39	11.70
397.58	65.54
397.77	88.94
397.97	119.37
398.16	23.41
398.35	51.49
398.55	0.00
398.74	30.43
398.93	30.43
399.12	2.34
399.32	51.49
399.51	63.19
399.70	35.11
399.90	114.69
400.09	58.51
400.28	58.51
400.47	63.19
400.67	63.19
400.86	100.64
401.05	128.73
401.24	30.43
401.44	0.00
401.63	67.88
401.82	117.03
402.01	39.79
402.21	86.60
402.40	0.00
402.59	21.06
402.78	35.11
402.97	0.00
403.17	77.24
403.36	7.02
403.55	37.45
403.74	39.79
403.93	67.88
404.13	4.68
404.32	0.00
404.51	131.07
404.70	39.79
404.89	0.00
405.09	37.45
405.28	14.04
405.47	21.06
405.66	86.60
405.85	0.00
406.05	0.00
406.24	37.45
406.43	0.00
406.62	70.22
406.81	93.62
407.00	79.58
407.20	49.15
407.39	32.77
407.58	30.43
407.77	0.00
407.96	107.66
408.15	84.26
408.34	51.49
408.54	21.06
408.73	23.41
408.92	88.94
409.11	74.90
409.30	56.17
409.49	72.56
409.68	18.72
409.87	35.11
410.07	16.38
410.26	0.00
410.45	16.38
410.64	51.49
410.83	159.16
411.02	0.00
411.21	100.64
411.40	58.51
411.59	63.19
411.78	70.22
411.98	25.75
412.17	30.43
412.36	74.90
412.55	0.00
412.74	30.43
412.93	2.34
413.12	9.36
413.31	21.06
413.50	81.92
413.69	81.92
413.88	4.68
414.07	11.70
414.26	32.77
414.45	18.72
414.64	56.17
414.83	28.09
415.02	84.26
415.22	81.92
415.41	79.58
415.60	79.58
415.79	93.62
415.98	23.41
416.17	77.24
416.36	86.60
416.55	86.60
416.74	32.77
416.93	23.41
417.12	58.51
417.31	70.22
417.50	91.28
417.69	84.26
417.88	86.60
418.07	0.00
418.26	79.58
418.45	37.45
418.64	49.15
418.83	39.79
419.02	42.13
419.21	84.26
419.39	88.94
419.58	46.81
419.77	14.04
419.96	16.38
420.15	21.06
420.34	63.19
420.53	18.72
420.72	42.13
420.91	51.49
421.10	42.13
421.29	119.37
421.48	2.34
421.67	56.17
421.86	39.79
422.05	30.43
422.24	37.45
422.43	70.22
422.61	25.75
422.80	16.38
422.99	16.38
423.18	65.54
423.37	67.88
423.56	42.13
423.75	9.36
423.94	79.58
424.13	100.64
424.32	39.79
424.50	0.00
424.69	46.81
424.88	30.43
425.07	77.24
425.26	28.09
425.45	42.13
425.64	86.60
425.83	112.35
426.01	39.79
426.20	72.56
426.39	32.77
426.58	49.15
426.77	23.41
426.96	16.38
427.15	86.60
427.33	51.49
427.52	11.70
427.71	14.04
427.90	42.13
428.09	63.19
428.28	0.00
428.46	49.15
428.65	93.62
428.84	49.15
429.03	114.69
429.22	124.05
429.40	79.58
429.59	0.00
429.78	105.32
429.97	58.51
430.16	9.36
430.34	14.04
430.53	46.81
430.72	56.17
430.91	46.81
431.10	60.85
431.28	74.90
431.47	77.24
431.66	100.64
431.85	18.72
432.03	14.04
432.22	70.22
432.41	49.15
432.60	0.00
432.79	79.58
432.97	74.90
433.16	72.56
433.35	0.00
433.54	23.41
433.72	37.45
433.91	117.03
434.10	58.51
434.28	9.36
434.47	93.62
434.66	84.26
434.85	23.41
435.03	124.05
435.22	81.92
435.41	93.62
435.59	60.85
435.78	11.70
435.97	60.85
436.16	98.30
436.34	77.24
436.53	46.81
436.72	72.56
436.90	117.03
437.09	124.05
437.28	84.26
437.46	0.00
437.65	11.70
437.84	72.56
438.02	30.43
438.21	110.01
438.40	35.11
438.58	11.70
438.77	56.17
438.96	102.98
439.14	138.09
439.33	67.88
439.52	91.28
439.70	110.01
439.89	93.62
440.08	49.15
440.26	91.28
440.45	100.64
440.63	95.96
440.82	70.22
441.01	28.09
441.19	81.92
441.38	46.81
441.57	46.81
441.75	88.94
441.94	79.58
442.12	117.03
442.31	18.72
442.50	102.98
442.68	39.79
442.87	79.58
443.05	72.56
443.24	60.85
443.43	53.83
443.61	67.88
443.80	93.62
443.98	60.85
444.17	86.60
444.35	86.60
444.54	72.56
444.73	100.64
444.91	23.41
445.10	46.81
445.28	67.88
445.47	117.03
445.65	166.18
445.84	70.22
446.02	63.19
446.21	0.00
446.39	25.75
446.58	51.49
446.77	84.26
446.95	14.04
447.14	72.56
447.32	28.09
447.51	117.03
447.69	30.43
447.88	56.17
448.06	114.69
448.25	110.01
448.43	70.22
448.62	63.19
448.80	74.90
448.99	88.94
449.17	7.02
449.36	79.58
449.54	65.54
449.73	102.98
449.91	72.56
450.10	9.36
450.28	79.58
450.46	102.98
450.65	44.47
450.83	74.90
451.02	67.88
451.20	100.64
451.39	95.96
451.57	126.39
451.76	105.32
451.94	0.00
452.13	173.20
452.31	119.37
452.49	44.47
452.68	14.04
452.86	91.28
453.05	63.19
453.23	105.32
453.42	77.24
453.60	56.17
453.78	77.24
453.97	128.73
454.15	79.58
454.34	84.26
454.52	67.88
454.70	98.30
454.89	102.98
455.07	98.30
455.26	42.13
455.44	35.11
455.62	2.34
455.81	39.79
455.99	131.07
456.17	84.26
456.36	93.62
456.54	60.85
456.73	25.75
456.91	25.75
457.09	25.75
457.28	60.85
457.46	53.83
457.64	18.72
457.83	72.56
458.01	124.05
458.19	23.41
458.38	74.90
458.56	93.62
458.74	117.03
458.93	93.62
459.11	124.05
459.29	81.92
459.48	39.79
459.66	86.60
459.84	0.00
460.03	84.26
460.21	84.26
460.39	95.96
460.57	117.03
460.76	72.56
460.94	124.05
461.12	159.16
461.31	84.26
461.49	58.51
461.67	184.90
461.85	56.17
462.04	102.98
462.22	173.20
462.40	51.49
462.59	95.96
462.77	25.75
462.95	126.39
463.13	86.60
463.32	91.28
463.50	21.06
463.68	53.83
463.86	74.90
464.05	77.24
464.23	124.05
464.41	65.54
464.59	72.56
464.78	77.24
464.96	128.73
465.14	67.88
465.32	77.24
465.50	35.11
465.69	56.17
465.87	117.03
466.05	70.22
466.23	0.00
466.41	95.96
466.60	63.19
466.78	37.45
466.96	77.24
467.14	142.77
467.32	74.90
467.51	93.62
467.69	112.35
467.87	0.00
468.05	119.37
468.23	49.15
468.41	86.60
468.60	79.58
468.78	46.81
468.96	100.64
469.14	81.92
469.32	84.26
469.50	32.77
469.69	25.75
469.87	102.98
470.05	93.62
470.23	49.15
470.41	91.28
470.59	56.17
470.77	35.11
470.95	60.85
471.14	70.22
471.32	170.86
471.50	44.47
471.68	67.88
471.86	39.79
472.04	67.88
472.22	79.58
472.40	58.51
472.58	126.39
472.77	93.62
472.95	46.81
473.13	105.32
473.31	140.43
473.49	86.60
473.67	112.35
473.85	67.88
474.03	25.75
474.21	23.41
474.39	95.96
474.57	117.03
474.75	53.83
474.93	84.26
475.12	128.73
475.30	128.73
475.48	0.00
475.66	32.77
475.84	18.72
476.02	0.00
476.20	98.30
476.38	14.04
476.56	93.62
476.74	117.03
476.92	70.22
477.10	93.62
477.28	128.73
477.46	114.69
477.64	53.83
477.82	114.69
478.00	126.39
478.18	44.47
478.36	65.54
478.54	67.88
478.72	117.03
478.90	126.39
479.08	149.79
479.26	67.88
479.44	65.54
479.62	81.92
479.80	9.36
479.98	149.79
480.16	102.98
480.34	121.71
480.52	56.17
480.70	67.88
480.88	98.30
481.06	42.13
481.24	35.11
481.41	105.32
481.59	32.77
481.77	81.92
481.95	53.83
482.13	140.43
482.31	30.43
482.49	0.00
482.67	49.15
482.85	102.98
483.03	114.69
483.21	63.19
483.39	84.26
483.57	93.62
483.74	91.28
483.92	100.64
484.10	91.28
484.28	63.19
484.46	98.30
484.64	88.94
484.82	77.24
485.00	14.04
485.18	128.73
485.35	86.60
485.53	74.90
485.71	170.86
485.89	95.96
486.07	154.48
486.25	58.51
486.43	74.90
486.61	112.35
486.78	49.15
486.96	91.28
487.14	70.22
487.32	86.60
487.50	102.98
487.68	133.41
487.85	119.37
488.03	107.66
488.21	140.43
488.39	46.81
488.57	23.41
488.75	105.32
488.92	95.96
489.10	98.30
489.28	105.32
489.46	112.35
489.64	131.07
489.81	152.13
489.99	168.52
490.17	208.31
490.35	107.66
490.53	135.75
490.70	180.22
490.88	159.16
491.06	95.96
491.24	84.26
491.41	86.60
491.59	72.56
491.77	30.43
491.95	100.64
492.13	100.64
492.30	135.75
492.48	138.09
492.66	149.79
492.84	93.62
493.01	65.54
493.19	107.66
493.37	84.26
493.54	100.64
493.72	46.81
493.90	98.30
494.08	110.01
494.25	58.51
494.43	86.60
494.61	91.28
494.79	98.30
494.96	79.58
495.14	107.66
495.32	133.41
495.49	149.79
495.67	114.69
495.85	110.01
496.02	133.41
496.20	173.20
496.38	46.81
496.55	70.22
496.73	79.58
496.91	121.71
497.09	142.77
497.26	86.60
497.44	140.43
497.62	51.49
497.79	58.51
497.97	107.66
498.14	91.28
498.32	119.37
498.50	63.19
498.67	124.05
498.85	51.49
499.03	56.17
499.20	117.03
499.38	105.32
499.56	110.01
499.73	140.43
499.91	126.39
500.08	93.62
500.26	138.09
500.44	98.30
500.61	117.03
500.79	100.64
500.97	100.64
501.14	70.22
501.32	138.09
501.49	53.83
501.67	133.41
501.84	131.07
502.02	102.98
502.20	88.94
502.37	114.69
502.55	74.90
502.72	86.60
502.90	154.48
503.07	74.90
503.25	105.32
503.43	30.43
503.60	98.30
503.78	79.58
503.95	114.69
504.13	46.81
504.30	138.09
504.48	117.03
504.65	98.30
504.83	91.28
505.01	37.45
505.18	84.26
505.36	86.60
505.53	131.07
505.71	177.88
505.88	140.43
506.06	102.98
506.23	60.85
506.41	65.54
506.58	107.66
506.76	86.60
506.93	107.66
507.11	105.32
507.28	53.83
507.46	39.79
507.63	102.98
507.81	42.13
507.98	91.28
508.16	117.03
508.33	187.24
508.50	152.13
508.68	110.01
508.85	154.48
509.03	161.50
509.20	60.85
509.38	124.05
509.55	37.45
509.73	198.95
509.90	105.32
510.08	124.05
510.25	105.32
510.42	142.77
510.60	140.43
510.77	117.03
510.95	168.52
511.12	67.88
511.30	67.88
511.47	84.26
511.64	156.82
511.82	74.90
511.99	110.01
512.17	175.54
512.34	142.77
512.51	133.41
512.69	152.13
512.86	175.54
513.04	93.62
513.21	117.03
513.38	98.30
513.56	124.05
513.73	100.64
513.90	131.07
514.08	91.28
514.25	72.56
514.43	86.60
514.60	147.45
514.77	42.13
514.95	65.54
515.12	84.26
515.29	133.41
515.47	79.58
515.64	107.66
515.81	152.13
515.99	128.73
516.16	156.82
516.33	161.50
516.51	159.16
516.68	93.62
516.85	117.03
517.03	74.90
517.20	145.11
517.37	95.96
517.54	81.92
517.72	93.62
517.89	107.66
518.06	100.64
518.24	126.39
518.41	72.56
518.58	114.69
518.75	128.73
518.93	140.43
519.10	110.01
519.27	147.45
519.45	105.32
519.62	110.01
519.79	105.32
519.96	121.71
520.14	149.79
520.31	147.45
520.48	110.01
520.65	100.64
520.83	133.41
521.00	84.26
521.17	86.60
521.34	128.73
521.52	86.60
521.69	159.16
521.86	88.94
522.03	114.69
522.20	102.98
522.38	119.37
522.55	105.32
522.72	138.09
522.89	95.96
523.07	86.60
523.24	119.37
523.41	74.90
523.58	114.69
523.75	105.32
523.92	133.41
524.10	117.03
524.27	2.34
524.44	126.39
524.61	149.79
524.78	93.62
524.96	182.56
525.13	91.28
525.30	173.20
525.47	119.37
525.64	88.94
525.81	124.05
525.98	138.09
526.16	124.05
526.33	119.37
526.50	128.73
526.67	46.81
526.84	79.58
527.01	88.94
527.18	168.52
527.36	91.28
527.53	95.96
527.70	77.24
527.87	145.11
528.04	37.45
528.21	84.26
528.38	102.98
528.55	119.37
528.72	110.01
528.89	131.07
529.07	135.75
529.24	154.48
529.41	63.19
529.58	14.04
529.75	46.81
529.92	79.58
530.09	175.54
530.26	110.01
530.43	98.30
530.60	177.88
530.77	60.85
530.94	140.43
531.11	102.98
531.28	138.09
531.46	60.85
531.63	217.67
531.80	110.01
531.97	70.22
532.14	159.16
532.31	154.48
532.48	74.90
532.65	159.16
532.82	126.39
532.99	105.32
533.16	74.90
533.33	102.98
533.50	133.41
533.67	107.66
533.84	72.56
534.01	124.05
534.18	128.73
534.35	140.43
534.52	51.49
534.69	98.30
534.86	30.43
535.03	88.94
535.20	147.45
535.37	133.41
535.54	128.73
535.71	126.39
535.88	112.35
536.05	67.88
536.22	91.28
536.38	149.79
536.55	133.41
536.72	100.64
536.89	138.09
537.06	51.49
537.23	114.69
537.40	102.98
537.57	86.60
537.74	74.90
537.91	117.03
538.08	142.77
538.25	70.22
538.42	133.41
538.59	86.60
538.75	84.26
538.92	180.22
539.09	133.41
539.26	140.43
539.43	84.26
539.60	67.88
539.77	86.60
539.94	49.15
540.11	56.17
540.28	110.01
540.44	147.45
540.61	98.30
540.78	91.28
540.95	100.64
541.12	107.66
541.29	147.45
541.46	93.62
541.62	142.77
541.79	72.56
541.96	51.49
542.13	126.39
542.30	117.03
542.47	114.69
542.63	145.11
542.80	131.07
542.97	81.92
543.14	100.64
543.31	79.58
543.48	100.64
543.64	131.07
543.81	149.79
543.98	152.13
544.15	114.69
544.32	173.20
544.48	49.15
544.65	74.90
544.82	140.43
544.99	77.24
545.16	119.37
545.32	102.98
545.49	79.58
545.66	142.77
545.83	86.60
546.00	95.96
546.16	117.03
546.33	84.26
546.50	175.54
546.67	114.69
546.83	77.24
547.00	95.96
547.17	173.20
547.34	63.19
547.50	91.28
547.67	121.71
547.84	105.32
548.00	121.71
548.17	177.88
548.34	98.30
548.51	117.03
548.67	81.92
548.84	191.92
549.01	163.84
549.18	145.11
549.34	121.71
549.51	112.35
549.68	112.35
549.84	131.07
550.01	110.01
550.18	138.09
550.34	81.92
550.51	95.96
550.68	93.62
550.84	95.96
551.01	105.32
551.18	86.60
551.34	74.90
551.51	65.54
551.68	126.39
551.84	159.16
552.01	142.77
552.18	110.01
552.34	112.35
552.51	86.60
552.68	18.72
552.84	74.90
553.01	210.65
553.18	100.64
553.34	98.30
553.51	133.41
553.67	142.77
553.84	102.98
554.01	53.83
554.17	114.69
554.34	208.31
554.51	147.45
554.67	145.11
554.84	117.03
555.00	100.64
555.17	145.11
555.33	46.81
555.50	140.43
555.67	147.45
555.83	46.81
556.00	107.66
556.16	154.48
556.33	95.96
556.50	142.77
556.66	67.88
556.83	168.52
556.99	205.97
557.16	173.20
557.32	88.94
557.49	177.88
557.65	114.69
557.82	149.79
557.98	81.92
558.15	77.24
558.32	77.24
558.48	65.54
558.65	67.88
558.81	86.60
558.98	25.75
559.14	98.30
559.31	128.73
559.47	51.49
559.64	102.98
559.80	70.22
559.97	119.37
560.13	110.01
560.30	70.22
560.46	102.98
560.63	117.03
560.79	156.82
560.96	44.47
561.12	79.58
561.29	170.86
561.45	46.81
561.61	135.75
561.78	145.11
561.94	74.90
562.11	170.86
562.27	112.35
562.44	102.98
562.60	100.64
562.77	119.37
562.93	98.30
563.10	60.85
563.26	67.88
563.42	126.39
563.59	131.07
563.75	88.94
563.92	91.28
564.08	117.03
564.24	114.69
564.41	145.11
564.57	72.56
564.74	95.96
564.90	112.35
565.07	156.82
565.23	112.35
565.39	128.73
565.56	133.41
565.72	63.19
565.88	42.13
566.05	81.92
566.21	21.06
566.38	119.37
566.54	154.48
566.70	63.19
566.87	133.41
567.03	180.22
567.19	91.28
567.36	88.94
567.52	107.66
567.68	74.90
567.85	39.79
568.01	140.43
568.17	30.43
568.34	86.60
568.50	51.49
568.66	79.58
568.83	133.41
568.99	95.96
569.15	21.06
569.32	110.01
569.48	166.18
569.64	110.01
569.81	133.41
569.97	140.43
570.13	124.05
570.30	98.30
570.46	93.62
570.62	53.83
570.78	79.58
570.95	70.22
571.11	88.94
571.27	110.01
571.43	49.15
571.60	135.75
571.76	147.45
571.92	180.22
572.09	102.98
572.25	77.24
572.41	189.58
572.57	112.35
572.74	84.26
572.90	51.49
573.06	117.03
573.22	140.43
573.38	145.11
573.55	72.56
573.71	114.69
573.87	102.98
574.03	65.54
574.20	56.17
574.36	16.38
574.52	79.58
574.68	65.54
574.84	18.72
575.01	70.22
575.17	65.54
575.33	51.49
575.49	51.49
575.65	70.22
575.82	140.43
575.98	70.22
576.14	28.09
576.30	51.49
576.46	98.30
576.62	135.75
576.79	65.54
576.95	110.01
577.11	56.17
577.27	65.54
577.43	95.96
577.59	166.18
577.75	98.30
577.92	126.39
578.08	91.28
578.24	100.64
578.40	112.35
578.56	93.62
578.72	138.09
578.88	84.26
579.04	46.81
579.21	100.64
579.37	124.05
579.53	70.22
579.69	112.35
579.85	114.69
580.01	173.20
580.17	49.15
580.33	86.60
580.49	102.98
580.65	131.07
580.82	72.56
580.98	74.90
581.14	152.13
581.30	117.03
581.46	74.90
581.62	128.73
581.78	56.17
581.94	86.60
582.10	84.26
582.26	7.02
582.42	70.22
582.58	79.58
582.74	84.26
582.90	156.82
583.06	91.28
583.22	46.81
583.38	79.58
583.54	67.88
583.70	105.32
583.86	86.60
584.02	74.90
584.18	79.58
584.34	49.15
584.50	135.75
584.66	84.26
584.82	72.56
584.98	81.92
585.14	114.69
585.30	149.79
585.46	86.60
585.62	145.11
585.78	175.54
585.94	58.51
586.10	16.38
586.26	67.88
586.42	170.86
586.58	133.41
586.74	79.58
586.90	112.35
587.06	53.83
587.22	102.98
587.38	56.17
587.54	63.19
587.70	53.83
587.86	37.45
588.02	67.88
588.18	37.45
588.34	65.54
588.49	63.19
588.65	51.49
588.81	72.56
588.97	91.28
589.13	86.60
589.29	30.43
589.45	79.58
589.61	84.26
589.77	140.43
589.93	70.22
590.08	135.75
590.24	39.79
590.40	84.26
590.56	23.41
590.72	46.81
590.88	88.94
591.04	100.64
591.20	74.90
591.35	84.26
591.51	177.88
591.67	88.94
591.83	46.81
591.99	44.47
592.15	107.66
592.31	30.43
592.46	51.49
592.62	93.62
592.78	133.41
592.94	88.94
593.10	112.35
593.26	112.35
593.41	88.94
593.57	77.24
593.73	35.11
593.89	93.62
594.05	140.43
594.20	124.05
594.36	65.54
594.52	131.07
594.68	37.45
594.84	53.83
594.99	117.03
595.15	140.43
595.31	102.98
595.47	44.47
595.62	112.35
595.78	51.49
595.94	28.09
596.10	98.30
596.25	95.96
596.41	37.45
596.57	72.56
596.73	63.19
596.88	53.83
597.04	124.05
597.20	9.36
597.36	32.77
597.51	60.85
597.67	88.94
597.83	112.35
597.99	88.94
598.14	114.69
598.30	42.13
598.46	53.83
598.61	107.66
598.77	124.05
598.93	105.32
599.09	131.07
599.24	86.60
599.40	84.26
599.56	23.41
599.71	121.71
599.87	88.94
600.03	112.35
600.18	77.24
600.34	30.43
600.50	67.88
600.65	91.28
600.81	105.32
600.97	63.19
601.12	72.56
601.28	138.09
601.44	81.92
601.59	107.66
601.75	42.13
601.91	56.17
602.06	107.66
602.22	98.30
602.37	95.96
602.53	81.92
602.69	91.28
602.84	30.43
603.00	37.45
603.16	79.58
603.31	46.81
603.47	74.90
603.62	84.26
603.78	112.35
603.94	72.56
604.09	126.39
604.25	131.07
604.40	70.22
604.56	16.38
604.71	163.84
604.87	0.00
605.03	18.72
605.18	46.81
605.34	67.88
605.49	131.07
605.65	98.30
605.80	23.41
605.96	37.45
606.12	37.45
606.27	100.64
606.43	42.13
606.58	74.90
606.74	110.01
606.89	149.79
607.05	131.07
607.20	128.73
607.36	88.94
607.51	77.24
607.67	93.62
607.82	170.86
607.98	65.54
608.13	177.88
608.29	114.69
608.44	23.41
608.60	28.09
608.75	86.60
608.91	58.51
609.06	138.09
609.22	25.75
609.37	51.49
609.53	124.05
609.68	77.24
609.84	58.51
609.99	58.51
610.15	37.45
610.30	91.28
610.46	86.60
610.61	110.01
610.76	105.32
610.92	105.32
611.07	131.07
611.23	124.05
611.38	44.47
611.54	77.24
611.69	110.01
611.84	42.13
612.00	0.00
612.15	93.62
612.31	63.19
612.46	133.41
612.62	84.26
612.77	138.09
612.92	67.88
613.08	79.58
613.23	37.45
613.39	30.43
613.54	67.88
613.69	98.30
613.85	74.90
614.00	51.49
614.15	56.17
614.31	14.04
614.46	39.79
614.62	105.32
614.77	53.83
614.92	65.54
615.08	67.88
615.23	107.66
615.38	107.66
615.54	119.37
615.69	84.26
615.84	67.88
616.00	95.96
616.15	98.30
616.30	25.75
616.46	60.85
616.61	53.83
616.76	154.48
616.92	117.03
617.07	77.24
617.22	72.56
617.37	81.92
617.53	67.88
617.68	60.85
617.83	60.85
617.99	63.19
618.14	32.77
618.29	35.11
618.45	23.41
618.60	63.19
618.75	58.51
618.90	93.62
619.06	156.82
619.21	138.09
619.36	88.94
619.51	126.39
619.67	70.22
619.82	28.09
619.97	124.05
620.12	44.47
620.28	42.13
620.43	114.69
620.58	51.49
620.73	93.62
620.89	102.98
621.04	44.47
621.19	102.98
621.34	117.03
621.49	58.51
621.65	37.45
621.80	60.85
621.95	77.24
622.10	114.69
622.25	44.47
622.41	32.77
622.56	84.26
622.71	39.79
622.86	110.01
623.01	98.30
623.16	138.09
623.32	46.81
623.47	42.13
623.62	72.56
623.77	67.88
623.92	35.11
624.07	86.60
624.23	67.88
624.38	63.19
624.53	70.22
624.68	117.03
624.83	126.39
624.98	72.56
625.13	138.09
625.29	23.41
625.44	107.66
625.59	49.15
625.74	112.35
625.89	124.05
626.04	25.75
626.19	95.96
626.34	56.17
626.49	30.43
626.65	77.24
626.80	4.68
626.95	72.56
627.10	39.79
627.25	98.30
627.40	81.92
627.55	93.62
627.70	81.92
627.85	18.72
628.00	100.64
628.15	35.11
628.30	42.13
628.45	35.11
628.60	70.22
628.76	107.66
628.91	93.62
629.06	91.28
629.21	67.88
629.36	63.19
629.51	53.83
629.66	56.17
629.81	49.15
629.96	84.26
630.11	16.38
630.26	110.01
630.41	74.90
630.56	105.32
630.71	81.92
630.86	105.32
631.01	30.43
631.16	7.02
631.31	67.88
631.46	21.06
631.61	93.62
631.76	105.32
631.91	112.35
632.06	110.01
632.21	88.94
632.36	100.64
632.51	60.85
632.66	84.26
632.81	63.19
632.96	152.13
633.10	18.72
633.25	98.30
633.40	0.00
633.55	51.49
633.70	56.17
633.85	117.03
634.00	37.45
634.15	46.81
634.30	25.75
634.45	0.00
634.60	25.75
634.75	84.26
634.90	60.85
635.05	51.49
635.19	28.09
635.34	79.58
635.49	81.92
635.64	84.26
635.79	81.92
635.94	79.58
636.09	14.04
636.24	105.32
636.39	72.56
636.53	0.00
636.68	67.88
636.83	25.75
636.98	91.28
637.13	65.54
637.28	56.17
637.43	56.17
637.57	105.32
637.72	72.56
637.87	56.17
638.02	81.92
638.17	102.98
638.32	100.64
638.46	77.24
638.61	58.51
638.76	81.92
638.91	112.35
639.06	107.66
639.20	11.70
639.35	42.13
639.50	46.81
639.65	79.58
639.80	30.43
639.94	67.88
640.09	49.15
640.24	21.06
640.39	44.47
640.54	88.94
640.68	28.09
640.83	42.13
640.98	49.15
641.13	16.38
641.27	98.30
641.42	11.70
641.57	11.70
641.72	67.88
641.86	79.58
642.01	2.34
642.16	14.04
642.31	107.66
642.45	77.24
642.60	121.71
642.75	98.30
642.90	95.96
643.04	67.88
643.19	70.22
643.34	53.83
643.48	63.19
643.63	88.94
643.78	37.45
643.93	77.24
644.07	95.96
644.22	81.92
644.37	72.56
644.51	63.19
644.66	53.83
644.81	117.03
644.95	107.66
645.10	102.98
645.25	25.75
645.39	131.07
645.54	42.13
645.69	58.51
645.83	74.90
645.98	98.30
646.13	156.82
646.27	72.56
646.42	93.62
646.57	100.64
646.71	60.85
646.86	93.62
647.00	142.77
647.15	30.43
647.30	88.94
647.44	56.17
647.59	21.06
647.74	35.11
647.88	14.04
648.03	121.71
648.17	114.69
648.32	53.83
648.47	95.96
648.61	0.00
648.76	46.81
648.90	88.94
649.05	0.00
649.20	65.54
649.34	25.75
649.49	37.45
649.63	58.51
649.78	124.05
649.92	102.98
650.07	7.02
650.21	44.47
650.36	32.77
650.51	35.11
650.65	110.01
650.80	60.85
650.94	74.90
651.09	39.79
651.23	28.09
651.38	100.64
651.52	37.45
651.67	93.62
651.81	74.90
651.96	32.77
652.10	63.19
652.25	100.64
652.39	35.11
652.54	119.37
652.68	86.60
652.83	23.41
652.97	67.88
653.12	46.81
653.26	72.56
653.41	112.35
653.55	28.09
653.70	28.09
653.84	86.60
653.99	86.60
654.13	23.41
654.27	107.66
654.42	98.30
654.56	25.75
654.71	56.17
654.85	63.19
655.00	49.15
655.14	98.30
655.29	70.22
655.43	65.54
655.57	100.64
655.72	67.88
655.86	16.38
656.01	23.41
656.15	2.34
656.30	67.88
656.44	23.41
656.58	0.00
656.73	74.90
656.87	86.60
657.01	65.54
657.16	107.66
657.30	44.47
657.45	86.60
657.59	77.24
657.73	46.81
657.88	79.58
658.02	84.26
658.16	51.49
658.31	88.94
658.45	65.54
658.60	142.77
658.74	30.43
658.88	105.32
659.03	86.60
659.17	0.00
659.31	35.11
659.46	74.90
659.60	98.30
659.74	117.03
659.89	37.45
660.03	42.13
660.17	128.73
660.32	51.49
660.46	21.06
660.60	70.22
660.74	81.92
660.89	51.49
661.03	25.75
661.17	16.38
661.32	63.19
661.46	98.30
661.60	95.96
661.74	65.54
661.89	9.36
662.03	84.26
662.17	0.00
662.31	67.88
662.46	21.06
662.60	18.72
662.74	18.72
662.88	79.58
663.03	51.49
663.17	0.00
663.31	11.70
663.45	49.15
663.60	14.04
663.74	46.81
663.88	79.58
664.02	42.13
664.17	18.72
664.31	9.36
664.45	58.51
664.59	7.02
664.73	51.49
664.88	23.41
665.02	0.00
665.16	49.15
665.30	86.60
665.44	28.09
665.59	37.45
665.73	44.47
665.87	0.00
666.01	11.70
666.15	93.62
666.29	65.54
666.44	156.82
666.58	77.24
666.72	42.13
666.86	53.83
667.00	67.88
667.14	42.13
667.28	56.17
667.43	67.88
667.57	21.06
667.71	53.83
667.85	14.04
667.99	35.11
668.13	67.88
668.27	74.90
668.41	56.17
668.56	46.81
668.70	72.56
668.84	65.54
668.98	65.54
669.12	86.60
669.26	86.60
669.40	72.56
669.54	93.62
669.68	39.79
669.82	100.64
669.96	2.34
670.10	30.43
670.25	35.11
670.39	110.01
670.53	49.15
670.67	93.62
670.81	0.00
670.95	65.54
671.09	44.47
671.23	65.54
671.37	44.47
671.51	126.39
671.65	42.13
671.79	18.72
671.93	105.32
672.07	79.58
672.21	56.17
672.35	32.77
672.49	25.75
672.63	35.11
672.77	67.88
672.91	51.49
673.05	30.43
673.19	63.19
673.33	0.00
673.47	112.35
673.61	42.13
673.75	72.56
673.89	0.00
674.03	102.98
674.17	0.00
674.31	9.36
674.45	67.88
674.59	86.60
674.73	0.00
674.87	30.43
675.01	23.41
675.15	49.15
675.29	46.81
675.43	53.83
675.56	105.32
675.70	112.35
675.84	74.90
675.98	56.17
676.12	44.47
676.26	0.00
676.40	58.51
676.54	102.98
676.68	53.83
676.82	84.26
676.96	74.90
677.10	37.45
677.23	91.28
677.37	91.28
677.51	9.36
677.65	84.26
677.79	77.24
677.93	60.85
678.07	70.22
678.21	0.00
678.34	105.32
678.48	46.81
678.62	14.04
678.76	51.49
678.90	0.00
679.04	46.81
679.18	7.02
679.31	56.17
679.45	110.01
679.59	14.04
679.73	37.45
679.87	25.75
680.00	81.92
680.14	49.15
680.28	79.58
680.42	63.19
680.56	7.02
680.70	11.70
680.83	21.06
680.97	49.15
681.11	49.15
681.25	0.00
681.39	25.75
681.52	98.30
681.66	9.36
681.80	102.98
681.94	56.17
682.07	9.36
682.21	7.02
682.35	0.00
682.49	88.94
682.62	11.70
682.76	7.02
682.90	39.79
683.04	53.83
683.17	63.19
683.31	107.66
683.45	0.00
683.59	14.04
683.72	0.00
683.86	39.79
684.00	95.96
684.13	32.77
684.27	42.13
684.41	63.19
684.55	51.49
684.68	86.60
684.82	21.06
684.96	51.49
685.09	124.05
685.23	56.17
685.37	102.98
685.50	42.13
685.64	25.75
685.78	58.51
685.91	42.13
686.05	91.28
686.19	14.04
686.32	81.92
686.46	79.58
686.60	23.41
686.73	77.24
686.87	28.09
687.01	35.11
687.14	14.04
687.28	70.22
687.42	28.09
687.55	21.06
687.69	0.00
687.82	18.72
687.96	18.72
688.10	18.72
688.23	37.45
688.37	88.94
688.50	67.88
688.64	25.75
688.78	112.35
688.91	0.00
689.05	37.45
689.18	0.00
689.32	32.77
689.46	114.69
689.59	23.41
689.73	23.41
689.86	18.72
690.00	0.00
690.13	84.26
690.27	70.22
690.41	42.13
690.54	0.00
690.68	25.75
690.81	42.13
690.95	44.47
691.08	37.45
691.22	18.72
691.35	39.79
691.49	4.68
691.62	46.81
691.76	124.05
691.89	51.49
692.03	14.04
692.16	32.77
692.30	100.64
692.43	39.79
692.57	65.54
692.70	51.49
692.84	91.28
692.97	21.06
693.11	4.68
693.24	0.00
693.38	51.49
693.51	60.85
693.65	32.77
693.78	53.83
693.92	0.00
694.05	25.75
694.19	112.35
694.32	0.00
694.45	42.13
694.59	14.04
694.72	77.24
694.86	2.34
694.99	21.06
695.13	18.72
695.26	65.54
695.39	42.13
695.53	21.06
695.66	0.00
695.80	23.41
695.93	88.94
696.07	60.85
696.20	65.54
696.33	30.43
696.47	14.04
696.60	44.47
696.73	32.77
696.87	86.60
697.00	25.75
697.14	18.72
697.27	4.68
697.40	35.11
697.54	42.13
697.67	37.45
697.80	42.13
697.94	0.00
698.07	25.75
698.21	0.00
698.34	84.26
698.47	0.00
698.61	23.41
698.74	0.00
698.87	30.43
699.01	72.56
699.14	18.72
699.27	67.88
699.40	14.04
699.54	0.00
699.67	16.38
699.80	0.00
699.94	110.01
700.07	39.79
700.20	0.00
700.34	0.00
700.47	60.85
700.60	4.68
700.73	0.00
700.87	60.85
701.00	67.88
701.13	77.24
701.26	145.11
701.40	58.51
701.53	21.06
701.66	74.90
701.79	77.24
701.93	100.64
702.06	88.94
702.19	37.45
702.32	65.54
702.46	117.03
702.59	67.88
702.72	65.54
702.85	51.49
702.99	44.47
703.12	100.64
703.25	0.00
703.38	35.11
703.51	0.00
703.65	46.81
703.78	42.13
703.91	32.77
704.04	51.49
704.17	0.00
704.31	37.45
704.44	23.41
704.57	0.00
704.70	7.02
704.83	37.45
704.96	0.00
705.10	42.13
705.23	37.45
>>>>>End Processed Spectral Data<<<<<
