SpectraSuite Data File
++++++++++++++++++++++++++++++++++++
Date: Fri Oct 04 12:13:28 GMT-05:00 2013
User: price-jones
Dark Spectrum Present: No
Reference Spectrum Present: No
Number of Sampled Component Spectra: 1
Spectrometers: USB2+H05261
Integration Time (usec): 10000 (USB2+H05261)
Spectra Averaged: 1 (USB2+H05261)
Boxcar Smoothing: 0 (USB2+H05261)
Correct for Electrical Dark: No (USB2+H05261)
Strobe/Lamp Enabled: No (USB2+H05261)
Correct for Detector Non-linearity: No (USB2+H05261)
Correct for Stray Light: No (USB2+H05261)
Number of Pixels in Processed Spectrum: 2048
>>>>>Begin Processed Spectral Data<<<<<
365.73	25.75
365.92	25.75
366.12	25.75
366.32	0.00
366.52	0.00
366.72	0.00
366.91	0.00
367.11	0.00
367.31	0.00
367.51	0.00
367.70	0.00
367.90	0.00
368.10	0.00
368.30	0.00
368.49	0.00
368.69	0.00
368.89	0.00
369.09	0.00
369.28	0.00
369.48	0.00
369.68	0.00
369.87	0.00
370.07	0.00
370.27	0.00
370.47	0.00
370.66	0.00
370.86	0.00
371.06	0.00
371.25	0.00
371.45	0.00
371.65	0.00
371.84	0.00
372.04	0.00
372.24	0.00
372.44	9.36
372.63	0.00
372.83	0.00
373.03	7.02
373.22	0.00
373.42	32.77
373.62	44.47
373.81	63.19
374.01	0.00
374.21	23.41
374.40	0.00
374.60	0.00
374.79	65.54
374.99	49.15
375.19	23.41
375.38	42.13
375.58	56.17
375.78	28.09
375.97	63.19
376.17	35.11
376.37	35.11
376.56	0.00
376.76	44.47
376.95	0.00
377.15	39.79
377.35	58.51
377.54	0.00
377.74	42.13
377.93	11.70
378.13	16.38
378.33	25.75
378.52	49.15
378.72	11.70
378.91	58.51
379.11	0.00
379.31	25.75
379.50	2.34
379.70	30.43
379.89	35.11
380.09	21.06
380.28	11.70
380.48	0.00
380.68	0.00
380.87	9.36
381.07	44.47
381.26	0.00
381.46	0.00
381.65	2.34
381.85	42.13
382.04	18.72
382.24	63.19
382.43	28.09
382.63	60.85
382.83	25.75
383.02	21.06
383.22	14.04
383.41	0.00
383.61	21.06
383.80	21.06
384.00	16.38
384.19	35.11
384.39	0.00
384.58	0.00
384.78	0.00
384.97	56.17
385.17	42.13
385.36	0.00
385.56	0.00
385.75	2.34
385.95	7.02
386.14	42.13
386.34	32.77
386.53	63.19
386.72	14.04
386.92	0.00
387.11	0.00
387.31	42.13
387.50	37.45
387.70	56.17
387.89	51.49
388.09	0.00
388.28	0.00
388.48	67.88
388.67	0.00
388.86	30.43
389.06	0.00
389.25	0.00
389.45	14.04
389.64	0.00
389.84	105.32
390.03	4.68
390.22	16.38
390.42	32.77
390.61	0.00
390.81	18.72
391.00	0.00
391.19	93.62
391.39	60.85
391.58	18.72
391.78	16.38
391.97	0.00
392.16	9.36
392.36	117.03
392.55	16.38
392.75	4.68
392.94	0.00
393.13	25.75
393.33	0.00
393.52	0.00
393.71	102.98
393.91	98.30
394.10	21.06
394.29	7.02
394.49	0.00
394.68	0.00
394.88	0.00
395.07	0.00
395.26	25.75
395.46	32.77
395.65	0.00
395.84	117.03
396.04	23.41
396.23	16.38
396.42	0.00
396.62	44.47
396.81	39.79
397.00	9.36
397.19	46.81
397.39	9.36
397.58	42.13
397.77	2.34
397.97	44.47
398.16	86.60
398.35	0.00
398.55	28.09
398.74	4.68
398.93	0.00
399.12	67.88
399.32	0.00
399.51	56.17
399.70	60.85
399.90	42.13
400.09	14.04
400.28	88.94
400.47	0.00
400.67	0.00
400.86	21.06
401.05	16.38
401.24	65.54
401.44	0.00
401.63	39.79
401.82	46.81
402.01	67.88
402.21	18.72
402.40	32.77
402.59	0.00
402.78	0.00
402.97	9.36
403.17	0.00
403.36	0.00
403.55	0.00
403.74	30.43
403.93	30.43
404.13	16.38
404.32	0.00
404.51	25.75
404.70	105.32
404.89	67.88
405.09	0.00
405.28	77.24
405.47	56.17
405.66	95.96
405.85	28.09
406.05	14.04
406.24	11.70
406.43	23.41
406.62	21.06
406.81	14.04
407.00	23.41
407.20	0.00
407.39	11.70
407.58	4.68
407.77	56.17
407.96	63.19
408.15	25.75
408.34	23.41
408.54	74.90
408.73	53.83
408.92	25.75
409.11	42.13
409.30	126.39
409.49	95.96
409.68	32.77
409.87	23.41
410.07	7.02
410.26	0.00
410.45	44.47
410.64	77.24
410.83	14.04
411.02	49.15
411.21	39.79
411.40	42.13
411.59	30.43
411.78	4.68
411.98	0.00
412.17	0.00
412.36	7.02
412.55	0.00
412.74	88.94
412.93	72.56
413.12	37.45
413.31	2.34
413.50	81.92
413.69	18.72
413.88	0.00
414.07	37.45
414.26	28.09
414.45	32.77
414.64	0.00
414.83	18.72
415.02	49.15
415.22	0.00
415.41	0.00
415.60	65.54
415.79	0.00
415.98	0.00
416.17	0.00
416.36	0.00
416.55	37.45
416.74	58.51
416.93	49.15
417.12	30.43
417.31	14.04
417.50	0.00
417.69	51.49
417.88	112.35
418.07	56.17
418.26	107.66
418.45	58.51
418.64	42.13
418.83	91.28
419.02	30.43
419.21	0.00
419.39	91.28
419.58	0.00
419.77	77.24
419.96	0.00
420.15	46.81
420.34	0.00
420.53	39.79
420.72	49.15
420.91	35.11
421.10	11.70
421.29	44.47
421.48	0.00
421.67	51.49
421.86	0.00
422.05	16.38
422.24	16.38
422.43	65.54
422.61	14.04
422.80	63.19
422.99	49.15
423.18	30.43
423.37	0.00
423.56	32.77
423.75	63.19
423.94	0.00
424.13	30.43
424.32	32.77
424.50	21.06
424.69	0.00
424.88	0.00
425.07	11.70
425.26	14.04
425.45	63.19
425.64	21.06
425.83	37.45
426.01	88.94
426.20	46.81
426.39	37.45
426.58	60.85
426.77	58.51
426.96	39.79
427.15	11.70
427.33	0.00
427.52	0.00
427.71	56.17
427.90	37.45
428.09	0.00
428.28	81.92
428.46	65.54
428.65	91.28
428.84	32.77
429.03	0.00
429.22	46.81
429.40	42.13
429.59	79.58
429.78	53.83
429.97	11.70
430.16	42.13
430.34	84.26
430.53	2.34
430.72	56.17
430.91	102.98
431.10	4.68
431.28	35.11
431.47	39.79
431.66	0.00
431.85	0.00
432.03	32.77
432.22	18.72
432.41	14.04
432.60	44.47
432.79	70.22
432.97	53.83
433.16	42.13
433.35	2.34
433.54	0.00
433.72	95.96
433.91	56.17
434.10	0.00
434.28	44.47
434.47	37.45
434.66	14.04
434.85	0.00
435.03	0.00
435.22	70.22
435.41	0.00
435.59	102.98
435.78	9.36
435.97	0.00
436.16	14.04
436.34	23.41
436.53	67.88
436.72	51.49
436.90	42.13
437.09	42.13
437.28	0.00
437.46	35.11
437.65	63.19
437.84	30.43
438.02	11.70
438.21	93.62
438.40	63.19
438.58	65.54
438.77	0.00
438.96	70.22
439.14	30.43
439.33	35.11
439.52	117.03
439.70	74.90
439.89	44.47
440.08	35.11
440.26	28.09
440.45	28.09
440.63	0.00
440.82	53.83
441.01	0.00
441.19	110.01
441.38	88.94
441.57	2.34
441.75	81.92
441.94	35.11
442.12	0.00
442.31	11.70
442.50	23.41
442.68	63.19
442.87	0.00
443.05	4.68
443.24	42.13
443.43	14.04
443.61	32.77
443.80	18.72
443.98	67.88
444.17	25.75
444.35	28.09
444.54	56.17
444.73	16.38
444.91	91.28
445.10	9.36
445.28	9.36
445.47	93.62
445.65	30.43
445.84	60.85
446.02	0.00
446.21	7.02
446.39	30.43
446.58	0.00
446.77	2.34
446.95	16.38
447.14	37.45
447.32	70.22
447.51	21.06
447.69	30.43
447.88	60.85
448.06	0.00
448.25	0.00
448.43	0.00
448.62	70.22
448.80	70.22
448.99	0.00
449.17	0.00
449.36	0.00
449.54	72.56
449.73	72.56
449.91	0.00
450.10	28.09
450.28	28.09
450.46	21.06
450.65	44.47
450.83	0.00
451.02	63.19
451.20	28.09
451.39	56.17
451.57	23.41
451.76	77.24
451.94	58.51
452.13	67.88
452.31	63.19
452.49	32.77
452.68	53.83
452.86	0.00
453.05	16.38
453.23	0.00
453.42	25.75
453.60	65.54
453.78	91.28
453.97	46.81
454.15	16.38
454.34	28.09
454.52	0.00
454.70	67.88
454.89	0.00
455.07	63.19
455.26	60.85
455.44	56.17
455.62	18.72
455.81	44.47
455.99	28.09
456.17	2.34
456.36	67.88
456.54	18.72
456.73	95.96
456.91	42.13
457.09	25.75
457.28	74.90
457.46	0.00
457.64	16.38
457.83	4.68
458.01	0.00
458.19	77.24
458.38	25.75
458.56	23.41
458.74	51.49
458.93	30.43
459.11	0.00
459.29	30.43
459.48	51.49
459.66	23.41
459.84	81.92
460.03	16.38
460.21	81.92
460.39	65.54
460.57	67.88
460.76	16.38
460.94	102.98
461.12	70.22
461.31	107.66
461.49	100.64
461.67	37.45
461.85	70.22
462.04	98.30
462.22	30.43
462.40	25.75
462.59	77.24
462.77	30.43
462.95	86.60
463.13	84.26
463.32	0.00
463.50	49.15
463.68	53.83
463.86	60.85
464.05	0.00
464.23	32.77
464.41	7.02
464.59	32.77
464.78	0.00
464.96	79.58
465.14	49.15
465.32	14.04
465.50	0.00
465.69	21.06
465.87	0.00
466.05	0.00
466.23	0.00
466.41	58.51
466.60	32.77
466.78	65.54
466.96	0.00
467.14	117.03
467.32	11.70
467.51	30.43
467.69	30.43
467.87	58.51
468.05	16.38
468.23	74.90
468.41	0.00
468.60	42.13
468.78	21.06
468.96	84.26
469.14	0.00
469.32	0.00
469.50	21.06
469.69	0.00
469.87	46.81
470.05	2.34
470.23	42.13
470.41	39.79
470.59	70.22
470.77	0.00
470.95	18.72
471.14	56.17
471.32	77.24
471.50	0.00
471.68	65.54
471.86	56.17
472.04	65.54
472.22	51.49
472.40	46.81
472.58	44.47
472.77	28.09
472.95	0.00
473.13	32.77
473.31	0.00
473.49	67.88
473.67	56.17
473.85	42.13
474.03	0.00
474.21	56.17
474.39	39.79
474.57	32.77
474.75	0.00
474.93	2.34
475.12	84.26
475.30	58.51
475.48	56.17
475.66	0.00
475.84	0.00
476.02	0.00
476.20	16.38
476.38	35.11
476.56	53.83
476.74	0.00
476.92	74.90
477.10	21.06
477.28	72.56
477.46	56.17
477.64	23.41
477.82	91.28
478.00	51.49
478.18	67.88
478.36	63.19
478.54	30.43
478.72	37.45
478.90	9.36
479.08	4.68
479.26	4.68
479.44	23.41
479.62	4.68
479.80	14.04
479.98	70.22
480.16	0.00
480.34	28.09
480.52	0.00
480.70	46.81
480.88	126.39
481.06	72.56
481.24	21.06
481.41	58.51
481.59	16.38
481.77	2.34
481.95	0.00
482.13	56.17
482.31	44.47
482.49	42.13
482.67	51.49
482.85	51.49
483.03	30.43
483.21	32.77
483.39	23.41
483.57	67.88
483.74	23.41
483.92	0.00
484.10	11.70
484.28	28.09
484.46	16.38
484.64	81.92
484.82	18.72
485.00	2.34
485.18	11.70
485.35	93.62
485.53	102.98
485.71	30.43
485.89	86.60
486.07	7.02
486.25	0.00
486.43	30.43
486.61	46.81
486.78	25.75
486.96	60.85
487.14	0.00
487.32	84.26
487.50	0.00
487.68	65.54
487.85	0.00
488.03	0.00
488.21	65.54
488.39	37.45
488.57	65.54
488.75	7.02
488.92	91.28
489.10	18.72
489.28	56.17
489.46	105.32
489.64	0.00
489.81	0.00
489.99	25.75
490.17	35.11
490.35	28.09
490.53	51.49
490.70	0.00
490.88	11.70
491.06	37.45
491.24	21.06
491.41	2.34
491.59	0.00
491.77	35.11
491.95	21.06
492.13	65.54
492.30	0.00
492.48	28.09
492.66	9.36
492.84	4.68
493.01	21.06
493.19	112.35
493.37	30.43
493.54	32.77
493.72	44.47
493.90	0.00
494.08	46.81
494.25	16.38
494.43	0.00
494.61	0.00
494.79	42.13
494.96	58.51
495.14	30.43
495.32	23.41
495.49	53.83
495.67	53.83
495.85	63.19
496.02	0.00
496.20	0.00
496.38	18.72
496.55	0.00
496.73	49.15
496.91	16.38
497.09	81.92
497.26	37.45
497.44	84.26
497.62	72.56
497.79	44.47
497.97	107.66
498.14	0.00
498.32	102.98
498.50	86.60
498.67	11.70
498.85	74.90
499.03	72.56
499.20	39.79
499.38	93.62
499.56	44.47
499.73	0.00
499.91	77.24
500.08	32.77
500.26	0.00
500.44	44.47
500.61	100.64
500.79	56.17
500.97	53.83
501.14	44.47
501.32	56.17
501.49	0.00
501.67	81.92
501.84	51.49
502.02	30.43
502.20	105.32
502.37	65.54
502.55	100.64
502.72	9.36
502.90	30.43
503.07	18.72
503.25	53.83
503.43	23.41
503.60	49.15
503.78	0.00
503.95	2.34
504.13	72.56
504.30	39.79
504.48	0.00
504.65	105.32
504.83	0.00
505.01	18.72
505.18	81.92
505.36	0.00
505.53	100.64
505.71	0.00
505.88	65.54
506.06	44.47
506.23	2.34
506.41	4.68
506.58	0.00
506.76	51.49
506.93	25.75
507.11	0.00
507.28	105.32
507.46	112.35
507.63	49.15
507.81	51.49
507.98	42.13
508.16	4.68
508.33	0.00
508.50	46.81
508.68	0.00
508.85	72.56
509.03	77.24
509.20	30.43
509.38	35.11
509.55	74.90
509.73	49.15
509.90	39.79
510.08	4.68
510.25	67.88
510.42	51.49
510.60	67.88
510.77	16.38
510.95	9.36
511.12	86.60
511.30	95.96
511.47	0.00
511.64	86.60
511.82	35.11
511.99	44.47
512.17	84.26
512.34	35.11
512.51	51.49
512.69	42.13
512.86	0.00
513.04	25.75
513.21	67.88
513.38	56.17
513.56	0.00
513.73	23.41
513.90	67.88
514.08	98.30
514.25	58.51
514.43	0.00
514.60	0.00
514.77	32.77
514.95	0.00
515.12	100.64
515.29	70.22
515.47	72.56
515.64	0.00
515.81	142.77
515.99	70.22
516.16	56.17
516.33	93.62
516.51	114.69
516.68	0.00
516.85	42.13
517.03	65.54
517.20	25.75
517.37	32.77
517.54	79.58
517.72	105.32
517.89	53.83
518.06	51.49
518.24	7.02
518.41	14.04
518.58	46.81
518.75	0.00
518.93	18.72
519.10	44.47
519.27	4.68
519.45	28.09
519.62	0.00
519.79	23.41
519.96	39.79
520.14	0.00
520.31	95.96
520.48	51.49
520.65	0.00
520.83	53.83
521.00	56.17
521.17	4.68
521.34	56.17
521.52	2.34
521.69	25.75
521.86	0.00
522.03	0.00
522.20	65.54
522.38	11.70
522.55	56.17
522.72	60.85
522.89	21.06
523.07	0.00
523.24	51.49
523.41	105.32
523.58	30.43
523.75	16.38
523.92	42.13
524.10	70.22
524.27	128.73
524.44	63.19
524.61	133.41
524.78	63.19
524.96	32.77
525.13	138.09
525.30	32.77
525.47	9.36
525.64	51.49
525.81	79.58
525.98	0.00
526.16	124.05
526.33	35.11
526.50	35.11
526.67	58.51
526.84	95.96
527.01	51.49
527.18	60.85
527.36	53.83
527.53	30.43
527.70	30.43
527.87	88.94
528.04	112.35
528.21	70.22
528.38	30.43
528.55	93.62
528.72	107.66
528.89	0.00
529.07	44.47
529.24	49.15
529.41	51.49
529.58	42.13
529.75	74.90
529.92	0.00
530.09	117.03
530.26	0.00
530.43	32.77
530.60	7.02
530.77	32.77
530.94	81.92
531.11	28.09
531.28	51.49
531.46	14.04
531.63	0.00
531.80	102.98
531.97	58.51
532.14	2.34
532.31	28.09
532.48	18.72
532.65	65.54
532.82	133.41
532.99	0.00
533.16	81.92
533.33	77.24
533.50	88.94
533.67	16.38
533.84	60.85
534.01	30.43
534.18	70.22
534.35	28.09
534.52	93.62
534.69	58.51
534.86	100.64
535.03	0.00
535.20	0.00
535.37	11.70
535.54	4.68
535.71	37.45
535.88	0.00
536.05	126.39
536.22	58.51
536.38	67.88
536.55	28.09
536.72	88.94
536.89	0.00
537.06	16.38
537.23	44.47
537.40	49.15
537.57	37.45
537.74	51.49
537.91	51.49
538.08	79.58
538.25	0.00
538.42	72.56
538.59	9.36
538.75	65.54
538.92	23.41
539.09	128.73
539.26	44.47
539.43	18.72
539.60	168.52
539.77	212.99
539.94	156.82
540.11	121.71
540.28	121.71
540.44	77.24
540.61	39.79
540.78	121.71
540.95	63.19
541.12	0.00
541.29	63.19
541.46	0.00
541.62	25.75
541.79	60.85
541.96	77.24
542.13	30.43
542.30	11.70
542.47	25.75
542.63	0.00
542.80	4.68
542.97	67.88
543.14	0.00
543.31	35.11
543.48	79.58
543.64	0.00
543.81	11.70
543.98	18.72
544.15	28.09
544.32	60.85
544.48	35.11
544.65	93.62
544.82	18.72
544.99	63.19
545.16	63.19
545.32	70.22
545.49	0.00
545.66	28.09
545.83	67.88
546.00	0.00
546.16	0.00
546.33	4.68
546.50	72.56
546.67	56.17
546.83	53.83
547.00	67.88
547.17	7.02
547.34	46.81
547.50	56.17
547.67	0.00
547.84	86.60
548.00	0.00
548.17	32.77
548.34	21.06
548.51	0.00
548.67	107.66
548.84	32.77
549.01	25.75
549.18	65.54
549.34	46.81
549.51	30.43
549.68	65.54
549.84	0.00
550.01	51.49
550.18	0.00
550.34	37.45
550.51	23.41
550.68	44.47
550.84	11.70
551.01	46.81
551.18	0.00
551.34	44.47
551.51	65.54
551.68	46.81
551.84	51.49
552.01	28.09
552.18	30.43
552.34	21.06
552.51	91.28
552.68	67.88
552.84	44.47
553.01	0.00
553.18	86.60
553.34	91.28
553.51	117.03
553.67	37.45
553.84	51.49
554.01	44.47
554.17	100.64
554.34	49.15
554.51	23.41
554.67	65.54
554.84	107.66
555.00	37.45
555.17	49.15
555.33	18.72
555.50	49.15
555.67	0.00
555.83	95.96
556.00	149.79
556.16	65.54
556.33	30.43
556.50	126.39
556.66	63.19
556.83	21.06
556.99	30.43
557.16	60.85
557.32	0.00
557.49	0.00
557.65	79.58
557.82	51.49
557.98	25.75
558.15	93.62
558.32	0.00
558.48	0.00
558.65	0.00
558.81	58.51
558.98	35.11
559.14	70.22
559.31	110.01
559.47	60.85
559.64	11.70
559.80	95.96
559.97	39.79
560.13	84.26
560.30	42.13
560.46	46.81
560.63	23.41
560.79	35.11
560.96	35.11
561.12	28.09
561.29	67.88
561.45	0.00
561.61	9.36
561.78	42.13
561.94	102.98
562.11	35.11
562.27	53.83
562.44	9.36
562.60	21.06
562.77	95.96
562.93	56.17
563.10	28.09
563.26	60.85
563.42	51.49
563.59	53.83
563.75	0.00
563.92	53.83
564.08	11.70
564.24	60.85
564.41	58.51
564.57	37.45
564.74	35.11
564.90	0.00
565.07	49.15
565.23	21.06
565.39	0.00
565.56	0.00
565.72	37.45
565.88	0.00
566.05	32.77
566.21	44.47
566.38	100.64
566.54	35.11
566.70	49.15
566.87	44.47
567.03	77.24
567.19	0.00
567.36	25.75
567.52	0.00
567.68	81.92
567.85	42.13
568.01	39.79
568.17	112.35
568.34	65.54
568.50	84.26
568.66	0.00
568.83	23.41
568.99	114.69
569.15	58.51
569.32	72.56
569.48	65.54
569.64	0.00
569.81	14.04
569.97	88.94
570.13	84.26
570.30	86.60
570.46	0.00
570.62	37.45
570.78	105.32
570.95	58.51
571.11	7.02
571.27	0.00
571.43	35.11
571.60	42.13
571.76	28.09
571.92	84.26
572.09	74.90
572.25	42.13
572.41	67.88
572.57	37.45
572.74	67.88
572.90	51.49
573.06	67.88
573.22	74.90
573.38	100.64
573.55	11.70
573.71	67.88
573.87	11.70
574.03	0.00
574.20	67.88
574.36	0.00
574.52	107.66
574.68	98.30
574.84	4.68
575.01	124.05
575.17	72.56
575.33	95.96
575.49	44.47
575.65	63.19
575.82	16.38
575.98	142.77
576.14	0.00
576.30	121.71
576.46	35.11
576.62	67.88
576.79	16.38
576.95	117.03
577.11	0.00
577.27	91.28
577.43	63.19
577.59	67.88
577.75	105.32
577.92	0.00
578.08	0.00
578.24	16.38
578.40	37.45
578.56	105.32
578.72	35.11
578.88	42.13
579.04	0.00
579.21	32.77
579.37	65.54
579.53	42.13
579.69	67.88
579.85	51.49
580.01	0.00
580.17	88.94
580.33	0.00
580.49	119.37
580.65	44.47
580.82	51.49
580.98	102.98
581.14	98.30
581.30	60.85
581.46	156.82
581.62	70.22
581.78	119.37
581.94	93.62
582.10	39.79
582.26	98.30
582.42	77.24
582.58	86.60
582.74	77.24
582.90	0.00
583.06	65.54
583.22	93.62
583.38	86.60
583.54	23.41
583.70	154.48
583.86	138.09
584.02	175.54
584.18	91.28
584.34	243.42
584.50	489.17
584.66	3047.38
584.82	8021.02
584.98	12224.62
585.14	10897.53
585.30	6761.81
585.46	4107.64
585.62	2677.57
585.78	1179.63
585.94	433.00
586.10	215.33
586.26	168.52
586.42	110.01
586.58	74.90
586.74	30.43
586.90	114.69
587.06	110.01
587.22	56.17
587.38	86.60
587.54	168.52
587.70	554.71
587.86	854.30
588.02	844.93
588.18	641.31
588.34	409.59
588.49	299.59
588.65	177.88
588.81	46.81
588.97	0.00
589.13	72.56
589.29	95.96
589.45	72.56
589.61	65.54
589.77	65.54
589.93	23.41
590.08	114.69
590.24	16.38
590.40	107.66
590.56	14.04
590.72	86.60
590.88	58.51
591.04	2.34
591.20	0.00
591.35	9.36
591.51	49.15
591.67	16.38
591.83	53.83
591.99	37.45
592.15	42.13
592.31	46.81
592.46	63.19
592.62	2.34
592.78	79.58
592.94	32.77
593.10	9.36
593.26	25.75
593.41	63.19
593.57	72.56
593.73	114.69
593.89	454.06
594.05	1062.60
594.20	1448.79
594.36	1533.05
594.52	1027.50
594.68	603.86
594.84	372.15
594.99	191.92
595.15	74.90
595.31	112.35
595.47	79.58
595.62	88.94
595.78	28.09
595.94	86.60
596.10	72.56
596.25	0.00
596.41	35.11
596.57	0.00
596.73	35.11
596.88	60.85
597.04	241.08
597.20	344.06
597.36	503.22
597.51	348.74
597.67	196.60
597.83	142.77
597.99	135.75
598.14	100.64
598.30	28.09
598.46	56.17
598.61	9.36
598.77	35.11
598.93	102.98
599.09	70.22
599.24	23.41
599.40	77.24
599.56	58.51
599.71	65.54
599.87	65.54
600.03	77.24
600.18	14.04
600.34	67.88
600.50	35.11
600.65	46.81
600.81	25.75
600.97	39.79
601.12	35.11
601.28	0.00
601.44	60.85
601.59	35.11
601.75	91.28
601.91	11.70
602.06	37.45
602.22	95.96
602.37	67.88
602.53	369.80
602.69	365.12
602.84	404.91
603.00	339.38
603.16	210.65
603.31	98.30
603.47	119.37
603.62	91.28
603.78	86.60
603.94	21.06
604.09	21.06
604.25	49.15
604.40	16.38
604.56	60.85
604.71	79.58
604.87	93.62
605.03	58.51
605.18	0.00
605.34	79.58
605.49	0.00
605.65	46.81
605.80	81.92
605.96	81.92
606.12	4.68
606.27	37.45
606.43	81.92
606.58	23.41
606.74	168.52
606.89	547.69
607.05	952.60
607.20	1275.59
607.36	1184.31
607.51	709.18
607.67	451.72
607.82	355.76
607.98	189.58
608.13	133.41
608.29	79.58
608.44	79.58
608.60	46.81
608.75	77.24
608.91	210.65
609.06	863.66
609.22	1678.16
609.37	2263.30
609.53	2015.20
609.68	1392.62
609.84	880.04
609.99	617.90
610.15	322.99
610.30	156.82
610.46	119.37
610.61	81.92
610.76	44.47
610.92	91.28
611.07	70.22
611.23	14.04
611.38	79.58
611.54	30.43
611.69	56.17
611.84	58.51
612.00	156.82
612.15	35.11
612.31	51.49
612.46	32.77
612.62	21.06
612.77	121.71
612.92	46.81
613.08	131.07
613.23	98.30
613.39	88.94
613.54	100.64
613.69	788.76
613.85	1949.67
614.00	3328.24
614.15	3557.61
614.31	2487.99
614.46	1638.38
614.62	1179.63
614.77	763.01
614.92	315.97
615.08	98.30
615.23	128.73
615.38	86.60
615.54	105.32
615.69	88.94
615.84	376.83
616.00	727.91
616.15	1004.09
616.30	725.57
616.46	465.77
616.61	369.80
616.76	236.39
616.92	166.18
617.07	100.64
617.22	37.45
617.37	0.00
617.53	32.77
617.68	74.90
617.83	37.45
617.99	16.38
618.14	46.81
618.29	107.66
618.45	91.28
618.60	74.90
618.75	42.13
618.90	126.39
619.06	39.79
619.21	35.11
619.36	25.75
619.51	77.24
619.67	2.34
619.82	63.19
619.97	72.56
620.12	44.47
620.28	0.00
620.43	44.47
620.58	42.13
620.73	79.58
620.89	37.45
621.04	86.60
621.19	212.99
621.34	425.98
621.49	585.13
621.65	517.26
621.80	372.15
621.95	259.80
622.10	210.65
622.25	117.03
622.41	88.94
622.56	16.38
622.71	117.03
622.86	60.85
623.01	37.45
623.16	81.92
623.32	23.41
623.47	37.45
623.62	25.75
623.77	44.47
623.92	49.15
624.07	77.24
624.23	0.00
624.38	79.58
624.53	37.45
624.68	46.81
624.83	58.51
624.98	93.62
625.13	53.83
625.29	44.47
625.44	70.22
625.59	107.66
625.74	49.15
625.89	98.30
626.04	330.02
626.19	940.90
626.34	1687.53
626.49	2010.52
626.65	1486.24
626.80	976.00
626.95	641.31
627.10	468.11
627.25	203.63
627.40	81.92
627.55	142.77
627.70	72.56
627.85	9.36
628.00	35.11
628.15	117.03
628.30	0.00
628.45	18.72
628.60	0.00
628.76	4.68
628.91	46.81
629.06	79.58
629.21	77.24
629.36	79.58
629.51	32.77
629.66	51.49
629.81	107.66
629.96	161.50
630.11	341.72
630.26	442.36
630.41	388.53
630.56	301.93
630.71	170.86
630.86	84.26
631.01	131.07
631.16	67.88
631.31	77.24
631.46	60.85
631.61	37.45
631.76	37.45
631.91	2.34
632.06	0.00
632.21	86.60
632.36	42.13
632.51	60.85
632.66	114.69
632.81	210.65
632.96	538.32
633.10	1046.22
633.25	1392.62
633.40	1067.28
633.55	725.57
633.70	503.22
633.85	418.96
634.00	175.54
634.15	51.49
634.30	77.24
634.45	32.77
634.60	100.64
634.75	81.92
634.90	72.56
635.05	0.00
635.19	112.35
635.34	4.68
635.49	95.96
635.64	105.32
635.79	44.47
635.94	0.00
636.09	0.00
636.24	67.88
636.39	72.56
636.53	4.68
636.68	2.34
636.83	65.54
636.98	86.60
637.13	51.49
637.28	56.17
637.43	35.11
637.57	100.64
637.72	428.32
637.87	1284.95
638.02	2176.70
638.17	2342.88
638.32	1743.70
638.46	1231.12
638.61	802.80
638.76	461.09
638.91	224.69
639.06	124.05
639.20	72.56
639.35	161.50
639.50	102.98
639.65	699.82
639.80	2017.54
639.94	3290.79
640.09	3695.71
640.24	2780.56
640.39	1886.47
640.54	1273.25
640.68	844.93
640.83	400.23
640.98	191.92
641.13	110.01
641.27	114.69
641.42	51.49
641.57	46.81
641.72	25.75
641.86	21.06
642.01	2.34
642.16	93.62
642.31	0.00
642.45	44.47
642.60	84.26
642.75	16.38
642.90	0.00
643.04	18.72
643.19	0.00
643.34	11.70
643.48	77.24
643.63	117.03
643.78	35.11
643.93	105.32
644.07	0.00
644.22	28.09
644.37	79.58
644.51	14.04
644.66	28.09
644.81	49.15
644.95	70.22
645.10	0.00
645.25	107.66
645.39	9.36
645.54	72.56
645.69	28.09
645.83	0.00
645.98	49.15
646.13	60.85
646.27	70.22
646.42	16.38
646.57	105.32
646.71	25.75
646.86	72.56
647.00	74.90
647.15	56.17
647.30	0.00
647.44	88.94
647.59	110.01
647.74	0.00
647.88	2.34
648.03	60.85
648.17	32.77
648.32	7.02
648.47	46.81
648.61	72.56
648.76	51.49
648.90	37.45
649.05	84.26
649.20	32.77
649.34	16.38
649.49	74.90
649.63	0.00
649.78	32.77
649.92	93.62
650.07	306.61
650.21	936.21
650.36	1582.20
650.51	1947.33
650.65	1678.16
650.80	1102.39
650.94	793.44
651.09	465.77
651.23	325.33
651.38	138.09
651.52	49.15
651.67	51.49
651.81	30.43
651.96	35.11
652.10	18.72
652.25	98.30
652.39	102.98
652.54	49.15
652.68	86.60
652.83	299.59
652.97	461.09
653.12	746.63
653.26	648.33
653.41	461.09
653.55	374.49
653.70	229.37
653.84	105.32
653.99	46.81
654.13	95.96
654.27	79.58
654.42	25.75
654.56	0.00
654.71	35.11
654.85	0.00
655.00	39.79
655.14	21.06
655.29	56.17
655.43	35.11
655.57	18.72
655.72	105.32
655.86	37.45
656.01	32.77
656.15	42.13
656.30	7.02
656.44	44.47
656.58	25.75
656.73	51.49
656.87	32.77
657.01	53.83
657.16	23.41
657.30	0.00
657.45	23.41
657.59	16.38
657.73	0.00
657.88	72.56
658.02	84.26
658.16	25.75
658.31	53.83
658.45	60.85
658.60	23.41
658.74	102.98
658.88	11.70
659.03	2.34
659.17	0.00
659.31	88.94
659.46	416.62
659.60	723.23
659.74	943.24
659.89	933.87
660.03	669.39
660.17	475.13
660.32	320.65
660.46	147.45
660.60	84.26
660.74	30.43
660.89	2.34
661.03	72.56
661.17	7.02
661.32	42.13
661.46	37.45
661.60	42.13
661.74	88.94
661.89	53.83
662.03	0.00
662.17	7.02
662.31	0.00
662.46	21.06
662.60	53.83
662.74	44.47
662.88	25.75
663.03	81.92
663.17	9.36
663.31	42.13
663.45	7.02
663.60	16.38
663.74	65.54
663.88	0.00
664.02	65.54
664.17	23.41
664.31	72.56
664.45	44.47
664.59	14.04
664.73	107.66
664.88	51.49
665.02	32.77
665.16	21.06
665.30	39.79
665.44	2.34
665.59	0.00
665.73	53.83
665.87	88.94
666.01	42.13
666.15	18.72
666.29	88.94
666.44	2.34
666.58	63.19
666.72	67.88
666.86	60.85
667.00	67.88
667.14	84.26
667.28	278.52
667.43	774.72
667.57	1273.25
667.71	1614.97
667.85	1514.33
667.99	1090.69
668.13	711.52
668.27	442.36
668.41	203.63
668.56	131.07
668.70	30.43
668.84	67.88
668.98	65.54
669.12	25.75
669.26	0.00
669.40	42.13
669.54	7.02
669.68	42.13
669.82	70.22
669.96	0.00
670.10	42.13
670.25	37.45
670.39	49.15
670.53	0.00
670.67	63.19
670.81	37.45
670.95	9.36
671.09	53.83
671.23	266.82
671.37	634.29
671.51	882.38
671.65	1067.28
671.79	814.51
671.93	554.71
672.07	376.83
672.21	241.08
672.35	88.94
672.49	140.43
672.63	16.38
672.77	107.66
672.91	2.34
673.05	0.00
673.19	7.02
673.33	32.77
673.47	23.41
673.61	23.41
673.75	60.85
673.89	2.34
674.03	0.00
674.17	18.72
674.31	58.51
674.45	70.22
674.59	0.00
674.73	16.38
674.87	32.77
675.01	86.60
675.15	46.81
675.29	56.17
675.43	98.30
675.56	11.70
675.70	51.49
675.84	18.72
675.98	60.85
676.12	46.81
676.26	18.72
676.40	37.45
676.54	72.56
676.68	4.68
676.82	42.13
676.96	0.00
677.10	0.00
677.23	74.90
677.37	65.54
677.51	0.00
677.65	21.06
677.79	65.54
677.93	18.72
678.07	32.77
678.21	53.83
678.34	105.32
678.48	32.77
678.62	53.83
678.76	67.88
678.90	18.72
679.04	81.92
679.18	18.72
679.31	39.79
679.45	56.17
679.59	39.79
679.73	23.41
679.87	49.15
680.00	72.56
680.14	0.00
680.28	0.00
680.42	35.11
680.56	74.90
680.70	28.09
680.83	79.58
680.97	44.47
681.11	58.51
681.25	67.88
681.39	7.02
681.52	49.15
681.66	0.00
681.80	23.41
681.94	0.00
682.07	42.13
682.21	46.81
682.35	18.72
682.49	44.47
682.62	0.00
682.76	81.92
682.90	0.00
683.04	28.09
683.17	95.96
683.31	65.54
683.45	0.00
683.59	79.58
683.72	56.17
683.86	0.00
684.00	39.79
684.13	37.45
684.27	42.13
684.41	23.41
684.55	0.00
684.68	21.06
684.82	0.00
684.96	0.00
685.09	11.70
685.23	28.09
685.37	44.47
685.50	67.88
685.64	11.70
685.78	30.43
685.91	42.13
686.05	37.45
686.19	42.13
686.32	0.00
686.46	110.01
686.60	39.79
686.73	0.00
686.87	131.07
687.01	28.09
687.14	100.64
687.28	7.02
687.42	35.11
687.55	0.00
687.69	30.43
687.82	4.68
687.96	74.90
688.10	46.81
688.23	4.68
688.37	70.22
688.50	25.75
688.64	35.11
688.78	58.51
688.91	0.00
689.05	53.83
689.18	18.72
689.32	53.83
689.46	18.72
689.59	0.00
689.73	18.72
689.86	0.00
690.00	102.98
690.13	70.22
690.27	0.00
690.41	7.02
690.54	65.54
690.68	0.00
690.81	0.00
690.95	0.00
691.08	65.54
691.22	0.00
691.35	28.09
691.49	0.00
691.62	0.00
691.76	49.15
691.89	0.00
692.03	18.72
692.16	114.69
692.30	74.90
692.43	79.58
692.57	332.36
692.70	594.50
692.84	697.48
692.97	744.29
693.11	526.62
693.24	421.30
693.38	320.65
693.51	238.73
693.65	84.26
693.78	86.60
693.92	53.83
694.05	79.58
694.19	74.90
694.32	67.88
694.45	9.36
694.59	2.34
694.72	79.58
694.86	63.19
694.99	28.09
695.13	11.70
695.26	14.04
695.39	56.17
695.53	88.94
695.66	25.75
695.80	67.88
695.93	18.72
696.07	42.13
696.20	0.00
696.33	14.04
696.47	126.39
696.60	100.64
696.73	84.26
696.87	86.60
697.00	56.17
697.14	0.00
697.27	21.06
697.40	51.49
697.54	91.28
697.67	28.09
697.80	44.47
697.94	42.13
698.07	7.02
698.21	44.47
698.34	67.88
698.47	14.04
698.61	0.00
698.74	53.83
698.87	70.22
699.01	79.58
699.14	0.00
699.27	2.34
699.40	126.39
699.54	91.28
699.67	60.85
699.80	0.00
699.94	0.00
700.07	51.49
700.20	32.77
700.34	32.77
700.47	32.77
700.60	0.00
700.73	0.00
700.87	32.77
701.00	23.41
701.13	63.19
701.26	4.68
701.40	2.34
701.53	18.72
701.66	32.77
701.79	0.00
701.93	0.00
702.06	0.00
702.19	128.73
702.32	98.30
702.46	110.01
702.59	77.24
702.72	98.30
702.85	383.85
702.99	898.77
703.12	1245.16
703.25	1409.00
703.38	1324.74
703.51	976.00
703.65	798.12
703.78	575.77
703.91	297.25
704.04	212.99
704.17	107.66
704.31	100.64
704.44	117.03
704.57	91.28
704.70	39.79
704.83	110.01
704.96	0.00
705.10	72.56
705.23	60.85
>>>>>End Processed Spectral Data<<<<<
