SpectraSuite Data File
++++++++++++++++++++++++++++++++++++
Date: Fri Oct 04 12:13:42 GMT-05:00 2013
User: price-jones
Dark Spectrum Present: No
Reference Spectrum Present: No
Number of Sampled Component Spectra: 1
Spectrometers: USB2+H05261
Integration Time (usec): 10000 (USB2+H05261)
Spectra Averaged: 1 (USB2+H05261)
Boxcar Smoothing: 0 (USB2+H05261)
Correct for Electrical Dark: No (USB2+H05261)
Strobe/Lamp Enabled: No (USB2+H05261)
Correct for Detector Non-linearity: No (USB2+H05261)
Correct for Stray Light: No (USB2+H05261)
Number of Pixels in Processed Spectrum: 2048
>>>>>Begin Processed Spectral Data<<<<<
365.73	23.41
365.92	23.41
366.12	23.41
366.32	0.00
366.52	0.00
366.72	0.00
366.91	0.00
367.11	0.00
367.31	0.00
367.51	0.00
367.70	0.00
367.90	0.00
368.10	0.00
368.30	0.00
368.49	0.00
368.69	0.00
368.89	0.00
369.09	0.00
369.28	0.00
369.48	0.00
369.68	0.00
369.87	0.00
370.07	0.00
370.27	0.00
370.47	0.00
370.66	0.00
370.86	0.00
371.06	0.00
371.25	0.00
371.45	0.00
371.65	2.34
371.84	0.00
372.04	18.72
372.24	0.00
372.44	0.00
372.63	11.70
372.83	0.00
373.03	0.00
373.22	56.17
373.42	53.83
373.62	9.36
373.81	21.06
374.01	72.56
374.21	32.77
374.40	9.36
374.60	42.13
374.79	0.00
374.99	53.83
375.19	37.45
375.38	11.70
375.58	14.04
375.78	58.51
375.97	65.54
376.17	7.02
376.37	67.88
376.56	0.00
376.76	23.41
376.95	0.00
377.15	81.92
377.35	32.77
377.54	65.54
377.74	67.88
377.93	65.54
378.13	74.90
378.33	23.41
378.52	23.41
378.72	9.36
378.91	32.77
379.11	60.85
379.31	4.68
379.50	72.56
379.70	84.26
379.89	56.17
380.09	0.00
380.28	0.00
380.48	18.72
380.68	0.00
380.87	0.00
381.07	25.75
381.26	0.00
381.46	37.45
381.65	2.34
381.85	35.11
382.04	0.00
382.24	0.00
382.43	30.43
382.63	21.06
382.83	0.00
383.02	9.36
383.22	18.72
383.41	53.83
383.61	42.13
383.80	0.00
384.00	0.00
384.19	0.00
384.39	0.00
384.58	16.38
384.78	0.00
384.97	49.15
385.17	46.81
385.36	11.70
385.56	42.13
385.75	58.51
385.95	0.00
386.14	77.24
386.34	0.00
386.53	14.04
386.72	0.00
386.92	91.28
387.11	0.00
387.31	30.43
387.50	0.00
387.70	0.00
387.89	0.00
388.09	88.94
388.28	0.00
388.48	11.70
388.67	86.60
388.86	28.09
389.06	30.43
389.25	56.17
389.45	0.00
389.64	0.00
389.84	56.17
390.03	0.00
390.22	16.38
390.42	11.70
390.61	0.00
390.81	53.83
391.00	30.43
391.19	35.11
391.39	2.34
391.58	2.34
391.78	30.43
391.97	44.47
392.16	51.49
392.36	21.06
392.55	25.75
392.75	21.06
392.94	0.00
393.13	53.83
393.33	86.60
393.52	42.13
393.71	67.88
393.91	42.13
394.10	0.00
394.29	58.51
394.49	51.49
394.68	14.04
394.88	0.00
395.07	21.06
395.26	0.00
395.46	46.81
395.65	0.00
395.84	21.06
396.04	77.24
396.23	49.15
396.42	0.00
396.62	0.00
396.81	65.54
397.00	9.36
397.19	79.58
397.39	51.49
397.58	107.66
397.77	67.88
397.97	46.81
398.16	28.09
398.35	42.13
398.55	18.72
398.74	65.54
398.93	14.04
399.12	39.79
399.32	44.47
399.51	0.00
399.70	0.00
399.90	16.38
400.09	46.81
400.28	18.72
400.47	105.32
400.67	11.70
400.86	58.51
401.05	56.17
401.24	14.04
401.44	72.56
401.63	0.00
401.82	88.94
402.01	30.43
402.21	30.43
402.40	14.04
402.59	72.56
402.78	44.47
402.97	0.00
403.17	0.00
403.36	23.41
403.55	0.00
403.74	60.85
403.93	0.00
404.13	49.15
404.32	0.00
404.51	63.19
404.70	53.83
404.89	18.72
405.09	0.00
405.28	23.41
405.47	0.00
405.66	0.00
405.85	25.75
406.05	35.11
406.24	32.77
406.43	0.00
406.62	72.56
406.81	60.85
407.00	84.26
407.20	49.15
407.39	0.00
407.58	37.45
407.77	37.45
407.96	60.85
408.15	30.43
408.34	0.00
408.54	23.41
408.73	16.38
408.92	44.47
409.11	63.19
409.30	112.35
409.49	14.04
409.68	86.60
409.87	98.30
410.07	42.13
410.26	46.81
410.45	16.38
410.64	9.36
410.83	37.45
411.02	67.88
411.21	28.09
411.40	46.81
411.59	84.26
411.78	0.00
411.98	0.00
412.17	35.11
412.36	37.45
412.55	100.64
412.74	60.85
412.93	42.13
413.12	44.47
413.31	0.00
413.50	0.00
413.69	21.06
413.88	88.94
414.07	35.11
414.26	46.81
414.45	70.22
414.64	63.19
414.83	35.11
415.02	0.00
415.22	117.03
415.41	28.09
415.60	51.49
415.79	91.28
415.98	32.77
416.17	98.30
416.36	74.90
416.55	44.47
416.74	25.75
416.93	88.94
417.12	93.62
417.31	35.11
417.50	63.19
417.69	39.79
417.88	56.17
418.07	84.26
418.26	105.32
418.45	0.00
418.64	30.43
418.83	16.38
419.02	70.22
419.21	81.92
419.39	0.00
419.58	70.22
419.77	105.32
419.96	58.51
420.15	0.00
420.34	0.00
420.53	0.00
420.72	98.30
420.91	0.00
421.10	0.00
421.29	74.90
421.48	42.13
421.67	86.60
421.86	0.00
422.05	44.47
422.24	0.00
422.43	18.72
422.61	2.34
422.80	0.00
422.99	79.58
423.18	110.01
423.37	42.13
423.56	30.43
423.75	60.85
423.94	102.98
424.13	23.41
424.32	23.41
424.50	25.75
424.69	39.79
424.88	44.47
425.07	25.75
425.26	9.36
425.45	37.45
425.64	16.38
425.83	58.51
426.01	100.64
426.20	124.05
426.39	56.17
426.58	0.00
426.77	35.11
426.96	0.00
427.15	7.02
427.33	74.90
427.52	32.77
427.71	28.09
427.90	86.60
428.09	37.45
428.28	35.11
428.46	58.51
428.65	39.79
428.84	2.34
429.03	0.00
429.22	67.88
429.40	0.00
429.59	107.66
429.78	4.68
429.97	21.06
430.16	95.96
430.34	63.19
430.53	60.85
430.72	60.85
430.91	63.19
431.10	86.60
431.28	56.17
431.47	18.72
431.66	49.15
431.85	35.11
432.03	0.00
432.22	102.98
432.41	72.56
432.60	4.68
432.79	60.85
432.97	65.54
433.16	91.28
433.35	11.70
433.54	0.00
433.72	140.43
433.91	60.85
434.10	11.70
434.28	88.94
434.47	63.19
434.66	0.00
434.85	7.02
435.03	11.70
435.22	11.70
435.41	102.98
435.59	35.11
435.78	84.26
435.97	65.54
436.16	88.94
436.34	65.54
436.53	65.54
436.72	60.85
436.90	16.38
437.09	74.90
437.28	9.36
437.46	39.79
437.65	102.98
437.84	105.32
438.02	14.04
438.21	105.32
438.40	102.98
438.58	53.83
438.77	42.13
438.96	65.54
439.14	74.90
439.33	72.56
439.52	11.70
439.70	60.85
439.89	44.47
440.08	46.81
440.26	100.64
440.45	25.75
440.63	32.77
440.82	93.62
441.01	65.54
441.19	98.30
441.38	0.00
441.57	0.00
441.75	42.13
441.94	93.62
442.12	60.85
442.31	37.45
442.50	56.17
442.68	0.00
442.87	32.77
443.05	30.43
443.24	133.41
443.43	77.24
443.61	51.49
443.80	0.00
443.98	9.36
444.17	77.24
444.35	88.94
444.54	32.77
444.73	2.34
444.91	51.49
445.10	42.13
445.28	67.88
445.47	72.56
445.65	49.15
445.84	91.28
446.02	60.85
446.21	0.00
446.39	32.77
446.58	81.92
446.77	23.41
446.95	53.83
447.14	60.85
447.32	49.15
447.51	16.38
447.69	53.83
447.88	74.90
448.06	23.41
448.25	72.56
448.43	9.36
448.62	23.41
448.80	14.04
448.99	67.88
449.17	81.92
449.36	84.26
449.54	18.72
449.73	7.02
449.91	25.75
450.10	30.43
450.28	30.43
450.46	39.79
450.65	138.09
450.83	0.00
451.02	91.28
451.20	18.72
451.39	0.00
451.57	25.75
451.76	86.60
451.94	16.38
452.13	81.92
452.31	9.36
452.49	110.01
452.68	51.49
452.86	53.83
453.05	46.81
453.23	72.56
453.42	56.17
453.60	63.19
453.78	70.22
453.97	56.17
454.15	4.68
454.34	70.22
454.52	14.04
454.70	0.00
454.89	30.43
455.07	60.85
455.26	170.86
455.44	81.92
455.62	72.56
455.81	79.58
455.99	100.64
456.17	49.15
456.36	0.00
456.54	119.37
456.73	79.58
456.91	117.03
457.09	39.79
457.28	46.81
457.46	60.85
457.64	9.36
457.83	133.41
458.01	107.66
458.19	35.11
458.38	0.00
458.56	25.75
458.74	51.49
458.93	49.15
459.11	121.71
459.29	63.19
459.48	42.13
459.66	107.66
459.84	70.22
460.03	72.56
460.21	74.90
460.39	77.24
460.57	72.56
460.76	63.19
460.94	63.19
461.12	110.01
461.31	70.22
461.49	161.50
461.67	65.54
461.85	81.92
462.04	39.79
462.22	44.47
462.40	46.81
462.59	16.38
462.77	35.11
462.95	65.54
463.13	100.64
463.32	74.90
463.50	70.22
463.68	93.62
463.86	35.11
464.05	56.17
464.23	135.75
464.41	35.11
464.59	0.00
464.78	72.56
464.96	65.54
465.14	39.79
465.32	25.75
465.50	124.05
465.69	131.07
465.87	84.26
466.05	135.75
466.23	63.19
466.41	74.90
466.60	58.51
466.78	49.15
466.96	138.09
467.14	14.04
467.32	35.11
467.51	84.26
467.69	110.01
467.87	32.77
468.05	58.51
468.23	53.83
468.41	117.03
468.60	35.11
468.78	86.60
468.96	58.51
469.14	32.77
469.32	28.09
469.50	44.47
469.69	2.34
469.87	100.64
470.05	67.88
470.23	70.22
470.41	16.38
470.59	53.83
470.77	0.00
470.95	35.11
471.14	107.66
471.32	44.47
471.50	72.56
471.68	91.28
471.86	63.19
472.04	21.06
472.22	28.09
472.40	49.15
472.58	14.04
472.77	53.83
472.95	53.83
473.13	16.38
473.31	119.37
473.49	95.96
473.67	0.00
473.85	32.77
474.03	37.45
474.21	53.83
474.39	51.49
474.57	63.19
474.75	32.77
474.93	91.28
475.12	67.88
475.30	86.60
475.48	88.94
475.66	44.47
475.84	0.00
476.02	21.06
476.20	9.36
476.38	25.75
476.56	110.01
476.74	93.62
476.92	30.43
477.10	46.81
477.28	63.19
477.46	11.70
477.64	49.15
477.82	114.69
478.00	77.24
478.18	112.35
478.36	25.75
478.54	58.51
478.72	7.02
478.90	18.72
479.08	46.81
479.26	88.94
479.44	23.41
479.62	49.15
479.80	86.60
479.98	37.45
480.16	39.79
480.34	63.19
480.52	39.79
480.70	60.85
480.88	58.51
481.06	30.43
481.24	9.36
481.41	30.43
481.59	133.41
481.77	138.09
481.95	63.19
482.13	63.19
482.31	86.60
482.49	184.90
482.67	93.62
482.85	65.54
483.03	42.13
483.21	28.09
483.39	74.90
483.57	112.35
483.74	91.28
483.92	44.47
484.10	63.19
484.28	74.90
484.46	65.54
484.64	60.85
484.82	133.41
485.00	35.11
485.18	72.56
485.35	91.28
485.53	14.04
485.71	86.60
485.89	37.45
486.07	79.58
486.25	72.56
486.43	14.04
486.61	65.54
486.78	11.70
486.96	124.05
487.14	110.01
487.32	124.05
487.50	56.17
487.68	21.06
487.85	135.75
488.03	105.32
488.21	58.51
488.39	49.15
488.57	88.94
488.75	21.06
488.92	44.47
489.10	105.32
489.28	44.47
489.46	84.26
489.64	63.19
489.81	0.00
489.99	25.75
490.17	105.32
490.35	128.73
490.53	58.51
490.70	39.79
490.88	138.09
491.06	46.81
491.24	72.56
491.41	105.32
491.59	7.02
491.77	35.11
491.95	100.64
492.13	93.62
492.30	28.09
492.48	49.15
492.66	131.07
492.84	46.81
493.01	131.07
493.19	21.06
493.37	39.79
493.54	67.88
493.72	39.79
493.90	119.37
494.08	28.09
494.25	67.88
494.43	145.11
494.61	39.79
494.79	58.51
494.96	67.88
495.14	112.35
495.32	42.13
495.49	30.43
495.67	114.69
495.85	140.43
496.02	93.62
496.20	93.62
496.38	53.83
496.55	100.64
496.73	79.58
496.91	77.24
497.09	72.56
497.26	81.92
497.44	72.56
497.62	39.79
497.79	81.92
497.97	77.24
498.14	30.43
498.32	25.75
498.50	105.32
498.67	95.96
498.85	67.88
499.03	53.83
499.20	112.35
499.38	72.56
499.56	145.11
499.73	175.54
499.91	98.30
500.08	60.85
500.26	44.47
500.44	72.56
500.61	98.30
500.79	79.58
500.97	63.19
501.14	147.45
501.32	117.03
501.49	39.79
501.67	119.37
501.84	91.28
502.02	79.58
502.20	105.32
502.37	88.94
502.55	70.22
502.72	133.41
502.90	67.88
503.07	37.45
503.25	102.98
503.43	86.60
503.60	88.94
503.78	72.56
503.95	88.94
504.13	58.51
504.30	121.71
504.48	91.28
504.65	65.54
504.83	0.00
505.01	39.79
505.18	86.60
505.36	9.36
505.53	88.94
505.71	98.30
505.88	21.06
506.06	58.51
506.23	84.26
506.41	81.92
506.58	91.28
506.76	77.24
506.93	49.15
507.11	93.62
507.28	154.48
507.46	25.75
507.63	60.85
507.81	98.30
507.98	95.96
508.16	131.07
508.33	95.96
508.50	88.94
508.68	63.19
508.85	107.66
509.03	138.09
509.20	93.62
509.38	0.00
509.55	67.88
509.73	51.49
509.90	112.35
510.08	98.30
510.25	91.28
510.42	81.92
510.60	170.86
510.77	56.17
510.95	177.88
511.12	133.41
511.30	161.50
511.47	91.28
511.64	32.77
511.82	117.03
511.99	42.13
512.17	25.75
512.34	72.56
512.51	65.54
512.69	114.69
512.86	145.11
513.04	105.32
513.21	58.51
513.38	51.49
513.56	32.77
513.73	44.47
513.90	28.09
514.08	74.90
514.25	77.24
514.43	110.01
514.60	32.77
514.77	86.60
514.95	9.36
515.12	74.90
515.29	49.15
515.47	88.94
515.64	114.69
515.81	161.50
515.99	131.07
516.16	65.54
516.33	100.64
516.51	32.77
516.68	86.60
516.85	35.11
517.03	93.62
517.20	131.07
517.37	72.56
517.54	110.01
517.72	72.56
517.89	84.26
518.06	79.58
518.24	105.32
518.41	49.15
518.58	93.62
518.75	79.58
518.93	70.22
519.10	79.58
519.27	117.03
519.45	51.49
519.62	135.75
519.79	74.90
519.96	88.94
520.14	58.51
520.31	28.09
520.48	51.49
520.65	135.75
520.83	112.35
521.00	91.28
521.17	114.69
521.34	112.35
521.52	114.69
521.69	11.70
521.86	56.17
522.03	203.63
522.20	23.41
522.38	79.58
522.55	42.13
522.72	49.15
522.89	79.58
523.07	112.35
523.24	72.56
523.41	56.17
523.58	140.43
523.75	44.47
523.92	117.03
524.10	95.96
524.27	131.07
524.44	133.41
524.61	135.75
524.78	128.73
524.96	91.28
525.13	126.39
525.30	135.75
525.47	105.32
525.64	49.15
525.81	135.75
525.98	119.37
526.16	49.15
526.33	140.43
526.50	98.30
526.67	74.90
526.84	145.11
527.01	9.36
527.18	67.88
527.36	35.11
527.53	81.92
527.70	110.01
527.87	98.30
528.04	63.19
528.21	88.94
528.38	81.92
528.55	79.58
528.72	98.30
528.89	100.64
529.07	142.77
529.24	65.54
529.41	121.71
529.58	70.22
529.75	72.56
529.92	72.56
530.09	86.60
530.26	21.06
530.43	74.90
530.60	35.11
530.77	105.32
530.94	74.90
531.11	93.62
531.28	49.15
531.46	159.16
531.63	65.54
531.80	14.04
531.97	110.01
532.14	60.85
532.31	63.19
532.48	46.81
532.65	86.60
532.82	196.60
532.99	16.38
533.16	91.28
533.33	23.41
533.50	63.19
533.67	9.36
533.84	74.90
534.01	119.37
534.18	100.64
534.35	0.00
534.52	32.77
534.69	60.85
534.86	121.71
535.03	88.94
535.20	135.75
535.37	86.60
535.54	60.85
535.71	70.22
535.88	88.94
536.05	91.28
536.22	74.90
536.38	79.58
536.55	86.60
536.72	84.26
536.89	74.90
537.06	49.15
537.23	35.11
537.40	72.56
537.57	95.96
537.74	72.56
537.91	53.83
538.08	44.47
538.25	86.60
538.42	21.06
538.59	110.01
538.75	110.01
538.92	100.64
539.09	93.62
539.26	86.60
539.43	0.00
539.60	121.71
539.77	0.00
539.94	28.09
540.11	49.15
540.28	53.83
540.44	126.39
540.61	46.81
540.78	28.09
540.95	39.79
541.12	126.39
541.29	100.64
541.46	142.77
541.62	102.98
541.79	30.43
541.96	37.45
542.13	86.60
542.30	147.45
542.47	119.37
542.63	65.54
542.80	105.32
542.97	182.56
543.14	9.36
543.31	133.41
543.48	81.92
543.64	107.66
543.81	105.32
543.98	42.13
544.15	16.38
544.32	107.66
544.48	112.35
544.65	149.79
544.82	86.60
544.99	18.72
545.16	121.71
545.32	67.88
545.49	67.88
545.66	14.04
545.83	63.19
546.00	58.51
546.16	72.56
546.33	105.32
546.50	142.77
546.67	88.94
546.83	65.54
547.00	112.35
547.17	91.28
547.34	86.60
547.50	98.30
547.67	14.04
547.84	25.75
548.00	58.51
548.17	107.66
548.34	93.62
548.51	105.32
548.67	23.41
548.84	105.32
549.01	79.58
549.18	42.13
549.34	0.00
549.51	110.01
549.68	133.41
549.84	2.34
550.01	46.81
550.18	74.90
550.34	63.19
550.51	84.26
550.68	145.11
550.84	65.54
551.01	79.58
551.18	67.88
551.34	58.51
551.51	117.03
551.68	86.60
551.84	138.09
552.01	112.35
552.18	53.83
552.34	100.64
552.51	88.94
552.68	58.51
552.84	70.22
553.01	105.32
553.18	79.58
553.34	60.85
553.51	72.56
553.67	105.32
553.84	133.41
554.01	138.09
554.17	107.66
554.34	46.81
554.51	117.03
554.67	86.60
554.84	67.88
555.00	93.62
555.17	74.90
555.33	65.54
555.50	117.03
555.67	128.73
555.83	140.43
556.00	44.47
556.16	117.03
556.33	70.22
556.50	63.19
556.66	117.03
556.83	58.51
556.99	114.69
557.16	154.48
557.32	72.56
557.49	100.64
557.65	65.54
557.82	72.56
557.98	124.05
558.15	112.35
558.32	65.54
558.48	70.22
558.65	105.32
558.81	187.24
558.98	159.16
559.14	25.75
559.31	46.81
559.47	114.69
559.64	35.11
559.80	81.92
559.97	39.79
560.13	51.49
560.30	79.58
560.46	65.54
560.63	28.09
560.79	32.77
560.96	119.37
561.12	133.41
561.29	39.79
561.45	159.16
561.61	46.81
561.78	126.39
561.94	110.01
562.11	81.92
562.27	107.66
562.44	110.01
562.60	0.00
562.77	88.94
562.93	112.35
563.10	60.85
563.26	93.62
563.42	74.90
563.59	131.07
563.75	39.79
563.92	105.32
564.08	147.45
564.24	51.49
564.41	58.51
564.57	81.92
564.74	117.03
564.90	105.32
565.07	140.43
565.23	86.60
565.39	145.11
565.56	159.16
565.72	98.30
565.88	91.28
566.05	79.58
566.21	65.54
566.38	105.32
566.54	53.83
566.70	25.75
566.87	84.26
567.03	145.11
567.19	77.24
567.36	117.03
567.52	84.26
567.68	81.92
567.85	147.45
568.01	30.43
568.17	98.30
568.34	51.49
568.50	79.58
568.66	203.63
568.83	98.30
568.99	74.90
569.15	102.98
569.32	46.81
569.48	110.01
569.64	98.30
569.81	84.26
569.97	65.54
570.13	49.15
570.30	9.36
570.46	95.96
570.62	72.56
570.78	63.19
570.95	84.26
571.11	91.28
571.27	107.66
571.43	95.96
571.60	74.90
571.76	74.90
571.92	114.69
572.09	126.39
572.25	77.24
572.41	58.51
572.57	58.51
572.74	187.24
572.90	100.64
573.06	79.58
573.22	117.03
573.38	112.35
573.55	121.71
573.71	77.24
573.87	110.01
574.03	91.28
574.20	114.69
574.36	81.92
574.52	58.51
574.68	107.66
574.84	102.98
575.01	42.13
575.17	67.88
575.33	117.03
575.49	124.05
575.65	37.45
575.82	93.62
575.98	102.98
576.14	112.35
576.30	32.77
576.46	44.47
576.62	79.58
576.79	60.85
576.95	81.92
577.11	98.30
577.27	91.28
577.43	107.66
577.59	51.49
577.75	63.19
577.92	65.54
578.08	32.77
578.24	81.92
578.40	102.98
578.56	95.96
578.72	53.83
578.88	42.13
579.04	65.54
579.21	67.88
579.37	131.07
579.53	46.81
579.69	114.69
579.85	105.32
580.01	159.16
580.17	65.54
580.33	100.64
580.49	138.09
580.65	58.51
580.82	35.11
580.98	25.75
581.14	67.88
581.30	39.79
581.46	44.47
581.62	98.30
581.78	100.64
581.94	67.88
582.10	95.96
582.26	42.13
582.42	110.01
582.58	147.45
582.74	37.45
582.90	74.90
583.06	88.94
583.22	23.41
583.38	0.00
583.54	42.13
583.70	67.88
583.86	107.66
584.02	65.54
584.18	7.02
584.34	0.00
584.50	42.13
584.66	58.51
584.82	70.22
584.98	142.77
585.14	49.15
585.30	107.66
585.46	51.49
585.62	9.36
585.78	84.26
585.94	79.58
586.10	39.79
586.26	35.11
586.42	119.37
586.58	131.07
586.74	37.45
586.90	56.17
587.06	110.01
587.22	79.58
587.38	51.49
587.54	119.37
587.70	39.79
587.86	131.07
588.02	46.81
588.18	79.58
588.34	98.30
588.49	63.19
588.65	74.90
588.81	63.19
588.97	39.79
589.13	84.26
589.29	72.56
589.45	70.22
589.61	110.01
589.77	49.15
589.93	39.79
590.08	60.85
590.24	72.56
590.40	72.56
590.56	58.51
590.72	124.05
590.88	9.36
591.04	63.19
591.20	44.47
591.35	42.13
591.51	72.56
591.67	65.54
591.83	74.90
591.99	21.06
592.15	77.24
592.31	100.64
592.46	39.79
592.62	67.88
592.78	95.96
592.94	65.54
593.10	39.79
593.26	42.13
593.41	46.81
593.57	84.26
593.73	98.30
593.89	65.54
594.05	58.51
594.20	91.28
594.36	79.58
594.52	63.19
594.68	88.94
594.84	77.24
594.99	147.45
595.15	100.64
595.31	121.71
595.47	105.32
595.62	88.94
595.78	79.58
595.94	98.30
596.10	86.60
596.25	63.19
596.41	46.81
596.57	0.00
596.73	91.28
596.88	56.17
597.04	4.68
597.20	72.56
597.36	86.60
597.51	140.43
597.67	114.69
597.83	49.15
597.99	163.84
598.14	77.24
598.30	65.54
598.46	42.13
598.61	67.88
598.77	51.49
598.93	72.56
599.09	84.26
599.24	44.47
599.40	84.26
599.56	91.28
599.71	98.30
599.87	133.41
600.03	0.00
600.18	32.77
600.34	28.09
600.50	18.72
600.65	39.79
600.81	126.39
600.97	32.77
601.12	74.90
601.28	86.60
601.44	0.00
601.59	74.90
601.75	30.43
601.91	53.83
602.06	100.64
602.22	112.35
602.37	102.98
602.53	81.92
602.69	79.58
602.84	56.17
603.00	58.51
603.16	32.77
603.31	145.11
603.47	0.00
603.62	100.64
603.78	44.47
603.94	95.96
604.09	95.96
604.25	114.69
604.40	72.56
604.56	58.51
604.71	135.75
604.87	110.01
605.03	86.60
605.18	37.45
605.34	35.11
605.49	133.41
605.65	51.49
605.80	2.34
605.96	49.15
606.12	79.58
606.27	65.54
606.43	84.26
606.58	67.88
606.74	79.58
606.89	91.28
607.05	112.35
607.20	67.88
607.36	91.28
607.51	58.51
607.67	102.98
607.82	95.96
607.98	124.05
608.13	86.60
608.29	63.19
608.44	91.28
608.60	60.85
608.75	93.62
608.91	133.41
609.06	65.54
609.22	67.88
609.37	77.24
609.53	42.13
609.68	63.19
609.84	56.17
609.99	9.36
610.15	86.60
610.30	67.88
610.46	25.75
610.61	51.49
610.76	128.73
610.92	25.75
611.07	154.48
611.23	58.51
611.38	124.05
611.54	11.70
611.69	79.58
611.84	145.11
612.00	67.88
612.15	126.39
612.31	4.68
612.46	70.22
612.62	37.45
612.77	63.19
612.92	135.75
613.08	72.56
613.23	67.88
613.39	21.06
613.54	32.77
613.69	74.90
613.85	93.62
614.00	0.00
614.15	0.00
614.31	23.41
614.46	65.54
614.62	14.04
614.77	67.88
614.92	93.62
615.08	79.58
615.23	25.75
615.38	163.84
615.54	105.32
615.69	28.09
615.84	72.56
616.00	42.13
616.15	65.54
616.30	49.15
616.46	44.47
616.61	0.00
616.76	25.75
616.92	72.56
617.07	32.77
617.22	133.41
617.37	23.41
617.53	86.60
617.68	79.58
617.83	67.88
617.99	11.70
618.14	51.49
618.29	65.54
618.45	100.64
618.60	117.03
618.75	46.81
618.90	72.56
619.06	44.47
619.21	95.96
619.36	114.69
619.51	0.00
619.67	58.51
619.82	0.00
619.97	39.79
620.12	60.85
620.28	53.83
620.43	60.85
620.58	168.52
620.73	39.79
620.89	46.81
621.04	51.49
621.19	67.88
621.34	131.07
621.49	105.32
621.65	65.54
621.80	65.54
621.95	65.54
622.10	98.30
622.25	65.54
622.41	46.81
622.56	18.72
622.71	63.19
622.86	51.49
623.01	74.90
623.16	25.75
623.32	74.90
623.47	58.51
623.62	86.60
623.77	35.11
623.92	28.09
624.07	84.26
624.23	70.22
624.38	74.90
624.53	63.19
624.68	72.56
624.83	65.54
624.98	28.09
625.13	142.77
625.29	79.58
625.44	44.47
625.59	60.85
625.74	84.26
625.89	4.68
626.04	18.72
626.19	63.19
626.34	95.96
626.49	42.13
626.65	88.94
626.80	72.56
626.95	25.75
627.10	0.00
627.25	93.62
627.40	74.90
627.55	79.58
627.70	84.26
627.85	39.79
628.00	105.32
628.15	42.13
628.30	46.81
628.45	77.24
628.60	124.05
628.76	98.30
628.91	30.43
629.06	63.19
629.21	79.58
629.36	21.06
629.51	23.41
629.66	91.28
629.81	0.00
629.96	23.41
630.11	28.09
630.26	11.70
630.41	16.38
630.56	112.35
630.71	142.77
630.86	23.41
631.01	102.98
631.16	21.06
631.31	142.77
631.46	60.85
631.61	56.17
631.76	77.24
631.91	95.96
632.06	0.00
632.21	9.36
632.36	126.39
632.51	88.94
632.66	49.15
632.81	100.64
632.96	25.75
633.10	51.49
633.25	86.60
633.40	86.60
633.55	81.92
633.70	42.13
633.85	177.88
634.00	28.09
634.15	18.72
634.30	98.30
634.45	2.34
634.60	11.70
634.75	102.98
634.90	56.17
635.05	18.72
635.19	44.47
635.34	44.47
635.49	72.56
635.64	77.24
635.79	84.26
635.94	102.98
636.09	65.54
636.24	53.83
636.39	84.26
636.53	102.98
636.68	72.56
636.83	102.98
636.98	67.88
637.13	81.92
637.28	0.00
637.43	16.38
637.57	46.81
637.72	70.22
637.87	7.02
638.02	110.01
638.17	28.09
638.32	114.69
638.46	51.49
638.61	11.70
638.76	79.58
638.91	67.88
639.06	79.58
639.20	35.11
639.35	37.45
639.50	58.51
639.65	0.00
639.80	93.62
639.94	65.54
640.09	30.43
640.24	77.24
640.39	121.71
640.54	39.79
640.68	58.51
640.83	131.07
640.98	91.28
641.13	53.83
641.27	77.24
641.42	0.00
641.57	70.22
641.72	49.15
641.86	60.85
642.01	58.51
642.16	23.41
642.31	37.45
642.45	42.13
642.60	44.47
642.75	114.69
642.90	117.03
643.04	126.39
643.19	81.92
643.34	9.36
643.48	32.77
643.63	86.60
643.78	51.49
643.93	44.47
644.07	30.43
644.22	42.13
644.37	114.69
644.51	72.56
644.66	46.81
644.81	72.56
644.95	70.22
645.10	72.56
645.25	25.75
645.39	86.60
645.54	77.24
645.69	114.69
645.83	63.19
645.98	32.77
646.13	70.22
646.27	74.90
646.42	39.79
646.57	81.92
646.71	0.00
646.86	81.92
647.00	14.04
647.15	44.47
647.30	126.39
647.44	86.60
647.59	51.49
647.74	72.56
647.88	84.26
648.03	9.36
648.17	102.98
648.32	72.56
648.47	46.81
648.61	7.02
648.76	79.58
648.90	86.60
649.05	32.77
649.20	23.41
649.34	44.47
649.49	49.15
649.63	91.28
649.78	21.06
649.92	63.19
650.07	81.92
650.21	39.79
650.36	124.05
650.51	53.83
650.65	117.03
650.80	25.75
650.94	21.06
651.09	74.90
651.23	60.85
651.38	67.88
651.52	117.03
651.67	67.88
651.81	79.58
651.96	112.35
652.10	93.62
652.25	18.72
652.39	0.00
652.54	0.00
652.68	117.03
652.83	86.60
652.97	56.17
653.12	18.72
653.26	49.15
653.41	46.81
653.55	16.38
653.70	4.68
653.84	46.81
653.99	74.90
654.13	51.49
654.27	88.94
654.42	0.00
654.56	67.88
654.71	0.00
654.85	65.54
655.00	49.15
655.14	14.04
655.29	51.49
655.43	95.96
655.57	18.72
655.72	98.30
655.86	44.47
656.01	18.72
656.15	53.83
656.30	65.54
656.44	65.54
656.58	16.38
656.73	79.58
656.87	56.17
657.01	51.49
657.16	39.79
657.30	23.41
657.45	0.00
657.59	37.45
657.73	23.41
657.88	0.00
658.02	0.00
658.16	9.36
658.31	65.54
658.45	35.11
658.60	23.41
658.74	60.85
658.88	81.92
659.03	35.11
659.17	0.00
659.31	35.11
659.46	74.90
659.60	28.09
659.74	21.06
659.89	0.00
660.03	65.54
660.17	14.04
660.32	39.79
660.46	39.79
660.60	102.98
660.74	0.00
660.89	0.00
661.03	49.15
661.17	95.96
661.32	84.26
661.46	70.22
661.60	14.04
661.74	46.81
661.89	32.77
662.03	67.88
662.17	91.28
662.31	16.38
662.46	102.98
662.60	60.85
662.74	28.09
662.88	30.43
663.03	35.11
663.17	100.64
663.31	98.30
663.45	0.00
663.60	32.77
663.74	0.00
663.88	46.81
664.02	77.24
664.17	95.96
664.31	67.88
664.45	35.11
664.59	56.17
664.73	110.01
664.88	74.90
665.02	105.32
665.16	23.41
665.30	74.90
665.44	46.81
665.59	32.77
665.73	95.96
665.87	74.90
666.01	140.43
666.15	58.51
666.29	93.62
666.44	84.26
666.58	72.56
666.72	100.64
666.86	100.64
667.00	0.00
667.14	14.04
667.28	9.36
667.43	51.49
667.57	58.51
667.71	21.06
667.85	58.51
667.99	23.41
668.13	30.43
668.27	58.51
668.41	32.77
668.56	58.51
668.70	11.70
668.84	131.07
668.98	25.75
669.12	18.72
669.26	44.47
669.40	72.56
669.54	35.11
669.68	100.64
669.82	72.56
669.96	84.26
670.10	51.49
670.25	49.15
670.39	135.75
670.53	28.09
670.67	23.41
670.81	32.77
670.95	14.04
671.09	0.00
671.23	9.36
671.37	74.90
671.51	7.02
671.65	0.00
671.79	117.03
671.93	112.35
672.07	84.26
672.21	35.11
672.35	18.72
672.49	117.03
672.63	65.54
672.77	28.09
672.91	84.26
673.05	16.38
673.19	0.00
673.33	25.75
673.47	18.72
673.61	0.00
673.75	23.41
673.89	35.11
674.03	49.15
674.17	63.19
674.31	58.51
674.45	30.43
674.59	46.81
674.73	0.00
674.87	126.39
675.01	88.94
675.15	16.38
675.29	56.17
675.43	74.90
675.56	60.85
675.70	53.83
675.84	7.02
675.98	58.51
676.12	25.75
676.26	0.00
676.40	2.34
676.54	28.09
676.68	23.41
676.82	32.77
676.96	14.04
677.10	25.75
677.23	0.00
677.37	98.30
677.51	23.41
677.65	0.00
677.79	65.54
677.93	39.79
678.07	9.36
678.21	37.45
678.34	25.75
678.48	11.70
678.62	37.45
678.76	107.66
678.90	0.00
679.04	7.02
679.18	175.54
679.31	67.88
679.45	39.79
679.59	18.72
679.73	28.09
679.87	67.88
680.00	37.45
680.14	117.03
680.28	0.00
680.42	51.49
680.56	37.45
680.70	63.19
680.83	56.17
680.97	44.47
681.11	91.28
681.25	88.94
681.39	37.45
681.52	30.43
681.66	0.00
681.80	135.75
681.94	131.07
682.07	25.75
682.21	56.17
682.35	88.94
682.49	32.77
682.62	44.47
682.76	63.19
682.90	67.88
683.04	72.56
683.17	70.22
683.31	51.49
683.45	81.92
683.59	51.49
683.72	35.11
683.86	0.00
684.00	25.75
684.13	0.00
684.27	44.47
684.41	14.04
684.55	21.06
684.68	46.81
684.82	51.49
684.96	81.92
685.09	28.09
685.23	49.15
685.37	81.92
685.50	42.13
685.64	58.51
685.78	0.00
685.91	42.13
686.05	7.02
686.19	79.58
686.32	11.70
686.46	77.24
686.60	110.01
686.73	42.13
686.87	0.00
687.01	7.02
687.14	58.51
687.28	60.85
687.42	60.85
687.55	0.00
687.69	0.00
687.82	46.81
687.96	0.00
688.10	51.49
688.23	0.00
688.37	0.00
688.50	0.00
688.64	7.02
688.78	39.79
688.91	72.56
689.05	35.11
689.18	37.45
689.32	0.00
689.46	35.11
689.59	4.68
689.73	44.47
689.86	46.81
690.00	93.62
690.13	46.81
690.27	102.98
690.41	2.34
690.54	65.54
690.68	28.09
690.81	30.43
690.95	0.00
691.08	7.02
691.22	0.00
691.35	0.00
691.49	18.72
691.62	28.09
691.76	0.00
691.89	81.92
692.03	2.34
692.16	95.96
692.30	0.00
692.43	0.00
692.57	49.15
692.70	0.00
692.84	16.38
692.97	9.36
693.11	0.00
693.24	100.64
693.38	58.51
693.51	58.51
693.65	0.00
693.78	18.72
693.92	58.51
694.05	7.02
694.19	23.41
694.32	0.00
694.45	124.05
694.59	84.26
694.72	86.60
694.86	30.43
694.99	51.49
695.13	72.56
695.26	46.81
695.39	72.56
695.53	70.22
695.66	102.98
695.80	86.60
695.93	81.92
696.07	30.43
696.20	102.98
696.33	2.34
696.47	25.75
696.60	56.17
696.73	81.92
696.87	67.88
697.00	44.47
697.14	14.04
697.27	121.71
697.40	0.00
697.54	72.56
697.67	121.71
697.80	58.51
697.94	30.43
698.07	107.66
698.21	51.49
698.34	49.15
698.47	65.54
698.61	65.54
698.74	35.11
698.87	39.79
699.01	0.00
699.14	0.00
699.27	79.58
699.40	84.26
699.54	49.15
699.67	0.00
699.80	18.72
699.94	25.75
700.07	9.36
700.20	30.43
700.34	63.19
700.47	23.41
700.60	53.83
700.73	18.72
700.87	28.09
701.00	0.00
701.13	0.00
701.26	23.41
701.40	49.15
701.53	60.85
701.66	28.09
701.79	0.00
701.93	53.83
702.06	0.00
702.19	32.77
702.32	0.00
702.46	4.68
702.59	77.24
702.72	63.19
702.85	53.83
702.99	60.85
703.12	88.94
703.25	16.38
703.38	32.77
703.51	2.34
703.65	88.94
703.78	49.15
703.91	51.49
704.04	74.90
704.17	37.45
704.31	0.00
704.44	11.70
704.57	0.00
704.70	0.00
704.83	2.34
704.96	21.06
705.10	18.72
705.23	46.81
>>>>>End Processed Spectral Data<<<<<
