SpectraSuite Data File
++++++++++++++++++++++++++++++++++++
Date: Fri Oct 04 12:13:31 GMT-05:00 2013
User: price-jones
Dark Spectrum Present: No
Reference Spectrum Present: No
Number of Sampled Component Spectra: 1
Spectrometers: USB2+H05261
Integration Time (usec): 10000 (USB2+H05261)
Spectra Averaged: 1 (USB2+H05261)
Boxcar Smoothing: 0 (USB2+H05261)
Correct for Electrical Dark: No (USB2+H05261)
Strobe/Lamp Enabled: No (USB2+H05261)
Correct for Detector Non-linearity: No (USB2+H05261)
Correct for Stray Light: No (USB2+H05261)
Number of Pixels in Processed Spectrum: 2048
>>>>>Begin Processed Spectral Data<<<<<
365.73	0.00
365.92	0.00
366.12	0.00
366.32	0.00
366.52	0.00
366.72	0.00
366.91	0.00
367.11	0.00
367.31	0.00
367.51	0.00
367.70	0.00
367.90	0.00
368.10	0.00
368.30	0.00
368.49	0.00
368.69	0.00
368.89	0.00
369.09	0.00
369.28	0.00
369.48	0.00
369.68	0.00
369.87	0.00
370.07	0.00
370.27	0.00
370.47	0.00
370.66	0.00
370.86	0.00
371.06	0.00
371.25	42.13
371.45	0.00
371.65	0.00
371.84	0.00
372.04	0.00
372.24	0.00
372.44	4.68
372.63	23.41
372.83	0.00
373.03	0.00
373.22	56.17
373.42	0.00
373.62	0.00
373.81	11.70
374.01	0.00
374.21	65.54
374.40	28.09
374.60	21.06
374.79	0.00
374.99	16.38
375.19	0.00
375.38	0.00
375.58	18.72
375.78	37.45
375.97	16.38
376.17	65.54
376.37	88.94
376.56	28.09
376.76	67.88
376.95	67.88
377.15	42.13
377.35	0.00
377.54	28.09
377.74	56.17
377.93	91.28
378.13	0.00
378.33	0.00
378.52	37.45
378.72	23.41
378.91	42.13
379.11	11.70
379.31	44.47
379.50	0.00
379.70	28.09
379.89	51.49
380.09	0.00
380.28	4.68
380.48	14.04
380.68	35.11
380.87	18.72
381.07	0.00
381.26	18.72
381.46	7.02
381.65	49.15
381.85	28.09
382.04	0.00
382.24	16.38
382.43	44.47
382.63	30.43
382.83	51.49
383.02	0.00
383.22	46.81
383.41	0.00
383.61	0.00
383.80	39.79
384.00	11.70
384.19	86.60
384.39	18.72
384.58	0.00
384.78	14.04
384.97	21.06
385.17	0.00
385.36	28.09
385.56	0.00
385.75	21.06
385.95	39.79
386.14	39.79
386.34	7.02
386.53	42.13
386.72	18.72
386.92	4.68
387.11	0.00
387.31	35.11
387.50	28.09
387.70	77.24
387.89	0.00
388.09	0.00
388.28	88.94
388.48	28.09
388.67	95.96
388.86	14.04
389.06	16.38
389.25	16.38
389.45	0.00
389.64	149.79
389.84	21.06
390.03	0.00
390.22	23.41
390.42	14.04
390.61	112.35
390.81	37.45
391.00	23.41
391.19	51.49
391.39	53.83
391.58	58.51
391.78	0.00
391.97	51.49
392.16	51.49
392.36	0.00
392.55	0.00
392.75	49.15
392.94	18.72
393.13	0.00
393.33	16.38
393.52	39.79
393.71	49.15
393.91	53.83
394.10	14.04
394.29	42.13
394.49	0.00
394.68	0.00
394.88	16.38
395.07	28.09
395.26	63.19
395.46	0.00
395.65	30.43
395.84	77.24
396.04	35.11
396.23	39.79
396.42	51.49
396.62	37.45
396.81	0.00
397.00	0.00
397.19	2.34
397.39	0.00
397.58	0.00
397.77	49.15
397.97	0.00
398.16	0.00
398.35	0.00
398.55	67.88
398.74	60.85
398.93	4.68
399.12	39.79
399.32	56.17
399.51	25.75
399.70	0.00
399.90	39.79
400.09	37.45
400.28	35.11
400.47	0.00
400.67	2.34
400.86	37.45
401.05	7.02
401.24	23.41
401.44	11.70
401.63	0.00
401.82	7.02
402.01	0.00
402.21	4.68
402.40	14.04
402.59	21.06
402.78	0.00
402.97	14.04
403.17	46.81
403.36	0.00
403.55	0.00
403.74	65.54
403.93	39.79
404.13	74.90
404.32	98.30
404.51	30.43
404.70	0.00
404.89	0.00
405.09	58.51
405.28	9.36
405.47	2.34
405.66	58.51
405.85	32.77
406.05	53.83
406.24	72.56
406.43	21.06
406.62	35.11
406.81	65.54
407.00	30.43
407.20	35.11
407.39	21.06
407.58	0.00
407.77	28.09
407.96	70.22
408.15	32.77
408.34	58.51
408.54	79.58
408.73	44.47
408.92	0.00
409.11	0.00
409.30	16.38
409.49	0.00
409.68	0.00
409.87	105.32
410.07	49.15
410.26	7.02
410.45	9.36
410.64	32.77
410.83	100.64
411.02	0.00
411.21	37.45
411.40	37.45
411.59	23.41
411.78	0.00
411.98	21.06
412.17	21.06
412.36	32.77
412.55	49.15
412.74	42.13
412.93	35.11
413.12	46.81
413.31	18.72
413.50	30.43
413.69	0.00
413.88	58.51
414.07	18.72
414.26	44.47
414.45	51.49
414.64	91.28
414.83	0.00
415.02	4.68
415.22	0.00
415.41	84.26
415.60	9.36
415.79	95.96
415.98	86.60
416.17	23.41
416.36	28.09
416.55	9.36
416.74	65.54
416.93	32.77
417.12	53.83
417.31	49.15
417.50	7.02
417.69	138.09
417.88	58.51
418.07	0.00
418.26	117.03
418.45	2.34
418.64	28.09
418.83	16.38
419.02	65.54
419.21	70.22
419.39	28.09
419.58	0.00
419.77	0.00
419.96	37.45
420.15	42.13
420.34	23.41
420.53	11.70
420.72	37.45
420.91	0.00
421.10	53.83
421.29	9.36
421.48	42.13
421.67	0.00
421.86	30.43
422.05	44.47
422.24	46.81
422.43	0.00
422.61	0.00
422.80	0.00
422.99	0.00
423.18	91.28
423.37	28.09
423.56	0.00
423.75	28.09
423.94	21.06
424.13	0.00
424.32	79.58
424.50	65.54
424.69	7.02
424.88	32.77
425.07	9.36
425.26	100.64
425.45	0.00
425.64	67.88
425.83	23.41
426.01	51.49
426.20	11.70
426.39	0.00
426.58	0.00
426.77	25.75
426.96	11.70
427.15	14.04
427.33	7.02
427.52	0.00
427.71	18.72
427.90	53.83
428.09	91.28
428.28	0.00
428.46	42.13
428.65	0.00
428.84	98.30
429.03	42.13
429.22	53.83
429.40	58.51
429.59	0.00
429.78	25.75
429.97	21.06
430.16	39.79
430.34	11.70
430.53	79.58
430.72	67.88
430.91	39.79
431.10	46.81
431.28	79.58
431.47	79.58
431.66	30.43
431.85	0.00
432.03	30.43
432.22	124.05
432.41	37.45
432.60	30.43
432.79	21.06
432.97	44.47
433.16	28.09
433.35	51.49
433.54	11.70
433.72	39.79
433.91	11.70
434.10	44.47
434.28	70.22
434.47	18.72
434.66	21.06
434.85	53.83
435.03	18.72
435.22	46.81
435.41	46.81
435.59	98.30
435.78	4.68
435.97	56.17
436.16	4.68
436.34	9.36
436.53	0.00
436.72	21.06
436.90	56.17
437.09	30.43
437.28	30.43
437.46	0.00
437.65	21.06
437.84	60.85
438.02	37.45
438.21	81.92
438.40	0.00
438.58	0.00
438.77	63.19
438.96	81.92
439.14	16.38
439.33	42.13
439.52	44.47
439.70	72.56
439.89	131.07
440.08	28.09
440.26	72.56
440.45	51.49
440.63	28.09
440.82	0.00
441.01	0.00
441.19	39.79
441.38	44.47
441.57	56.17
441.75	58.51
441.94	2.34
442.12	16.38
442.31	0.00
442.50	0.00
442.68	72.56
442.87	28.09
443.05	14.04
443.24	32.77
443.43	42.13
443.61	79.58
443.80	28.09
443.98	0.00
444.17	9.36
444.35	39.79
444.54	79.58
444.73	63.19
444.91	18.72
445.10	0.00
445.28	2.34
445.47	9.36
445.65	0.00
445.84	0.00
446.02	0.00
446.21	0.00
446.39	32.77
446.58	14.04
446.77	100.64
446.95	93.62
447.14	84.26
447.32	65.54
447.51	39.79
447.69	0.00
447.88	32.77
448.06	9.36
448.25	21.06
448.43	16.38
448.62	0.00
448.80	65.54
448.99	63.19
449.17	53.83
449.36	37.45
449.54	70.22
449.73	0.00
449.91	49.15
450.10	51.49
450.28	154.48
450.46	72.56
450.65	0.00
450.83	0.00
451.02	37.45
451.20	30.43
451.39	60.85
451.57	0.00
451.76	44.47
451.94	0.00
452.13	74.90
452.31	51.49
452.49	39.79
452.68	63.19
452.86	16.38
453.05	58.51
453.23	32.77
453.42	2.34
453.60	14.04
453.78	37.45
453.97	44.47
454.15	0.00
454.34	0.00
454.52	95.96
454.70	56.17
454.89	25.75
455.07	9.36
455.26	86.60
455.44	56.17
455.62	14.04
455.81	2.34
455.99	0.00
456.17	42.13
456.36	0.00
456.54	28.09
456.73	0.00
456.91	7.02
457.09	0.00
457.28	56.17
457.46	84.26
457.64	93.62
457.83	63.19
458.01	88.94
458.19	25.75
458.38	2.34
458.56	18.72
458.74	100.64
458.93	2.34
459.11	0.00
459.29	9.36
459.48	16.38
459.66	18.72
459.84	4.68
460.03	56.17
460.21	88.94
460.39	81.92
460.57	72.56
460.76	63.19
460.94	114.69
461.12	4.68
461.31	4.68
461.49	51.49
461.67	16.38
461.85	4.68
462.04	107.66
462.22	56.17
462.40	58.51
462.59	0.00
462.77	30.43
462.95	32.77
463.13	56.17
463.32	65.54
463.50	95.96
463.68	30.43
463.86	21.06
464.05	35.11
464.23	0.00
464.41	30.43
464.59	28.09
464.78	0.00
464.96	58.51
465.14	67.88
465.32	49.15
465.50	11.70
465.69	0.00
465.87	37.45
466.05	67.88
466.23	0.00
466.41	88.94
466.60	23.41
466.78	11.70
466.96	23.41
467.14	37.45
467.32	35.11
467.51	37.45
467.69	79.58
467.87	0.00
468.05	117.03
468.23	39.79
468.41	0.00
468.60	42.13
468.78	0.00
468.96	44.47
469.14	0.00
469.32	37.45
469.50	44.47
469.69	0.00
469.87	67.88
470.05	30.43
470.23	7.02
470.41	0.00
470.59	23.41
470.77	35.11
470.95	67.88
471.14	0.00
471.32	63.19
471.50	0.00
471.68	93.62
471.86	2.34
472.04	14.04
472.22	30.43
472.40	77.24
472.58	0.00
472.77	11.70
472.95	37.45
473.13	98.30
473.31	74.90
473.49	37.45
473.67	32.77
473.85	60.85
474.03	35.11
474.21	30.43
474.39	25.75
474.57	56.17
474.75	102.98
474.93	49.15
475.12	39.79
475.30	28.09
475.48	51.49
475.66	56.17
475.84	16.38
476.02	35.11
476.20	74.90
476.38	21.06
476.56	65.54
476.74	44.47
476.92	0.00
477.10	11.70
477.28	0.00
477.46	0.00
477.64	0.00
477.82	37.45
478.00	28.09
478.18	77.24
478.36	0.00
478.54	0.00
478.72	58.51
478.90	16.38
479.08	11.70
479.26	0.00
479.44	39.79
479.62	70.22
479.80	28.09
479.98	56.17
480.16	0.00
480.34	35.11
480.52	0.00
480.70	56.17
480.88	70.22
481.06	93.62
481.24	63.19
481.41	16.38
481.59	67.88
481.77	25.75
481.95	4.68
482.13	91.28
482.31	91.28
482.49	14.04
482.67	14.04
482.85	25.75
483.03	60.85
483.21	16.38
483.39	67.88
483.57	0.00
483.74	0.00
483.92	0.00
484.10	0.00
484.28	51.49
484.46	37.45
484.64	81.92
484.82	9.36
485.00	60.85
485.18	0.00
485.35	21.06
485.53	42.13
485.71	30.43
485.89	37.45
486.07	46.81
486.25	51.49
486.43	98.30
486.61	72.56
486.78	86.60
486.96	7.02
487.14	86.60
487.32	93.62
487.50	39.79
487.68	53.83
487.85	72.56
488.03	21.06
488.21	65.54
488.39	49.15
488.57	39.79
488.75	4.68
488.92	70.22
489.10	23.41
489.28	81.92
489.46	28.09
489.64	46.81
489.81	11.70
489.99	65.54
490.17	30.43
490.35	39.79
490.53	95.96
490.70	0.00
490.88	2.34
491.06	4.68
491.24	0.00
491.41	16.38
491.59	58.51
491.77	60.85
491.95	53.83
492.13	32.77
492.30	14.04
492.48	14.04
492.66	9.36
492.84	14.04
493.01	72.56
493.19	51.49
493.37	23.41
493.54	32.77
493.72	60.85
493.90	18.72
494.08	70.22
494.25	95.96
494.43	21.06
494.61	18.72
494.79	67.88
494.96	74.90
495.14	9.36
495.32	7.02
495.49	23.41
495.67	74.90
495.85	142.77
496.02	112.35
496.20	58.51
496.38	65.54
496.55	65.54
496.73	0.00
496.91	72.56
497.09	16.38
497.26	86.60
497.44	124.05
497.62	46.81
497.79	70.22
497.97	32.77
498.14	63.19
498.32	0.00
498.50	39.79
498.67	44.47
498.85	53.83
499.03	25.75
499.20	93.62
499.38	70.22
499.56	0.00
499.73	58.51
499.91	9.36
500.08	91.28
500.26	79.58
500.44	0.00
500.61	84.26
500.79	110.01
500.97	37.45
501.14	7.02
501.32	74.90
501.49	23.41
501.67	28.09
501.84	46.81
502.02	100.64
502.20	35.11
502.37	138.09
502.55	23.41
502.72	16.38
502.90	65.54
503.07	35.11
503.25	0.00
503.43	37.45
503.60	14.04
503.78	28.09
503.95	0.00
504.13	51.49
504.30	114.69
504.48	0.00
504.65	0.00
504.83	91.28
505.01	86.60
505.18	42.13
505.36	53.83
505.53	11.70
505.71	105.32
505.88	58.51
506.06	21.06
506.23	23.41
506.41	84.26
506.58	0.00
506.76	42.13
506.93	0.00
507.11	67.88
507.28	70.22
507.46	42.13
507.63	74.90
507.81	42.13
507.98	11.70
508.16	2.34
508.33	51.49
508.50	98.30
508.68	46.81
508.85	11.70
509.03	4.68
509.20	23.41
509.38	28.09
509.55	37.45
509.73	56.17
509.90	70.22
510.08	32.77
510.25	28.09
510.42	32.77
510.60	11.70
510.77	30.43
510.95	63.19
511.12	0.00
511.30	28.09
511.47	16.38
511.64	63.19
511.82	65.54
511.99	102.98
512.17	67.88
512.34	79.58
512.51	65.54
512.69	2.34
512.86	91.28
513.04	53.83
513.21	102.98
513.38	18.72
513.56	32.77
513.73	0.00
513.90	21.06
514.08	51.49
514.25	65.54
514.43	21.06
514.60	39.79
514.77	44.47
514.95	88.94
515.12	37.45
515.29	81.92
515.47	77.24
515.64	98.30
515.81	35.11
515.99	49.15
516.16	100.64
516.33	28.09
516.51	35.11
516.68	74.90
516.85	88.94
517.03	84.26
517.20	16.38
517.37	0.00
517.54	21.06
517.72	0.00
517.89	7.02
518.06	53.83
518.24	35.11
518.41	42.13
518.58	46.81
518.75	102.98
518.93	23.41
519.10	70.22
519.27	32.77
519.45	21.06
519.62	0.00
519.79	81.92
519.96	0.00
520.14	0.00
520.31	88.94
520.48	88.94
520.65	81.92
520.83	7.02
521.00	107.66
521.17	51.49
521.34	11.70
521.52	30.43
521.69	23.41
521.86	58.51
522.03	72.56
522.20	32.77
522.38	2.34
522.55	72.56
522.72	23.41
522.89	58.51
523.07	0.00
523.24	84.26
523.41	37.45
523.58	79.58
523.75	21.06
523.92	46.81
524.10	93.62
524.27	7.02
524.44	79.58
524.61	102.98
524.78	93.62
524.96	49.15
525.13	18.72
525.30	124.05
525.47	14.04
525.64	18.72
525.81	0.00
525.98	37.45
526.16	0.00
526.33	30.43
526.50	72.56
526.67	72.56
526.84	58.51
527.01	56.17
527.18	0.00
527.36	0.00
527.53	18.72
527.70	32.77
527.87	0.00
528.04	58.51
528.21	107.66
528.38	110.01
528.55	53.83
528.72	30.43
528.89	28.09
529.07	9.36
529.24	32.77
529.41	72.56
529.58	37.45
529.75	74.90
529.92	30.43
530.09	100.64
530.26	35.11
530.43	0.00
530.60	58.51
530.77	95.96
530.94	49.15
531.11	23.41
531.28	4.68
531.46	21.06
531.63	72.56
531.80	70.22
531.97	0.00
532.14	84.26
532.31	84.26
532.48	44.47
532.65	72.56
532.82	86.60
532.99	0.00
533.16	0.00
533.33	18.72
533.50	58.51
533.67	37.45
533.84	25.75
534.01	32.77
534.18	23.41
534.35	35.11
534.52	46.81
534.69	56.17
534.86	16.38
535.03	72.56
535.20	93.62
535.37	79.58
535.54	81.92
535.71	77.24
535.88	9.36
536.05	0.00
536.22	14.04
536.38	35.11
536.55	25.75
536.72	32.77
536.89	18.72
537.06	46.81
537.23	72.56
537.40	140.43
537.57	131.07
537.74	91.28
537.91	131.07
538.08	124.05
538.25	63.19
538.42	44.47
538.59	70.22
538.75	86.60
538.92	14.04
539.09	93.62
539.26	0.00
539.43	23.41
539.60	124.05
539.77	159.16
539.94	86.60
540.11	58.51
540.28	42.13
540.44	72.56
540.61	37.45
540.78	86.60
540.95	14.04
541.12	18.72
541.29	0.00
541.46	28.09
541.62	0.00
541.79	0.00
541.96	77.24
542.13	39.79
542.30	77.24
542.47	42.13
542.63	110.01
542.80	142.77
542.97	79.58
543.14	67.88
543.31	93.62
543.48	79.58
543.64	0.00
543.81	56.17
543.98	4.68
544.15	0.00
544.32	18.72
544.48	44.47
544.65	53.83
544.82	23.41
544.99	124.05
545.16	74.90
545.32	11.70
545.49	58.51
545.66	44.47
545.83	39.79
546.00	46.81
546.16	2.34
546.33	0.00
546.50	60.85
546.67	46.81
546.83	14.04
547.00	65.54
547.17	21.06
547.34	11.70
547.50	16.38
547.67	67.88
547.84	0.00
548.00	35.11
548.17	39.79
548.34	112.35
548.51	173.20
548.67	81.92
548.84	9.36
549.01	51.49
549.18	0.00
549.34	93.62
549.51	0.00
549.68	28.09
549.84	42.13
550.01	77.24
550.18	35.11
550.34	21.06
550.51	0.00
550.68	30.43
550.84	18.72
551.01	18.72
551.18	0.00
551.34	18.72
551.51	44.47
551.68	4.68
551.84	88.94
552.01	18.72
552.18	37.45
552.34	0.00
552.51	0.00
552.68	98.30
552.84	60.85
553.01	60.85
553.18	110.01
553.34	63.19
553.51	32.77
553.67	39.79
553.84	72.56
554.01	67.88
554.17	0.00
554.34	9.36
554.51	60.85
554.67	100.64
554.84	0.00
555.00	39.79
555.17	0.00
555.33	72.56
555.50	63.19
555.67	0.00
555.83	63.19
556.00	53.83
556.16	100.64
556.33	35.11
556.50	30.43
556.66	0.00
556.83	84.26
556.99	0.00
557.16	39.79
557.32	46.81
557.49	9.36
557.65	63.19
557.82	60.85
557.98	126.39
558.15	44.47
558.32	84.26
558.48	0.00
558.65	25.75
558.81	32.77
558.98	28.09
559.14	25.75
559.31	0.00
559.47	28.09
559.64	72.56
559.80	53.83
559.97	30.43
560.13	25.75
560.30	32.77
560.46	11.70
560.63	18.72
560.79	9.36
560.96	35.11
561.12	81.92
561.29	88.94
561.45	28.09
561.61	91.28
561.78	51.49
561.94	0.00
562.11	65.54
562.27	65.54
562.44	65.54
562.60	77.24
562.77	23.41
562.93	119.37
563.10	86.60
563.26	46.81
563.42	65.54
563.59	0.00
563.75	72.56
563.92	42.13
564.08	140.43
564.24	63.19
564.41	51.49
564.57	0.00
564.74	60.85
564.90	0.00
565.07	37.45
565.23	60.85
565.39	28.09
565.56	21.06
565.72	46.81
565.88	102.98
566.05	51.49
566.21	67.88
566.38	42.13
566.54	14.04
566.70	32.77
566.87	42.13
567.03	63.19
567.19	14.04
567.36	84.26
567.52	14.04
567.68	28.09
567.85	18.72
568.01	46.81
568.17	16.38
568.34	21.06
568.50	0.00
568.66	32.77
568.83	25.75
568.99	0.00
569.15	30.43
569.32	67.88
569.48	42.13
569.64	25.75
569.81	74.90
569.97	60.85
570.13	18.72
570.30	4.68
570.46	46.81
570.62	63.19
570.78	23.41
570.95	105.32
571.11	105.32
571.27	7.02
571.43	16.38
571.60	0.00
571.76	58.51
571.92	53.83
572.09	0.00
572.25	42.13
572.41	58.51
572.57	72.56
572.74	77.24
572.90	32.77
573.06	81.92
573.22	74.90
573.38	0.00
573.55	9.36
573.71	0.00
573.87	0.00
574.03	0.00
574.20	9.36
574.36	166.18
574.52	18.72
574.68	81.92
574.84	93.62
575.01	46.81
575.17	58.51
575.33	72.56
575.49	63.19
575.65	70.22
575.82	23.41
575.98	107.66
576.14	102.98
576.30	74.90
576.46	44.47
576.62	2.34
576.79	0.00
576.95	0.00
577.11	0.00
577.27	93.62
577.43	74.90
577.59	32.77
577.75	110.01
577.92	44.47
578.08	0.00
578.24	98.30
578.40	49.15
578.56	81.92
578.72	58.51
578.88	49.15
579.04	46.81
579.21	11.70
579.37	49.15
579.53	0.00
579.69	37.45
579.85	51.49
580.01	0.00
580.17	81.92
580.33	28.09
580.49	102.98
580.65	9.36
580.82	56.17
580.98	60.85
581.14	7.02
581.30	44.47
581.46	30.43
581.62	4.68
581.78	16.38
581.94	16.38
582.10	91.28
582.26	70.22
582.42	117.03
582.58	100.64
582.74	14.04
582.90	28.09
583.06	0.00
583.22	14.04
583.38	84.26
583.54	0.00
583.70	74.90
583.86	70.22
584.02	102.98
584.18	117.03
584.34	58.51
584.50	201.29
584.66	1441.77
584.82	3258.03
584.98	4784.06
585.14	4311.27
585.30	2761.83
585.46	1575.18
585.62	1057.92
585.78	433.00
585.94	187.24
586.10	93.62
586.26	119.37
586.42	42.13
586.58	112.35
586.74	46.81
586.90	51.49
587.06	67.88
587.22	16.38
587.38	88.94
587.54	74.90
587.70	234.05
587.86	360.44
588.02	383.85
588.18	330.02
588.34	175.54
588.49	149.79
588.65	39.79
588.81	65.54
588.97	86.60
589.13	35.11
589.29	51.49
589.45	30.43
589.61	28.09
589.77	91.28
589.93	49.15
590.08	67.88
590.24	84.26
590.40	133.41
590.56	67.88
590.72	81.92
590.88	105.32
591.04	0.00
591.20	32.77
591.35	51.49
591.51	65.54
591.67	60.85
591.83	25.75
591.99	0.00
592.15	58.51
592.31	98.30
592.46	121.71
592.62	100.64
592.78	39.79
592.94	72.56
593.10	42.13
593.26	0.00
593.41	72.56
593.57	58.51
593.73	81.92
593.89	210.65
594.05	496.19
594.20	657.69
594.36	620.24
594.52	477.47
594.68	285.55
594.84	182.56
594.99	189.58
595.15	65.54
595.31	0.00
595.47	114.69
595.62	21.06
595.78	14.04
595.94	110.01
596.10	58.51
596.25	51.49
596.41	21.06
596.57	32.77
596.73	39.79
596.88	53.83
597.04	88.94
597.20	152.13
597.36	231.71
597.51	105.32
597.67	184.90
597.83	0.00
597.99	18.72
598.14	84.26
598.30	67.88
598.46	21.06
598.61	65.54
598.77	18.72
598.93	46.81
599.09	21.06
599.24	70.22
599.40	0.00
599.56	0.00
599.71	72.56
599.87	98.30
600.03	46.81
600.18	0.00
600.34	2.34
600.50	14.04
600.65	72.56
600.81	74.90
600.97	67.88
601.12	0.00
601.28	79.58
601.44	51.49
601.59	93.62
601.75	138.09
601.91	0.00
602.06	18.72
602.22	0.00
602.37	58.51
602.53	77.24
602.69	84.26
602.84	231.71
603.00	81.92
603.16	100.64
603.31	135.75
603.47	51.49
603.62	42.13
603.78	98.30
603.94	0.00
604.09	37.45
604.25	65.54
604.40	21.06
604.56	74.90
604.71	9.36
604.87	39.79
605.03	18.72
605.18	42.13
605.34	0.00
605.49	0.00
605.65	63.19
605.80	81.92
605.96	107.66
606.12	0.00
606.27	37.45
606.43	0.00
606.58	46.81
606.74	81.92
606.89	149.79
607.05	470.45
607.20	587.47
607.36	512.58
607.51	334.70
607.67	259.80
607.82	149.79
607.98	98.30
608.13	154.48
608.29	88.94
608.44	79.58
608.60	35.11
608.75	7.02
608.91	95.96
609.06	365.12
609.22	664.71
609.37	954.94
609.53	751.31
609.68	643.65
609.84	348.74
609.99	290.23
610.15	156.82
610.30	58.51
610.46	128.73
610.61	42.13
610.76	21.06
610.92	28.09
611.07	39.79
611.23	49.15
611.38	53.83
611.54	77.24
611.69	21.06
611.84	35.11
612.00	107.66
612.15	65.54
612.31	9.36
612.46	79.58
612.62	30.43
612.77	131.07
612.92	16.38
613.08	70.22
613.23	84.26
613.39	60.85
613.54	25.75
613.69	376.83
613.85	800.46
614.00	1383.26
614.15	1493.26
614.31	983.02
614.46	664.71
614.62	535.98
614.77	269.16
614.92	152.13
615.08	63.19
615.23	84.26
615.38	0.00
615.54	100.64
615.69	60.85
615.84	227.03
616.00	208.31
616.15	381.51
616.30	416.62
616.46	194.26
616.61	212.99
616.76	114.69
616.92	112.35
617.07	131.07
617.22	63.19
617.37	11.70
617.53	53.83
617.68	86.60
617.83	79.58
617.99	114.69
618.14	63.19
618.29	84.26
618.45	23.41
618.60	42.13
618.75	28.09
618.90	4.68
619.06	18.72
619.21	60.85
619.36	0.00
619.51	74.90
619.67	9.36
619.82	72.56
619.97	0.00
620.12	42.13
620.28	56.17
620.43	32.77
620.58	0.00
620.73	23.41
620.89	18.72
621.04	51.49
621.19	65.54
621.34	168.52
621.49	241.08
621.65	182.56
621.80	149.79
621.95	154.48
622.10	107.66
622.25	107.66
622.41	56.17
622.56	53.83
622.71	0.00
622.86	7.02
623.01	88.94
623.16	30.43
623.32	39.79
623.47	23.41
623.62	53.83
623.77	84.26
623.92	63.19
624.07	81.92
624.23	25.75
624.38	145.11
624.53	0.00
624.68	67.88
624.83	72.56
624.98	60.85
625.13	0.00
625.29	74.90
625.44	42.13
625.59	53.83
625.74	49.15
625.89	67.88
626.04	201.29
626.19	470.45
626.34	744.29
626.49	884.72
626.65	638.97
626.80	423.64
626.95	243.42
627.10	191.92
627.25	67.88
627.40	140.43
627.55	35.11
627.70	84.26
627.85	91.28
628.00	25.75
628.15	142.77
628.30	107.66
628.45	0.00
628.60	0.00
628.76	0.00
628.91	51.49
629.06	44.47
629.21	23.41
629.36	42.13
629.51	60.85
629.66	56.17
629.81	49.15
629.96	98.30
630.11	231.71
630.26	184.90
630.41	227.03
630.56	121.71
630.71	133.41
630.86	67.88
631.01	58.51
631.16	32.77
631.31	72.56
631.46	67.88
631.61	37.45
631.76	37.45
631.91	53.83
632.06	107.66
632.21	53.83
632.36	37.45
632.51	0.00
632.66	49.15
632.81	168.52
632.96	278.52
633.10	468.11
633.25	578.11
633.40	503.22
633.55	285.55
633.70	273.84
633.85	175.54
634.00	58.51
634.15	60.85
634.30	117.03
634.45	126.39
634.60	42.13
634.75	70.22
634.90	32.77
635.05	21.06
635.19	11.70
635.34	4.68
635.49	23.41
635.64	25.75
635.79	77.24
635.94	44.47
636.09	44.47
636.24	46.81
636.39	93.62
636.53	0.00
636.68	46.81
636.83	63.19
636.98	0.00
637.13	42.13
637.28	39.79
637.43	74.90
637.57	133.41
637.72	238.73
637.87	517.26
638.02	912.81
638.17	954.94
638.32	784.08
638.46	589.82
638.61	348.74
638.76	236.39
638.91	208.31
639.06	105.32
639.20	126.39
639.35	0.00
639.50	86.60
639.65	372.15
639.80	873.02
639.94	1439.43
640.09	1502.62
640.24	1100.05
640.39	823.87
640.54	521.94
640.68	285.55
640.83	145.11
640.98	79.58
641.13	98.30
641.27	65.54
641.42	77.24
641.57	35.11
641.72	93.62
641.86	49.15
642.01	56.17
642.16	37.45
642.31	133.41
642.45	74.90
642.60	70.22
642.75	70.22
642.90	21.06
643.04	51.49
643.19	0.00
643.34	35.11
643.48	42.13
643.63	51.49
643.78	4.68
643.93	32.77
644.07	60.85
644.22	60.85
644.37	91.28
644.51	4.68
644.66	23.41
644.81	11.70
644.95	4.68
645.10	0.00
645.25	0.00
645.39	0.00
645.54	37.45
645.69	35.11
645.83	46.81
645.98	46.81
646.13	9.36
646.27	60.85
646.42	14.04
646.57	28.09
646.71	44.47
646.86	46.81
647.00	0.00
647.15	14.04
647.30	112.35
647.44	63.19
647.59	14.04
647.74	0.00
647.88	0.00
648.03	37.45
648.17	93.62
648.32	70.22
648.47	53.83
648.61	37.45
648.76	14.04
648.90	0.00
649.05	46.81
649.20	100.64
649.34	60.85
649.49	100.64
649.63	46.81
649.78	79.58
649.92	49.15
650.07	107.66
650.21	315.97
650.36	655.35
650.51	807.48
650.65	622.58
650.80	447.04
650.94	341.72
651.09	205.97
651.23	117.03
651.38	37.45
651.52	4.68
651.67	21.06
651.81	0.00
651.96	70.22
652.10	18.72
652.25	49.15
652.39	58.51
652.54	49.15
652.68	28.09
652.83	238.73
652.97	215.33
653.12	320.65
653.26	212.99
653.41	210.65
653.55	191.92
653.70	140.43
653.84	74.90
653.99	79.58
654.13	53.83
654.27	81.92
654.42	117.03
654.56	14.04
654.71	67.88
654.85	35.11
655.00	16.38
655.14	44.47
655.29	11.70
655.43	32.77
655.57	28.09
655.72	9.36
655.86	2.34
656.01	18.72
656.15	0.00
656.30	86.60
656.44	86.60
656.58	58.51
656.73	53.83
656.87	28.09
657.01	79.58
657.16	18.72
657.30	67.88
657.45	70.22
657.59	37.45
657.73	9.36
657.88	11.70
658.02	28.09
658.16	0.00
658.31	0.00
658.45	0.00
658.60	4.68
658.74	49.15
658.88	79.58
659.03	53.83
659.17	37.45
659.31	84.26
659.46	159.16
659.60	306.61
659.74	381.51
659.89	372.15
660.03	283.20
660.17	182.56
660.32	145.11
660.46	88.94
660.60	23.41
660.74	44.47
660.89	56.17
661.03	9.36
661.17	44.47
661.32	0.00
661.46	84.26
661.60	39.79
661.74	35.11
661.89	16.38
662.03	4.68
662.17	0.00
662.31	70.22
662.46	28.09
662.60	4.68
662.74	81.92
662.88	58.51
663.03	72.56
663.17	18.72
663.31	51.49
663.45	70.22
663.60	49.15
663.74	79.58
663.88	53.83
664.02	0.00
664.17	0.00
664.31	23.41
664.45	16.38
664.59	0.00
664.73	46.81
664.88	23.41
665.02	0.00
665.16	93.62
665.30	7.02
665.44	100.64
665.59	30.43
665.73	0.00
665.87	30.43
666.01	0.00
666.15	65.54
666.29	16.38
666.44	77.24
666.58	21.06
666.72	4.68
666.86	100.64
667.00	4.68
667.14	25.75
667.28	184.90
667.43	348.74
667.57	514.92
667.71	634.29
667.85	657.69
667.99	393.21
668.13	369.80
668.27	138.09
668.41	147.45
668.56	86.60
668.70	74.90
668.84	28.09
668.98	119.37
669.12	65.54
669.26	0.00
669.40	77.24
669.54	77.24
669.68	84.26
669.82	102.98
669.96	11.70
670.10	0.00
670.25	49.15
670.39	91.28
670.53	86.60
670.67	74.90
670.81	91.28
670.95	0.00
671.09	65.54
671.23	173.20
671.37	278.52
671.51	458.74
671.65	447.04
671.79	353.42
671.93	262.14
672.07	147.45
672.21	128.73
672.35	23.41
672.49	114.69
672.63	79.58
672.77	30.43
672.91	21.06
673.05	9.36
673.19	100.64
673.33	63.19
673.47	102.98
673.61	42.13
673.75	9.36
673.89	51.49
674.03	0.00
674.17	39.79
674.31	58.51
674.45	84.26
674.59	37.45
674.73	7.02
674.87	56.17
675.01	11.70
675.15	0.00
675.29	112.35
675.43	9.36
675.56	121.71
675.70	95.96
675.84	30.43
675.98	46.81
676.12	0.00
676.26	4.68
676.40	42.13
676.54	98.30
676.68	32.77
676.82	60.85
676.96	53.83
677.10	0.00
677.23	46.81
677.37	51.49
677.51	35.11
677.65	102.98
677.79	9.36
677.93	11.70
678.07	7.02
678.21	11.70
678.34	32.77
678.48	21.06
678.62	0.00
678.76	77.24
678.90	0.00
679.04	4.68
679.18	32.77
679.31	35.11
679.45	56.17
679.59	70.22
679.73	63.19
679.87	67.88
680.00	42.13
680.14	16.38
680.28	28.09
680.42	2.34
680.56	9.36
680.70	9.36
680.83	93.62
680.97	0.00
681.11	100.64
681.25	30.43
681.39	39.79
681.52	53.83
681.66	30.43
681.80	51.49
681.94	72.56
682.07	0.00
682.21	0.00
682.35	0.00
682.49	28.09
682.62	133.41
682.76	91.28
682.90	21.06
683.04	58.51
683.17	0.00
683.31	35.11
683.45	30.43
683.59	44.47
683.72	18.72
683.86	42.13
684.00	0.00
684.13	35.11
684.27	0.00
684.41	23.41
684.55	56.17
684.68	49.15
684.82	28.09
684.96	39.79
685.09	53.83
685.23	77.24
685.37	21.06
685.50	39.79
685.64	0.00
685.78	4.68
685.91	16.38
686.05	2.34
686.19	14.04
686.32	110.01
686.46	0.00
686.60	0.00
686.73	9.36
686.87	0.00
687.01	32.77
687.14	32.77
687.28	0.00
687.42	93.62
687.55	63.19
687.69	0.00
687.82	0.00
687.96	16.38
688.10	0.00
688.23	25.75
688.37	70.22
688.50	30.43
688.64	11.70
688.78	25.75
688.91	44.47
689.05	16.38
689.18	84.26
689.32	149.79
689.46	0.00
689.59	60.85
689.73	37.45
689.86	44.47
690.00	0.00
690.13	0.00
690.27	23.41
690.41	18.72
690.54	30.43
690.68	7.02
690.81	0.00
690.95	81.92
691.08	0.00
691.22	39.79
691.35	0.00
691.49	39.79
691.62	0.00
691.76	84.26
691.89	0.00
692.03	23.41
692.16	11.70
692.30	0.00
692.43	18.72
692.57	203.63
692.70	271.50
692.84	320.65
692.97	290.23
693.11	215.33
693.24	156.82
693.38	98.30
693.51	86.60
693.65	117.03
693.78	7.02
693.92	30.43
694.05	65.54
694.19	28.09
694.32	4.68
694.45	0.00
694.59	100.64
694.72	93.62
694.86	42.13
694.99	0.00
695.13	37.45
695.26	0.00
695.39	42.13
695.53	35.11
695.66	0.00
695.80	23.41
695.93	0.00
696.07	63.19
696.20	81.92
696.33	0.00
696.47	91.28
696.60	72.56
696.73	0.00
696.87	0.00
697.00	7.02
697.14	70.22
697.27	67.88
697.40	0.00
697.54	51.49
697.67	46.81
697.80	0.00
697.94	53.83
698.07	42.13
698.21	0.00
698.34	14.04
698.47	0.00
698.61	0.00
698.74	53.83
698.87	30.43
699.01	9.36
699.14	2.34
699.27	0.00
699.40	60.85
699.54	0.00
699.67	42.13
699.80	11.70
699.94	4.68
700.07	37.45
700.20	37.45
700.34	16.38
700.47	28.09
700.60	7.02
700.73	60.85
700.87	23.41
701.00	0.00
701.13	18.72
701.26	14.04
701.40	0.00
701.53	9.36
701.66	56.17
701.79	56.17
701.93	93.62
702.06	72.56
702.19	60.85
702.32	2.34
702.46	0.00
702.59	0.00
702.72	23.41
702.85	201.29
702.99	376.83
703.12	489.17
703.25	573.43
703.38	521.94
703.51	388.53
703.65	269.16
703.78	191.92
703.91	203.63
704.04	110.01
704.17	72.56
704.31	28.09
704.44	7.02
704.57	98.30
704.70	72.56
704.83	14.04
704.96	9.36
705.10	37.45
705.23	25.75
>>>>>End Processed Spectral Data<<<<<
