SpectraSuite Data File
++++++++++++++++++++++++++++++++++++
Date: Fri Oct 04 12:13:41 GMT-05:00 2013
User: price-jones
Dark Spectrum Present: No
Reference Spectrum Present: No
Number of Sampled Component Spectra: 1
Spectrometers: USB2+H05261
Integration Time (usec): 10000 (USB2+H05261)
Spectra Averaged: 1 (USB2+H05261)
Boxcar Smoothing: 0 (USB2+H05261)
Correct for Electrical Dark: No (USB2+H05261)
Strobe/Lamp Enabled: No (USB2+H05261)
Correct for Detector Non-linearity: No (USB2+H05261)
Correct for Stray Light: No (USB2+H05261)
Number of Pixels in Processed Spectrum: 2048
>>>>>Begin Processed Spectral Data<<<<<
365.73	46.81
365.92	46.81
366.12	46.81
366.32	0.00
366.52	0.00
366.72	0.00
366.91	0.00
367.11	0.00
367.31	0.00
367.51	0.00
367.70	0.00
367.90	0.00
368.10	0.00
368.30	0.00
368.49	0.00
368.69	0.00
368.89	0.00
369.09	0.00
369.28	0.00
369.48	0.00
369.68	0.00
369.87	0.00
370.07	0.00
370.27	0.00
370.47	0.00
370.66	0.00
370.86	0.00
371.06	0.00
371.25	0.00
371.45	0.00
371.65	16.38
371.84	0.00
372.04	0.00
372.24	0.00
372.44	0.00
372.63	0.00
372.83	0.00
373.03	28.09
373.22	0.00
373.42	93.62
373.62	25.75
373.81	9.36
374.01	37.45
374.21	9.36
374.40	0.00
374.60	11.70
374.79	0.00
374.99	30.43
375.19	0.00
375.38	37.45
375.58	0.00
375.78	0.00
375.97	42.13
376.17	16.38
376.37	74.90
376.56	98.30
376.76	37.45
376.95	84.26
377.15	37.45
377.35	39.79
377.54	46.81
377.74	16.38
377.93	18.72
378.13	0.00
378.33	65.54
378.52	0.00
378.72	11.70
378.91	51.49
379.11	79.58
379.31	56.17
379.50	4.68
379.70	0.00
379.89	58.51
380.09	53.83
380.28	28.09
380.48	0.00
380.68	63.19
380.87	18.72
381.07	0.00
381.26	30.43
381.46	11.70
381.65	44.47
381.85	9.36
382.04	49.15
382.24	7.02
382.43	4.68
382.63	16.38
382.83	0.00
383.02	44.47
383.22	44.47
383.41	53.83
383.61	37.45
383.80	14.04
384.00	7.02
384.19	0.00
384.39	51.49
384.58	0.00
384.78	35.11
384.97	0.00
385.17	11.70
385.36	60.85
385.56	0.00
385.75	9.36
385.95	0.00
386.14	53.83
386.34	35.11
386.53	37.45
386.72	35.11
386.92	0.00
387.11	0.00
387.31	53.83
387.50	46.81
387.70	84.26
387.89	63.19
388.09	70.22
388.28	60.85
388.48	0.00
388.67	16.38
388.86	16.38
389.06	42.13
389.25	79.58
389.45	16.38
389.64	60.85
389.84	79.58
390.03	16.38
390.22	131.07
390.42	63.19
390.61	0.00
390.81	0.00
391.00	79.58
391.19	0.00
391.39	42.13
391.58	0.00
391.78	9.36
391.97	21.06
392.16	28.09
392.36	32.77
392.55	2.34
392.75	39.79
392.94	0.00
393.13	51.49
393.33	9.36
393.52	53.83
393.71	0.00
393.91	4.68
394.10	21.06
394.29	53.83
394.49	21.06
394.68	39.79
394.88	9.36
395.07	30.43
395.26	32.77
395.46	28.09
395.65	4.68
395.84	0.00
396.04	42.13
396.23	0.00
396.42	4.68
396.62	28.09
396.81	35.11
397.00	46.81
397.19	60.85
397.39	44.47
397.58	0.00
397.77	65.54
397.97	18.72
398.16	70.22
398.35	30.43
398.55	2.34
398.74	11.70
398.93	14.04
399.12	0.00
399.32	49.15
399.51	58.51
399.70	72.56
399.90	28.09
400.09	46.81
400.28	37.45
400.47	70.22
400.67	14.04
400.86	0.00
401.05	35.11
401.24	37.45
401.44	18.72
401.63	107.66
401.82	9.36
402.01	0.00
402.21	2.34
402.40	46.81
402.59	0.00
402.78	0.00
402.97	53.83
403.17	46.81
403.36	11.70
403.55	46.81
403.74	0.00
403.93	0.00
404.13	86.60
404.32	67.88
404.51	28.09
404.70	32.77
404.89	56.17
405.09	30.43
405.28	9.36
405.47	0.00
405.66	63.19
405.85	44.47
406.05	0.00
406.24	0.00
406.43	65.54
406.62	0.00
406.81	0.00
407.00	39.79
407.20	30.43
407.39	60.85
407.58	23.41
407.77	25.75
407.96	0.00
408.15	70.22
408.34	65.54
408.54	0.00
408.73	107.66
408.92	70.22
409.11	2.34
409.30	35.11
409.49	2.34
409.68	79.58
409.87	35.11
410.07	0.00
410.26	39.79
410.45	4.68
410.64	0.00
410.83	0.00
411.02	56.17
411.21	18.72
411.40	49.15
411.59	14.04
411.78	30.43
411.98	9.36
412.17	70.22
412.36	63.19
412.55	65.54
412.74	37.45
412.93	16.38
413.12	72.56
413.31	18.72
413.50	58.51
413.69	39.79
413.88	0.00
414.07	56.17
414.26	42.13
414.45	30.43
414.64	4.68
414.83	74.90
415.02	74.90
415.22	9.36
415.41	58.51
415.60	0.00
415.79	126.39
415.98	56.17
416.17	0.00
416.36	32.77
416.55	98.30
416.74	18.72
416.93	35.11
417.12	9.36
417.31	67.88
417.50	117.03
417.69	56.17
417.88	72.56
418.07	110.01
418.26	39.79
418.45	0.00
418.64	28.09
418.83	0.00
419.02	70.22
419.21	21.06
419.39	37.45
419.58	0.00
419.77	98.30
419.96	74.90
420.15	105.32
420.34	0.00
420.53	0.00
420.72	39.79
420.91	25.75
421.10	46.81
421.29	37.45
421.48	53.83
421.67	0.00
421.86	58.51
422.05	98.30
422.24	46.81
422.43	11.70
422.61	25.75
422.80	56.17
422.99	42.13
423.18	56.17
423.37	67.88
423.56	46.81
423.75	37.45
423.94	7.02
424.13	37.45
424.32	51.49
424.50	56.17
424.69	49.15
424.88	93.62
425.07	70.22
425.26	58.51
425.45	58.51
425.64	74.90
425.83	58.51
426.01	28.09
426.20	70.22
426.39	98.30
426.58	39.79
426.77	88.94
426.96	14.04
427.15	11.70
427.33	51.49
427.52	105.32
427.71	7.02
427.90	65.54
428.09	60.85
428.28	42.13
428.46	0.00
428.65	53.83
428.84	46.81
429.03	23.41
429.22	46.81
429.40	44.47
429.59	46.81
429.78	42.13
429.97	39.79
430.16	14.04
430.34	44.47
430.53	25.75
430.72	58.51
430.91	25.75
431.10	72.56
431.28	60.85
431.47	79.58
431.66	79.58
431.85	11.70
432.03	4.68
432.22	79.58
432.41	102.98
432.60	18.72
432.79	23.41
432.97	95.96
433.16	53.83
433.35	2.34
433.54	44.47
433.72	56.17
433.91	67.88
434.10	2.34
434.28	60.85
434.47	44.47
434.66	23.41
434.85	49.15
435.03	49.15
435.22	51.49
435.41	0.00
435.59	23.41
435.78	42.13
435.97	88.94
436.16	60.85
436.34	114.69
436.53	4.68
436.72	74.90
436.90	67.88
437.09	60.85
437.28	131.07
437.46	60.85
437.65	9.36
437.84	30.43
438.02	21.06
438.21	0.00
438.40	4.68
438.58	156.82
438.77	0.00
438.96	37.45
439.14	42.13
439.33	53.83
439.52	86.60
439.70	0.00
439.89	21.06
440.08	105.32
440.26	133.41
440.45	72.56
440.63	49.15
440.82	44.47
441.01	58.51
441.19	72.56
441.38	14.04
441.57	4.68
441.75	77.24
441.94	25.75
442.12	0.00
442.31	72.56
442.50	74.90
442.68	100.64
442.87	42.13
443.05	65.54
443.24	70.22
443.43	81.92
443.61	49.15
443.80	51.49
443.98	51.49
444.17	44.47
444.35	65.54
444.54	98.30
444.73	0.00
444.91	58.51
445.10	39.79
445.28	42.13
445.47	77.24
445.65	93.62
445.84	51.49
446.02	51.49
446.21	72.56
446.39	28.09
446.58	117.03
446.77	140.43
446.95	51.49
447.14	30.43
447.32	72.56
447.51	79.58
447.69	100.64
447.88	21.06
448.06	42.13
448.25	124.05
448.43	21.06
448.62	0.00
448.80	46.81
448.99	11.70
449.17	72.56
449.36	16.38
449.54	95.96
449.73	58.51
449.91	98.30
450.10	28.09
450.28	0.00
450.46	72.56
450.65	28.09
450.83	16.38
451.02	25.75
451.20	53.83
451.39	18.72
451.57	30.43
451.76	23.41
451.94	32.77
452.13	56.17
452.31	93.62
452.49	49.15
452.68	28.09
452.86	72.56
453.05	100.64
453.23	77.24
453.42	0.00
453.60	30.43
453.78	114.69
453.97	0.00
454.15	58.51
454.34	2.34
454.52	0.00
454.70	72.56
454.89	0.00
455.07	0.00
455.26	117.03
455.44	105.32
455.62	42.13
455.81	51.49
455.99	28.09
456.17	46.81
456.36	21.06
456.54	0.00
456.73	0.00
456.91	63.19
457.09	84.26
457.28	18.72
457.46	53.83
457.64	84.26
457.83	74.90
458.01	102.98
458.19	79.58
458.38	70.22
458.56	49.15
458.74	86.60
458.93	98.30
459.11	81.92
459.29	53.83
459.48	102.98
459.66	88.94
459.84	63.19
460.03	67.88
460.21	81.92
460.39	67.88
460.57	23.41
460.76	65.54
460.94	23.41
461.12	49.15
461.31	70.22
461.49	16.38
461.67	67.88
461.85	86.60
462.04	39.79
462.22	105.32
462.40	77.24
462.59	39.79
462.77	105.32
462.95	81.92
463.13	84.26
463.32	79.58
463.50	56.17
463.68	18.72
463.86	14.04
464.05	105.32
464.23	7.02
464.41	56.17
464.59	49.15
464.78	126.39
464.96	112.35
465.14	28.09
465.32	0.00
465.50	9.36
465.69	65.54
465.87	0.00
466.05	49.15
466.23	77.24
466.41	0.00
466.60	51.49
466.78	79.58
466.96	16.38
467.14	18.72
467.32	84.26
467.51	53.83
467.69	11.70
467.87	49.15
468.05	102.98
468.23	72.56
468.41	140.43
468.60	84.26
468.78	72.56
468.96	0.00
469.14	131.07
469.32	74.90
469.50	100.64
469.69	49.15
469.87	51.49
470.05	46.81
470.23	7.02
470.41	77.24
470.59	107.66
470.77	84.26
470.95	0.00
471.14	0.00
471.32	63.19
471.50	42.13
471.68	65.54
471.86	25.75
472.04	88.94
472.22	39.79
472.40	58.51
472.58	39.79
472.77	4.68
472.95	7.02
473.13	21.06
473.31	56.17
473.49	32.77
473.67	70.22
473.85	37.45
474.03	16.38
474.21	44.47
474.39	74.90
474.57	46.81
474.75	74.90
474.93	114.69
475.12	60.85
475.30	28.09
475.48	60.85
475.66	32.77
475.84	58.51
476.02	46.81
476.20	63.19
476.38	21.06
476.56	65.54
476.74	72.56
476.92	67.88
477.10	72.56
477.28	86.60
477.46	51.49
477.64	154.48
477.82	58.51
478.00	119.37
478.18	0.00
478.36	9.36
478.54	60.85
478.72	65.54
478.90	7.02
479.08	117.03
479.26	72.56
479.44	49.15
479.62	25.75
479.80	119.37
479.98	114.69
480.16	0.00
480.34	105.32
480.52	18.72
480.70	86.60
480.88	37.45
481.06	70.22
481.24	72.56
481.41	25.75
481.59	51.49
481.77	25.75
481.95	49.15
482.13	23.41
482.31	60.85
482.49	74.90
482.67	37.45
482.85	110.01
483.03	44.47
483.21	67.88
483.39	79.58
483.57	70.22
483.74	56.17
483.92	74.90
484.10	110.01
484.28	18.72
484.46	58.51
484.64	74.90
484.82	124.05
485.00	126.39
485.18	0.00
485.35	86.60
485.53	7.02
485.71	42.13
485.89	18.72
486.07	28.09
486.25	0.00
486.43	63.19
486.61	81.92
486.78	95.96
486.96	16.38
487.14	11.70
487.32	126.39
487.50	44.47
487.68	49.15
487.85	9.36
488.03	67.88
488.21	7.02
488.39	114.69
488.57	58.51
488.75	110.01
488.92	121.71
489.10	100.64
489.28	86.60
489.46	117.03
489.64	44.47
489.81	14.04
489.99	70.22
490.17	74.90
490.35	81.92
490.53	11.70
490.70	42.13
490.88	56.17
491.06	60.85
491.24	51.49
491.41	70.22
491.59	56.17
491.77	46.81
491.95	7.02
492.13	72.56
492.30	72.56
492.48	74.90
492.66	42.13
492.84	100.64
493.01	102.98
493.19	46.81
493.37	98.30
493.54	100.64
493.72	65.54
493.90	30.43
494.08	86.60
494.25	25.75
494.43	56.17
494.61	23.41
494.79	133.41
494.96	23.41
495.14	121.71
495.32	67.88
495.49	154.48
495.67	4.68
495.85	67.88
496.02	11.70
496.20	105.32
496.38	117.03
496.55	91.28
496.73	110.01
496.91	23.41
497.09	49.15
497.26	81.92
497.44	79.58
497.62	0.00
497.79	86.60
497.97	105.32
498.14	56.17
498.32	121.71
498.50	86.60
498.67	126.39
498.85	79.58
499.03	60.85
499.20	100.64
499.38	18.72
499.56	63.19
499.73	79.58
499.91	39.79
500.08	138.09
500.26	39.79
500.44	65.54
500.61	65.54
500.79	105.32
500.97	88.94
501.14	65.54
501.32	67.88
501.49	72.56
501.67	88.94
501.84	72.56
502.02	100.64
502.20	72.56
502.37	84.26
502.55	126.39
502.72	37.45
502.90	53.83
503.07	102.98
503.25	65.54
503.43	152.13
503.60	102.98
503.78	79.58
503.95	35.11
504.13	23.41
504.30	100.64
504.48	154.48
504.65	49.15
504.83	39.79
505.01	28.09
505.18	72.56
505.36	63.19
505.53	42.13
505.71	60.85
505.88	110.01
506.06	124.05
506.23	72.56
506.41	102.98
506.58	86.60
506.76	23.41
506.93	124.05
507.11	53.83
507.28	35.11
507.46	147.45
507.63	67.88
507.81	65.54
507.98	131.07
508.16	107.66
508.33	53.83
508.50	140.43
508.68	91.28
508.85	126.39
509.03	65.54
509.20	37.45
509.38	56.17
509.55	163.84
509.73	65.54
509.90	91.28
510.08	79.58
510.25	124.05
510.42	138.09
510.60	124.05
510.77	81.92
510.95	184.90
511.12	56.17
511.30	126.39
511.47	110.01
511.64	81.92
511.82	88.94
511.99	21.06
512.17	60.85
512.34	93.62
512.51	124.05
512.69	58.51
512.86	135.75
513.04	147.45
513.21	74.90
513.38	112.35
513.56	95.96
513.73	72.56
513.90	51.49
514.08	117.03
514.25	77.24
514.43	58.51
514.60	147.45
514.77	67.88
514.95	74.90
515.12	140.43
515.29	39.79
515.47	110.01
515.64	84.26
515.81	84.26
515.99	74.90
516.16	56.17
516.33	9.36
516.51	56.17
516.68	98.30
516.85	58.51
517.03	142.77
517.20	51.49
517.37	105.32
517.54	105.32
517.72	63.19
517.89	140.43
518.06	7.02
518.24	65.54
518.41	67.88
518.58	67.88
518.75	56.17
518.93	114.69
519.10	86.60
519.27	81.92
519.45	72.56
519.62	81.92
519.79	110.01
519.96	124.05
520.14	56.17
520.31	117.03
520.48	147.45
520.65	114.69
520.83	93.62
521.00	56.17
521.17	84.26
521.34	100.64
521.52	70.22
521.69	100.64
521.86	9.36
522.03	119.37
522.20	16.38
522.38	65.54
522.55	67.88
522.72	133.41
522.89	7.02
523.07	35.11
523.24	121.71
523.41	79.58
523.58	65.54
523.75	156.82
523.92	98.30
524.10	95.96
524.27	91.28
524.44	72.56
524.61	105.32
524.78	84.26
524.96	25.75
525.13	53.83
525.30	60.85
525.47	56.17
525.64	72.56
525.81	46.81
525.98	114.69
526.16	107.66
526.33	107.66
526.50	0.00
526.67	28.09
526.84	81.92
527.01	79.58
527.18	25.75
527.36	70.22
527.53	114.69
527.70	105.32
527.87	135.75
528.04	170.86
528.21	100.64
528.38	32.77
528.55	138.09
528.72	126.39
528.89	77.24
529.07	65.54
529.24	121.71
529.41	88.94
529.58	72.56
529.75	16.38
529.92	49.15
530.09	67.88
530.26	72.56
530.43	58.51
530.60	107.66
530.77	65.54
530.94	98.30
531.11	100.64
531.28	58.51
531.46	74.90
531.63	74.90
531.80	110.01
531.97	77.24
532.14	79.58
532.31	138.09
532.48	105.32
532.65	84.26
532.82	112.35
532.99	23.41
533.16	81.92
533.33	56.17
533.50	46.81
533.67	131.07
533.84	93.62
534.01	58.51
534.18	0.00
534.35	42.13
534.52	117.03
534.69	84.26
534.86	77.24
535.03	37.45
535.20	98.30
535.37	124.05
535.54	16.38
535.71	60.85
535.88	133.41
536.05	133.41
536.22	42.13
536.38	88.94
536.55	133.41
536.72	60.85
536.89	18.72
537.06	72.56
537.23	25.75
537.40	152.13
537.57	135.75
537.74	56.17
537.91	161.50
538.08	70.22
538.25	95.96
538.42	49.15
538.59	77.24
538.75	126.39
538.92	58.51
539.09	114.69
539.26	37.45
539.43	51.49
539.60	128.73
539.77	107.66
539.94	18.72
540.11	121.71
540.28	112.35
540.44	119.37
540.61	119.37
540.78	77.24
540.95	86.60
541.12	65.54
541.29	65.54
541.46	51.49
541.62	44.47
541.79	14.04
541.96	84.26
542.13	51.49
542.30	18.72
542.47	110.01
542.63	117.03
542.80	102.98
542.97	147.45
543.14	65.54
543.31	49.15
543.48	56.17
543.64	79.58
543.81	126.39
543.98	46.81
544.15	32.77
544.32	93.62
544.48	30.43
544.65	67.88
544.82	70.22
544.99	140.43
545.16	128.73
545.32	51.49
545.49	70.22
545.66	154.48
545.83	53.83
546.00	46.81
546.16	95.96
546.33	145.11
546.50	154.48
546.67	53.83
546.83	91.28
547.00	86.60
547.17	110.01
547.34	70.22
547.50	95.96
547.67	93.62
547.84	114.69
548.00	65.54
548.17	126.39
548.34	93.62
548.51	74.90
548.67	0.00
548.84	60.85
549.01	81.92
549.18	114.69
549.34	63.19
549.51	32.77
549.68	140.43
549.84	117.03
550.01	86.60
550.18	105.32
550.34	88.94
550.51	53.83
550.68	91.28
550.84	79.58
551.01	133.41
551.18	77.24
551.34	39.79
551.51	77.24
551.68	70.22
551.84	46.81
552.01	88.94
552.18	21.06
552.34	88.94
552.51	37.45
552.68	28.09
552.84	35.11
553.01	60.85
553.18	131.07
553.34	126.39
553.51	119.37
553.67	110.01
553.84	95.96
554.01	91.28
554.17	112.35
554.34	117.03
554.51	112.35
554.67	63.19
554.84	56.17
555.00	65.54
555.17	79.58
555.33	159.16
555.50	175.54
555.67	63.19
555.83	100.64
556.00	32.77
556.16	58.51
556.33	65.54
556.50	107.66
556.66	163.84
556.83	0.00
556.99	72.56
557.16	88.94
557.32	60.85
557.49	100.64
557.65	44.47
557.82	16.38
557.98	77.24
558.15	110.01
558.32	39.79
558.48	159.16
558.65	63.19
558.81	119.37
558.98	30.43
559.14	105.32
559.31	133.41
559.47	91.28
559.64	58.51
559.80	18.72
559.97	42.13
560.13	124.05
560.30	42.13
560.46	112.35
560.63	105.32
560.79	21.06
560.96	84.26
561.12	84.26
561.29	65.54
561.45	30.43
561.61	53.83
561.78	98.30
561.94	81.92
562.11	44.47
562.27	30.43
562.44	60.85
562.60	166.18
562.77	201.29
562.93	117.03
563.10	91.28
563.26	98.30
563.42	149.79
563.59	86.60
563.75	84.26
563.92	128.73
564.08	100.64
564.24	30.43
564.41	93.62
564.57	44.47
564.74	86.60
564.90	11.70
565.07	184.90
565.23	105.32
565.39	84.26
565.56	88.94
565.72	98.30
565.88	105.32
566.05	84.26
566.21	25.75
566.38	88.94
566.54	114.69
566.70	88.94
566.87	14.04
567.03	35.11
567.19	88.94
567.36	187.24
567.52	107.66
567.68	16.38
567.85	58.51
568.01	51.49
568.17	117.03
568.34	114.69
568.50	74.90
568.66	117.03
568.83	135.75
568.99	51.49
569.15	95.96
569.32	128.73
569.48	39.79
569.64	84.26
569.81	56.17
569.97	100.64
570.13	91.28
570.30	28.09
570.46	149.79
570.62	95.96
570.78	65.54
570.95	65.54
571.11	74.90
571.27	110.01
571.43	49.15
571.60	102.98
571.76	58.51
571.92	102.98
572.09	60.85
572.25	70.22
572.41	98.30
572.57	81.92
572.74	163.84
572.90	98.30
573.06	58.51
573.22	63.19
573.38	126.39
573.55	14.04
573.71	102.98
573.87	46.81
574.03	30.43
574.20	133.41
574.36	21.06
574.52	30.43
574.68	53.83
574.84	93.62
575.01	39.79
575.17	25.75
575.33	30.43
575.49	67.88
575.65	79.58
575.82	74.90
575.98	49.15
576.14	91.28
576.30	163.84
576.46	0.00
576.62	58.51
576.79	88.94
576.95	81.92
577.11	147.45
577.27	32.77
577.43	58.51
577.59	147.45
577.75	67.88
577.92	56.17
578.08	93.62
578.24	23.41
578.40	88.94
578.56	60.85
578.72	79.58
578.88	88.94
579.04	147.45
579.21	67.88
579.37	110.01
579.53	112.35
579.69	84.26
579.85	74.90
580.01	95.96
580.17	142.77
580.33	138.09
580.49	49.15
580.65	79.58
580.82	135.75
580.98	49.15
581.14	46.81
581.30	91.28
581.46	91.28
581.62	126.39
581.78	79.58
581.94	23.41
582.10	79.58
582.26	53.83
582.42	16.38
582.58	32.77
582.74	86.60
582.90	58.51
583.06	93.62
583.22	67.88
583.38	95.96
583.54	46.81
583.70	142.77
583.86	88.94
584.02	126.39
584.18	42.13
584.34	124.05
584.50	91.28
584.66	88.94
584.82	63.19
584.98	65.54
585.14	100.64
585.30	42.13
585.46	77.24
585.62	112.35
585.78	98.30
585.94	88.94
586.10	16.38
586.26	46.81
586.42	196.60
586.58	88.94
586.74	105.32
586.90	30.43
587.06	53.83
587.22	114.69
587.38	102.98
587.54	107.66
587.70	77.24
587.86	56.17
588.02	140.43
588.18	65.54
588.34	70.22
588.49	42.13
588.65	49.15
588.81	70.22
588.97	2.34
589.13	11.70
589.29	77.24
589.45	35.11
589.61	86.60
589.77	152.13
589.93	37.45
590.08	44.47
590.24	84.26
590.40	91.28
590.56	147.45
590.72	107.66
590.88	98.30
591.04	91.28
591.20	100.64
591.35	131.07
591.51	39.79
591.67	138.09
591.83	51.49
591.99	121.71
592.15	102.98
592.31	110.01
592.46	93.62
592.62	100.64
592.78	60.85
592.94	102.98
593.10	102.98
593.26	58.51
593.41	95.96
593.57	60.85
593.73	74.90
593.89	72.56
594.05	23.41
594.20	81.92
594.36	77.24
594.52	95.96
594.68	65.54
594.84	93.62
594.99	51.49
595.15	37.45
595.31	88.94
595.47	102.98
595.62	63.19
595.78	100.64
595.94	74.90
596.10	58.51
596.25	126.39
596.41	95.96
596.57	28.09
596.73	91.28
596.88	21.06
597.04	74.90
597.20	112.35
597.36	60.85
597.51	63.19
597.67	138.09
597.83	32.77
597.99	107.66
598.14	79.58
598.30	138.09
598.46	65.54
598.61	79.58
598.77	32.77
598.93	128.73
599.09	25.75
599.24	58.51
599.40	70.22
599.56	79.58
599.71	70.22
599.87	126.39
600.03	121.71
600.18	58.51
600.34	39.79
600.50	4.68
600.65	88.94
600.81	79.58
600.97	70.22
601.12	84.26
601.28	100.64
601.44	112.35
601.59	65.54
601.75	67.88
601.91	79.58
602.06	138.09
602.22	46.81
602.37	112.35
602.53	23.41
602.69	102.98
602.84	81.92
603.00	51.49
603.16	28.09
603.31	91.28
603.47	74.90
603.62	65.54
603.78	161.50
603.94	77.24
604.09	42.13
604.25	86.60
604.40	142.77
604.56	100.64
604.71	44.47
604.87	110.01
605.03	56.17
605.18	88.94
605.34	98.30
605.49	14.04
605.65	49.15
605.80	63.19
605.96	77.24
606.12	110.01
606.27	53.83
606.43	91.28
606.58	86.60
606.74	9.36
606.89	35.11
607.05	0.00
607.20	53.83
607.36	25.75
607.51	84.26
607.67	110.01
607.82	65.54
607.98	7.02
608.13	51.49
608.29	4.68
608.44	72.56
608.60	81.92
608.75	110.01
608.91	91.28
609.06	93.62
609.22	35.11
609.37	114.69
609.53	0.00
609.68	86.60
609.84	42.13
609.99	60.85
610.15	56.17
610.30	114.69
610.46	53.83
610.61	121.71
610.76	91.28
610.92	95.96
611.07	74.90
611.23	110.01
611.38	91.28
611.54	37.45
611.69	51.49
611.84	0.00
612.00	124.05
612.15	44.47
612.31	30.43
612.46	114.69
612.62	93.62
612.77	44.47
612.92	100.64
613.08	37.45
613.23	74.90
613.39	63.19
613.54	100.64
613.69	93.62
613.85	67.88
614.00	65.54
614.15	53.83
614.31	74.90
614.46	126.39
614.62	70.22
614.77	60.85
614.92	42.13
615.08	0.00
615.23	49.15
615.38	42.13
615.54	42.13
615.69	72.56
615.84	53.83
616.00	42.13
616.15	138.09
616.30	51.49
616.46	14.04
616.61	14.04
616.76	63.19
616.92	9.36
617.07	77.24
617.22	51.49
617.37	67.88
617.53	32.77
617.68	44.47
617.83	42.13
617.99	58.51
618.14	58.51
618.29	42.13
618.45	37.45
618.60	105.32
618.75	51.49
618.90	84.26
619.06	23.41
619.21	88.94
619.36	93.62
619.51	51.49
619.67	119.37
619.82	72.56
619.97	86.60
620.12	74.90
620.28	84.26
620.43	102.98
620.58	35.11
620.73	67.88
620.89	119.37
621.04	60.85
621.19	42.13
621.34	74.90
621.49	79.58
621.65	51.49
621.80	133.41
621.95	74.90
622.10	32.77
622.25	86.60
622.41	63.19
622.56	81.92
622.71	93.62
622.86	126.39
623.01	16.38
623.16	37.45
623.32	28.09
623.47	53.83
623.62	28.09
623.77	72.56
623.92	51.49
624.07	46.81
624.23	58.51
624.38	30.43
624.53	86.60
624.68	133.41
624.83	58.51
624.98	14.04
625.13	98.30
625.29	145.11
625.44	39.79
625.59	44.47
625.74	88.94
625.89	81.92
626.04	117.03
626.19	0.00
626.34	25.75
626.49	70.22
626.65	102.98
626.80	44.47
626.95	44.47
627.10	77.24
627.25	37.45
627.40	74.90
627.55	79.58
627.70	46.81
627.85	37.45
628.00	58.51
628.15	72.56
628.30	70.22
628.45	65.54
628.60	0.00
628.76	42.13
628.91	0.00
629.06	70.22
629.21	88.94
629.36	117.03
629.51	11.70
629.66	53.83
629.81	81.92
629.96	53.83
630.11	39.79
630.26	84.26
630.41	63.19
630.56	74.90
630.71	79.58
630.86	126.39
631.01	77.24
631.16	60.85
631.31	49.15
631.46	79.58
631.61	0.00
631.76	60.85
631.91	14.04
632.06	58.51
632.21	138.09
632.36	102.98
632.51	30.43
632.66	18.72
632.81	79.58
632.96	81.92
633.10	56.17
633.25	63.19
633.40	65.54
633.55	60.85
633.70	72.56
633.85	112.35
634.00	74.90
634.15	60.85
634.30	23.41
634.45	79.58
634.60	67.88
634.75	60.85
634.90	84.26
635.05	84.26
635.19	91.28
635.34	42.13
635.49	16.38
635.64	70.22
635.79	95.96
635.94	30.43
636.09	53.83
636.24	56.17
636.39	79.58
636.53	0.00
636.68	0.00
636.83	58.51
636.98	42.13
637.13	105.32
637.28	67.88
637.43	81.92
637.57	91.28
637.72	37.45
637.87	107.66
638.02	0.00
638.17	140.43
638.32	51.49
638.46	49.15
638.61	91.28
638.76	110.01
638.91	77.24
639.06	65.54
639.20	102.98
639.35	135.75
639.50	0.00
639.65	121.71
639.80	60.85
639.94	0.00
640.09	23.41
640.24	11.70
640.39	2.34
640.54	32.77
640.68	100.64
640.83	77.24
640.98	53.83
641.13	32.77
641.27	91.28
641.42	14.04
641.57	23.41
641.72	86.60
641.86	112.35
642.01	44.47
642.16	60.85
642.31	114.69
642.45	16.38
642.60	35.11
642.75	65.54
642.90	32.77
643.04	53.83
643.19	74.90
643.34	9.36
643.48	44.47
643.63	93.62
643.78	91.28
643.93	67.88
644.07	14.04
644.22	67.88
644.37	37.45
644.51	28.09
644.66	51.49
644.81	51.49
644.95	100.64
645.10	93.62
645.25	28.09
645.39	32.77
645.54	67.88
645.69	37.45
645.83	84.26
645.98	4.68
646.13	44.47
646.27	56.17
646.42	112.35
646.57	46.81
646.71	138.09
646.86	0.00
647.00	79.58
647.15	42.13
647.30	86.60
647.44	42.13
647.59	70.22
647.74	14.04
647.88	51.49
648.03	51.49
648.17	9.36
648.32	46.81
648.47	37.45
648.61	79.58
648.76	35.11
648.90	44.47
649.05	49.15
649.20	37.45
649.34	9.36
649.49	51.49
649.63	18.72
649.78	16.38
649.92	93.62
650.07	88.94
650.21	30.43
650.36	107.66
650.51	53.83
650.65	0.00
650.80	81.92
650.94	30.43
651.09	25.75
651.23	18.72
651.38	72.56
651.52	32.77
651.67	107.66
651.81	95.96
651.96	63.19
652.10	135.75
652.25	121.71
652.39	102.98
652.54	39.79
652.68	35.11
652.83	42.13
652.97	37.45
653.12	51.49
653.26	72.56
653.41	65.54
653.55	105.32
653.70	84.26
653.84	16.38
653.99	95.96
654.13	81.92
654.27	65.54
654.42	37.45
654.56	18.72
654.71	39.79
654.85	51.49
655.00	81.92
655.14	49.15
655.29	0.00
655.43	60.85
655.57	18.72
655.72	112.35
655.86	65.54
656.01	0.00
656.15	39.79
656.30	4.68
656.44	28.09
656.58	65.54
656.73	25.75
656.87	23.41
657.01	42.13
657.16	35.11
657.30	81.92
657.45	21.06
657.59	0.00
657.73	23.41
657.88	65.54
658.02	49.15
658.16	51.49
658.31	39.79
658.45	91.28
658.60	25.75
658.74	65.54
658.88	70.22
659.03	42.13
659.17	39.79
659.31	86.60
659.46	58.51
659.60	0.00
659.74	44.47
659.89	44.47
660.03	49.15
660.17	30.43
660.32	60.85
660.46	37.45
660.60	70.22
660.74	25.75
660.89	72.56
661.03	42.13
661.17	98.30
661.32	105.32
661.46	100.64
661.60	39.79
661.74	11.70
661.89	0.00
662.03	0.00
662.17	44.47
662.31	28.09
662.46	84.26
662.60	102.98
662.74	86.60
662.88	107.66
663.03	110.01
663.17	86.60
663.31	65.54
663.45	4.68
663.60	0.00
663.74	0.00
663.88	67.88
664.02	107.66
664.17	42.13
664.31	32.77
664.45	2.34
664.59	138.09
664.73	0.00
664.88	65.54
665.02	77.24
665.16	67.88
665.30	81.92
665.44	98.30
665.59	58.51
665.73	60.85
665.87	44.47
666.01	49.15
666.15	21.06
666.29	53.83
666.44	98.30
666.58	58.51
666.72	102.98
666.86	65.54
667.00	46.81
667.14	0.00
667.28	44.47
667.43	51.49
667.57	35.11
667.71	56.17
667.85	53.83
667.99	23.41
668.13	23.41
668.27	110.01
668.41	39.79
668.56	28.09
668.70	0.00
668.84	91.28
668.98	79.58
669.12	30.43
669.26	56.17
669.40	7.02
669.54	28.09
669.68	18.72
669.82	23.41
669.96	46.81
670.10	67.88
670.25	119.37
670.39	53.83
670.53	9.36
670.67	119.37
670.81	65.54
670.95	117.03
671.09	16.38
671.23	60.85
671.37	65.54
671.51	7.02
671.65	18.72
671.79	4.68
671.93	0.00
672.07	0.00
672.21	53.83
672.35	35.11
672.49	14.04
672.63	140.43
672.77	9.36
672.91	49.15
673.05	39.79
673.19	0.00
673.33	46.81
673.47	112.35
673.61	126.39
673.75	7.02
673.89	0.00
674.03	11.70
674.17	88.94
674.31	93.62
674.45	4.68
674.59	86.60
674.73	60.85
674.87	14.04
675.01	114.69
675.15	0.00
675.29	25.75
675.43	100.64
675.56	77.24
675.70	53.83
675.84	51.49
675.98	84.26
676.12	79.58
676.26	51.49
676.40	114.69
676.54	74.90
676.68	21.06
676.82	60.85
676.96	135.75
677.10	81.92
677.23	4.68
677.37	49.15
677.51	18.72
677.65	98.30
677.79	74.90
677.93	28.09
678.07	79.58
678.21	2.34
678.34	98.30
678.48	46.81
678.62	0.00
678.76	67.88
678.90	0.00
679.04	0.00
679.18	9.36
679.31	100.64
679.45	32.77
679.59	74.90
679.73	121.71
679.87	46.81
680.00	67.88
680.14	21.06
680.28	44.47
680.42	72.56
680.56	79.58
680.70	72.56
680.83	72.56
680.97	0.00
681.11	23.41
681.25	16.38
681.39	39.79
681.52	44.47
681.66	42.13
681.80	7.02
681.94	65.54
682.07	30.43
682.21	67.88
682.35	28.09
682.49	0.00
682.62	42.13
682.76	21.06
682.90	60.85
683.04	81.92
683.17	86.60
683.31	117.03
683.45	28.09
683.59	2.34
683.72	0.00
683.86	30.43
684.00	56.17
684.13	63.19
684.27	53.83
684.41	131.07
684.55	35.11
684.68	98.30
684.82	67.88
684.96	70.22
685.09	11.70
685.23	49.15
685.37	39.79
685.50	81.92
685.64	0.00
685.78	93.62
685.91	25.75
686.05	0.00
686.19	0.00
686.32	93.62
686.46	51.49
686.60	9.36
686.73	21.06
686.87	16.38
687.01	63.19
687.14	0.00
687.28	42.13
687.42	18.72
687.55	30.43
687.69	110.01
687.82	51.49
687.96	65.54
688.10	91.28
688.23	37.45
688.37	0.00
688.50	0.00
688.64	30.43
688.78	0.00
688.91	0.00
689.05	44.47
689.18	119.37
689.32	53.83
689.46	0.00
689.59	0.00
689.73	93.62
689.86	0.00
690.00	28.09
690.13	63.19
690.27	51.49
690.41	131.07
690.54	81.92
690.68	51.49
690.81	0.00
690.95	14.04
691.08	53.83
691.22	30.43
691.35	79.58
691.49	0.00
691.62	32.77
691.76	156.82
691.89	95.96
692.03	0.00
692.16	37.45
692.30	60.85
692.43	0.00
692.57	79.58
692.70	0.00
692.84	0.00
692.97	0.00
693.11	0.00
693.24	42.13
693.38	53.83
693.51	32.77
693.65	81.92
693.78	65.54
693.92	0.00
694.05	0.00
694.19	44.47
694.32	11.70
694.45	0.00
694.59	0.00
694.72	67.88
694.86	14.04
694.99	70.22
695.13	51.49
695.26	9.36
695.39	46.81
695.53	81.92
695.66	35.11
695.80	65.54
695.93	51.49
696.07	23.41
696.20	7.02
696.33	46.81
696.47	0.00
696.60	51.49
696.73	105.32
696.87	60.85
697.00	4.68
697.14	42.13
697.27	91.28
697.40	107.66
697.54	53.83
697.67	9.36
697.80	11.70
697.94	14.04
698.07	58.51
698.21	0.00
698.34	77.24
698.47	11.70
698.61	4.68
698.74	42.13
698.87	81.92
699.01	46.81
699.14	39.79
699.27	88.94
699.40	58.51
699.54	23.41
699.67	0.00
699.80	77.24
699.94	0.00
700.07	7.02
700.20	28.09
700.34	0.00
700.47	14.04
700.60	0.00
700.73	72.56
700.87	32.77
701.00	53.83
701.13	0.00
701.26	39.79
701.40	60.85
701.53	81.92
701.66	0.00
701.79	49.15
701.93	21.06
702.06	7.02
702.19	63.19
702.32	9.36
702.46	30.43
702.59	67.88
702.72	60.85
702.85	0.00
702.99	11.70
703.12	37.45
703.25	117.03
703.38	21.06
703.51	7.02
703.65	37.45
703.78	39.79
703.91	42.13
704.04	65.54
704.17	51.49
704.31	79.58
704.44	7.02
704.57	35.11
704.70	79.58
704.83	16.38
704.96	23.41
705.10	30.43
705.23	0.00
>>>>>End Processed Spectral Data<<<<<
