SpectraSuite Data File
++++++++++++++++++++++++++++++++++++
Date: Fri Oct 04 12:13:25 GMT-05:00 2013
User: price-jones
Dark Spectrum Present: No
Reference Spectrum Present: No
Number of Sampled Component Spectra: 1
Spectrometers: USB2+H05261
Integration Time (usec): 10000 (USB2+H05261)
Spectra Averaged: 1 (USB2+H05261)
Boxcar Smoothing: 0 (USB2+H05261)
Correct for Electrical Dark: No (USB2+H05261)
Strobe/Lamp Enabled: No (USB2+H05261)
Correct for Detector Non-linearity: No (USB2+H05261)
Correct for Stray Light: No (USB2+H05261)
Number of Pixels in Processed Spectrum: 2048
>>>>>Begin Processed Spectral Data<<<<<
365.73	0.00
365.92	0.00
366.12	0.00
366.32	0.00
366.52	0.00
366.72	0.00
366.91	0.00
367.11	0.00
367.31	0.00
367.51	0.00
367.70	0.00
367.90	0.00
368.10	0.00
368.30	0.00
368.49	0.00
368.69	0.00
368.89	0.00
369.09	0.00
369.28	0.00
369.48	0.00
369.68	0.00
369.87	0.00
370.07	0.00
370.27	0.00
370.47	0.00
370.66	0.00
370.86	0.00
371.06	18.72
371.25	0.00
371.45	0.00
371.65	0.00
371.84	0.00
372.04	0.00
372.24	23.41
372.44	0.00
372.63	18.72
372.83	11.70
373.03	23.41
373.22	51.49
373.42	0.00
373.62	0.00
373.81	37.45
374.01	28.09
374.21	37.45
374.40	7.02
374.60	46.81
374.79	4.68
374.99	51.49
375.19	0.00
375.38	88.94
375.58	18.72
375.78	56.17
375.97	16.38
376.17	32.77
376.37	46.81
376.56	44.47
376.76	0.00
376.95	16.38
377.15	25.75
377.35	60.85
377.54	42.13
377.74	39.79
377.93	21.06
378.13	0.00
378.33	79.58
378.52	84.26
378.72	0.00
378.91	0.00
379.11	0.00
379.31	86.60
379.50	23.41
379.70	51.49
379.89	44.47
380.09	2.34
380.28	0.00
380.48	35.11
380.68	0.00
380.87	0.00
381.07	72.56
381.26	58.51
381.46	91.28
381.65	32.77
381.85	44.47
382.04	4.68
382.24	56.17
382.43	39.79
382.63	30.43
382.83	56.17
383.02	14.04
383.22	0.00
383.41	0.00
383.61	0.00
383.80	39.79
384.00	35.11
384.19	51.49
384.39	0.00
384.58	0.00
384.78	105.32
384.97	0.00
385.17	77.24
385.36	93.62
385.56	11.70
385.75	93.62
385.95	30.43
386.14	2.34
386.34	51.49
386.53	16.38
386.72	60.85
386.92	0.00
387.11	72.56
387.31	39.79
387.50	0.00
387.70	30.43
387.89	11.70
388.09	70.22
388.28	0.00
388.48	0.00
388.67	25.75
388.86	46.81
389.06	0.00
389.25	60.85
389.45	0.00
389.64	67.88
389.84	16.38
390.03	0.00
390.22	21.06
390.42	0.00
390.61	21.06
390.81	32.77
391.00	0.00
391.19	107.66
391.39	23.41
391.58	42.13
391.78	21.06
391.97	16.38
392.16	16.38
392.36	51.49
392.55	0.00
392.75	14.04
392.94	14.04
393.13	58.51
393.33	63.19
393.52	4.68
393.71	49.15
393.91	4.68
394.10	74.90
394.29	0.00
394.49	51.49
394.68	0.00
394.88	0.00
395.07	30.43
395.26	0.00
395.46	63.19
395.65	65.54
395.84	35.11
396.04	0.00
396.23	16.38
396.42	14.04
396.62	70.22
396.81	28.09
397.00	42.13
397.19	0.00
397.39	0.00
397.58	110.01
397.77	32.77
397.97	102.98
398.16	58.51
398.35	32.77
398.55	0.00
398.74	60.85
398.93	30.43
399.12	0.00
399.32	0.00
399.51	100.64
399.70	44.47
399.90	65.54
400.09	84.26
400.28	70.22
400.47	23.41
400.67	0.00
400.86	44.47
401.05	42.13
401.24	65.54
401.44	0.00
401.63	65.54
401.82	0.00
402.01	84.26
402.21	30.43
402.40	0.00
402.59	32.77
402.78	91.28
402.97	49.15
403.17	81.92
403.36	11.70
403.55	37.45
403.74	56.17
403.93	67.88
404.13	88.94
404.32	23.41
404.51	86.60
404.70	51.49
404.89	7.02
405.09	112.35
405.28	37.45
405.47	39.79
405.66	65.54
405.85	37.45
406.05	16.38
406.24	0.00
406.43	18.72
406.62	72.56
406.81	60.85
407.00	65.54
407.20	44.47
407.39	53.83
407.58	18.72
407.77	98.30
407.96	51.49
408.15	0.00
408.34	0.00
408.54	16.38
408.73	0.00
408.92	9.36
409.11	0.00
409.30	0.00
409.49	72.56
409.68	30.43
409.87	42.13
410.07	67.88
410.26	28.09
410.45	30.43
410.64	23.41
410.83	4.68
411.02	28.09
411.21	0.00
411.40	0.00
411.59	4.68
411.78	9.36
411.98	4.68
412.17	25.75
412.36	0.00
412.55	39.79
412.74	105.32
412.93	21.06
413.12	14.04
413.31	14.04
413.50	58.51
413.69	58.51
413.88	32.77
414.07	9.36
414.26	0.00
414.45	39.79
414.64	16.38
414.83	121.71
415.02	77.24
415.22	84.26
415.41	23.41
415.60	100.64
415.79	72.56
415.98	28.09
416.17	46.81
416.36	0.00
416.55	65.54
416.74	35.11
416.93	72.56
417.12	0.00
417.31	18.72
417.50	0.00
417.69	21.06
417.88	14.04
418.07	23.41
418.26	0.00
418.45	37.45
418.64	39.79
418.83	0.00
419.02	93.62
419.21	35.11
419.39	2.34
419.58	0.00
419.77	102.98
419.96	51.49
420.15	49.15
420.34	70.22
420.53	44.47
420.72	67.88
420.91	25.75
421.10	65.54
421.29	30.43
421.48	0.00
421.67	21.06
421.86	44.47
422.05	16.38
422.24	42.13
422.43	4.68
422.61	23.41
422.80	14.04
422.99	14.04
423.18	70.22
423.37	0.00
423.56	4.68
423.75	0.00
423.94	0.00
424.13	16.38
424.32	28.09
424.50	0.00
424.69	2.34
424.88	37.45
425.07	65.54
425.26	14.04
425.45	14.04
425.64	0.00
425.83	14.04
426.01	93.62
426.20	51.49
426.39	74.90
426.58	7.02
426.77	11.70
426.96	0.00
427.15	0.00
427.33	0.00
427.52	4.68
427.71	88.94
427.90	46.81
428.09	0.00
428.28	58.51
428.46	58.51
428.65	60.85
428.84	0.00
429.03	95.96
429.22	56.17
429.40	25.75
429.59	70.22
429.78	65.54
429.97	81.92
430.16	14.04
430.34	56.17
430.53	0.00
430.72	0.00
430.91	79.58
431.10	0.00
431.28	0.00
431.47	0.00
431.66	30.43
431.85	0.00
432.03	67.88
432.22	77.24
432.41	91.28
432.60	74.90
432.79	77.24
432.97	0.00
433.16	9.36
433.35	16.38
433.54	42.13
433.72	72.56
433.91	0.00
434.10	42.13
434.28	46.81
434.47	0.00
434.66	65.54
434.85	30.43
435.03	70.22
435.22	67.88
435.41	35.11
435.59	28.09
435.78	0.00
435.97	9.36
436.16	32.77
436.34	49.15
436.53	16.38
436.72	21.06
436.90	44.47
437.09	91.28
437.28	23.41
437.46	88.94
437.65	35.11
437.84	25.75
438.02	60.85
438.21	42.13
438.40	0.00
438.58	4.68
438.77	0.00
438.96	9.36
439.14	2.34
439.33	0.00
439.52	0.00
439.70	65.54
439.89	0.00
440.08	110.01
440.26	0.00
440.45	46.81
440.63	21.06
440.82	37.45
441.01	53.83
441.19	0.00
441.38	49.15
441.57	0.00
441.75	9.36
441.94	105.32
442.12	46.81
442.31	93.62
442.50	77.24
442.68	46.81
442.87	7.02
443.05	49.15
443.24	11.70
443.43	11.70
443.61	25.75
443.80	18.72
443.98	0.00
444.17	58.51
444.35	0.00
444.54	67.88
444.73	18.72
444.91	46.81
445.10	95.96
445.28	42.13
445.47	37.45
445.65	74.90
445.84	63.19
446.02	21.06
446.21	0.00
446.39	53.83
446.58	65.54
446.77	79.58
446.95	0.00
447.14	37.45
447.32	23.41
447.51	2.34
447.69	23.41
447.88	65.54
448.06	138.09
448.25	53.83
448.43	84.26
448.62	0.00
448.80	49.15
448.99	11.70
449.17	0.00
449.36	32.77
449.54	51.49
449.73	0.00
449.91	51.49
450.10	46.81
450.28	46.81
450.46	7.02
450.65	39.79
450.83	65.54
451.02	70.22
451.20	35.11
451.39	60.85
451.57	65.54
451.76	23.41
451.94	30.43
452.13	88.94
452.31	51.49
452.49	100.64
452.68	35.11
452.86	86.60
453.05	0.00
453.23	0.00
453.42	21.06
453.60	0.00
453.78	0.00
453.97	0.00
454.15	0.00
454.34	74.90
454.52	49.15
454.70	65.54
454.89	14.04
455.07	28.09
455.26	77.24
455.44	39.79
455.62	23.41
455.81	21.06
455.99	58.51
456.17	32.77
456.36	0.00
456.54	0.00
456.73	100.64
456.91	84.26
457.09	65.54
457.28	93.62
457.46	0.00
457.64	28.09
457.83	39.79
458.01	37.45
458.19	9.36
458.38	2.34
458.56	28.09
458.74	25.75
458.93	42.13
459.11	16.38
459.29	0.00
459.48	0.00
459.66	28.09
459.84	28.09
460.03	105.32
460.21	79.58
460.39	32.77
460.57	23.41
460.76	35.11
460.94	49.15
461.12	56.17
461.31	18.72
461.49	79.58
461.67	53.83
461.85	7.02
462.04	93.62
462.22	74.90
462.40	35.11
462.59	35.11
462.77	63.19
462.95	119.37
463.13	51.49
463.32	4.68
463.50	25.75
463.68	0.00
463.86	0.00
464.05	0.00
464.23	39.79
464.41	7.02
464.59	39.79
464.78	14.04
464.96	49.15
465.14	0.00
465.32	0.00
465.50	0.00
465.69	88.94
465.87	65.54
466.05	70.22
466.23	0.00
466.41	102.98
466.60	65.54
466.78	53.83
466.96	91.28
467.14	42.13
467.32	0.00
467.51	0.00
467.69	91.28
467.87	124.05
468.05	25.75
468.23	72.56
468.41	74.90
468.60	56.17
468.78	49.15
468.96	0.00
469.14	25.75
469.32	4.68
469.50	37.45
469.69	46.81
469.87	58.51
470.05	37.45
470.23	23.41
470.41	9.36
470.59	42.13
470.77	65.54
470.95	18.72
471.14	84.26
471.32	32.77
471.50	81.92
471.68	72.56
471.86	91.28
472.04	53.83
472.22	56.17
472.40	39.79
472.58	56.17
472.77	0.00
472.95	35.11
473.13	67.88
473.31	21.06
473.49	51.49
473.67	39.79
473.85	21.06
474.03	35.11
474.21	35.11
474.39	70.22
474.57	88.94
474.75	46.81
474.93	11.70
475.12	23.41
475.30	21.06
475.48	0.00
475.66	107.66
475.84	72.56
476.02	77.24
476.20	72.56
476.38	4.68
476.56	0.00
476.74	16.38
476.92	23.41
477.10	0.00
477.28	30.43
477.46	28.09
477.64	7.02
477.82	21.06
478.00	23.41
478.18	14.04
478.36	9.36
478.54	67.88
478.72	51.49
478.90	65.54
479.08	0.00
479.26	0.00
479.44	37.45
479.62	18.72
479.80	35.11
479.98	23.41
480.16	46.81
480.34	18.72
480.52	11.70
480.70	21.06
480.88	16.38
481.06	79.58
481.24	0.00
481.41	30.43
481.59	4.68
481.77	7.02
481.95	79.58
482.13	53.83
482.31	9.36
482.49	0.00
482.67	39.79
482.85	23.41
483.03	79.58
483.21	65.54
483.39	0.00
483.57	28.09
483.74	53.83
483.92	9.36
484.10	39.79
484.28	86.60
484.46	95.96
484.64	28.09
484.82	128.73
485.00	18.72
485.18	63.19
485.35	77.24
485.53	44.47
485.71	0.00
485.89	0.00
486.07	0.00
486.25	0.00
486.43	9.36
486.61	0.00
486.78	0.00
486.96	0.00
487.14	0.00
487.32	70.22
487.50	56.17
487.68	28.09
487.85	86.60
488.03	44.47
488.21	30.43
488.39	114.69
488.57	37.45
488.75	42.13
488.92	14.04
489.10	70.22
489.28	42.13
489.46	16.38
489.64	0.00
489.81	110.01
489.99	74.90
490.17	0.00
490.35	51.49
490.53	0.00
490.70	37.45
490.88	39.79
491.06	128.73
491.24	14.04
491.41	0.00
491.59	95.96
491.77	39.79
491.95	98.30
492.13	49.15
492.30	42.13
492.48	53.83
492.66	86.60
492.84	30.43
493.01	0.00
493.19	56.17
493.37	28.09
493.54	49.15
493.72	25.75
493.90	14.04
494.08	28.09
494.25	35.11
494.43	9.36
494.61	21.06
494.79	0.00
494.96	14.04
495.14	58.51
495.32	53.83
495.49	42.13
495.67	0.00
495.85	30.43
496.02	37.45
496.20	35.11
496.38	0.00
496.55	0.00
496.73	28.09
496.91	42.13
497.09	79.58
497.26	93.62
497.44	9.36
497.62	30.43
497.79	0.00
497.97	56.17
498.14	23.41
498.32	32.77
498.50	2.34
498.67	23.41
498.85	72.56
499.03	28.09
499.20	7.02
499.38	67.88
499.56	126.39
499.73	23.41
499.91	4.68
500.08	23.41
500.26	18.72
500.44	42.13
500.61	25.75
500.79	14.04
500.97	0.00
501.14	0.00
501.32	18.72
501.49	79.58
501.67	46.81
501.84	11.70
502.02	53.83
502.20	0.00
502.37	28.09
502.55	56.17
502.72	58.51
502.90	44.47
503.07	58.51
503.25	42.13
503.43	42.13
503.60	39.79
503.78	9.36
503.95	42.13
504.13	77.24
504.30	7.02
504.48	44.47
504.65	2.34
504.83	37.45
505.01	7.02
505.18	23.41
505.36	39.79
505.53	0.00
505.71	0.00
505.88	72.56
506.06	39.79
506.23	0.00
506.41	0.00
506.58	51.49
506.76	53.83
506.93	49.15
507.11	67.88
507.28	18.72
507.46	14.04
507.63	107.66
507.81	32.77
507.98	46.81
508.16	60.85
508.33	30.43
508.50	28.09
508.68	63.19
508.85	32.77
509.03	4.68
509.20	46.81
509.38	0.00
509.55	39.79
509.73	44.47
509.90	25.75
510.08	102.98
510.25	51.49
510.42	81.92
510.60	28.09
510.77	51.49
510.95	16.38
511.12	60.85
511.30	86.60
511.47	119.37
511.64	49.15
511.82	25.75
511.99	88.94
512.17	46.81
512.34	18.72
512.51	46.81
512.69	46.81
512.86	74.90
513.04	0.00
513.21	58.51
513.38	28.09
513.56	28.09
513.73	37.45
513.90	42.13
514.08	72.56
514.25	0.00
514.43	42.13
514.60	53.83
514.77	70.22
514.95	63.19
515.12	28.09
515.29	56.17
515.47	23.41
515.64	0.00
515.81	32.77
515.99	49.15
516.16	30.43
516.33	35.11
516.51	16.38
516.68	0.00
516.85	56.17
517.03	0.00
517.20	0.00
517.37	42.13
517.54	46.81
517.72	9.36
517.89	42.13
518.06	74.90
518.24	117.03
518.41	0.00
518.58	32.77
518.75	56.17
518.93	42.13
519.10	0.00
519.27	37.45
519.45	88.94
519.62	93.62
519.79	14.04
519.96	28.09
520.14	16.38
520.31	140.43
520.48	16.38
520.65	63.19
520.83	28.09
521.00	63.19
521.17	7.02
521.34	14.04
521.52	2.34
521.69	0.00
521.86	42.13
522.03	60.85
522.20	0.00
522.38	16.38
522.55	88.94
522.72	44.47
522.89	63.19
523.07	2.34
523.24	72.56
523.41	86.60
523.58	0.00
523.75	0.00
523.92	53.83
524.10	63.19
524.27	14.04
524.44	0.00
524.61	9.36
524.78	37.45
524.96	44.47
525.13	70.22
525.30	18.72
525.47	32.77
525.64	7.02
525.81	51.49
525.98	44.47
526.16	95.96
526.33	21.06
526.50	42.13
526.67	0.00
526.84	9.36
527.01	58.51
527.18	86.60
527.36	16.38
527.53	23.41
527.70	77.24
527.87	9.36
528.04	0.00
528.21	49.15
528.38	44.47
528.55	32.77
528.72	58.51
528.89	0.00
529.07	79.58
529.24	32.77
529.41	21.06
529.58	16.38
529.75	35.11
529.92	23.41
530.09	58.51
530.26	14.04
530.43	51.49
530.60	56.17
530.77	0.00
530.94	0.00
531.11	65.54
531.28	0.00
531.46	18.72
531.63	63.19
531.80	79.58
531.97	37.45
532.14	58.51
532.31	44.47
532.48	110.01
532.65	51.49
532.82	44.47
532.99	21.06
533.16	70.22
533.33	0.00
533.50	0.00
533.67	56.17
533.84	49.15
534.01	35.11
534.18	49.15
534.35	18.72
534.52	23.41
534.69	60.85
534.86	9.36
535.03	11.70
535.20	58.51
535.37	30.43
535.54	0.00
535.71	98.30
535.88	11.70
536.05	65.54
536.22	18.72
536.38	58.51
536.55	56.17
536.72	60.85
536.89	70.22
537.06	63.19
537.23	0.00
537.40	46.81
537.57	32.77
537.74	81.92
537.91	67.88
538.08	63.19
538.25	39.79
538.42	21.06
538.59	91.28
538.75	58.51
538.92	42.13
539.09	53.83
539.26	21.06
539.43	100.64
539.60	67.88
539.77	105.32
539.94	70.22
540.11	114.69
540.28	102.98
540.44	100.64
540.61	98.30
540.78	0.00
540.95	37.45
541.12	51.49
541.29	21.06
541.46	49.15
541.62	0.00
541.79	28.09
541.96	35.11
542.13	77.24
542.30	0.00
542.47	21.06
542.63	2.34
542.80	23.41
542.97	79.58
543.14	25.75
543.31	65.54
543.48	30.43
543.64	32.77
543.81	35.11
543.98	58.51
544.15	58.51
544.32	7.02
544.48	51.49
544.65	32.77
544.82	88.94
544.99	56.17
545.16	14.04
545.32	142.77
545.49	65.54
545.66	28.09
545.83	93.62
546.00	0.00
546.16	0.00
546.33	39.79
546.50	25.75
546.67	81.92
546.83	77.24
547.00	102.98
547.17	18.72
547.34	0.00
547.50	53.83
547.67	46.81
547.84	56.17
548.00	56.17
548.17	46.81
548.34	95.96
548.51	23.41
548.67	4.68
548.84	0.00
549.01	28.09
549.18	39.79
549.34	0.00
549.51	30.43
549.68	46.81
549.84	102.98
550.01	0.00
550.18	30.43
550.34	0.00
550.51	0.00
550.68	77.24
550.84	0.00
551.01	56.17
551.18	39.79
551.34	0.00
551.51	0.00
551.68	28.09
551.84	63.19
552.01	7.02
552.18	0.00
552.34	18.72
552.51	56.17
552.68	11.70
552.84	124.05
553.01	98.30
553.18	9.36
553.34	65.54
553.51	23.41
553.67	32.77
553.84	0.00
554.01	53.83
554.17	4.68
554.34	51.49
554.51	67.88
554.67	30.43
554.84	0.00
555.00	49.15
555.17	35.11
555.33	79.58
555.50	32.77
555.67	28.09
555.83	44.47
556.00	23.41
556.16	39.79
556.33	37.45
556.50	30.43
556.66	67.88
556.83	0.00
556.99	0.00
557.16	0.00
557.32	70.22
557.49	21.06
557.65	42.13
557.82	93.62
557.98	46.81
558.15	11.70
558.32	53.83
558.48	0.00
558.65	0.00
558.81	16.38
558.98	37.45
559.14	77.24
559.31	7.02
559.47	32.77
559.64	95.96
559.80	0.00
559.97	0.00
560.13	0.00
560.30	0.00
560.46	53.83
560.63	70.22
560.79	16.38
560.96	58.51
561.12	77.24
561.29	107.66
561.45	0.00
561.61	63.19
561.78	37.45
561.94	0.00
562.11	0.00
562.27	21.06
562.44	37.45
562.60	51.49
562.77	44.47
562.93	14.04
563.10	53.83
563.26	0.00
563.42	49.15
563.59	63.19
563.75	0.00
563.92	88.94
564.08	42.13
564.24	21.06
564.41	79.58
564.57	72.56
564.74	147.45
564.90	0.00
565.07	30.43
565.23	65.54
565.39	0.00
565.56	79.58
565.72	9.36
565.88	30.43
566.05	65.54
566.21	9.36
566.38	56.17
566.54	0.00
566.70	16.38
566.87	70.22
567.03	0.00
567.19	46.81
567.36	46.81
567.52	63.19
567.68	84.26
567.85	49.15
568.01	23.41
568.17	32.77
568.34	0.00
568.50	37.45
568.66	102.98
568.83	0.00
568.99	44.47
569.15	37.45
569.32	81.92
569.48	21.06
569.64	11.70
569.81	44.47
569.97	56.17
570.13	42.13
570.30	0.00
570.46	88.94
570.62	21.06
570.78	37.45
570.95	42.13
571.11	56.17
571.27	18.72
571.43	28.09
571.60	16.38
571.76	11.70
571.92	58.51
572.09	84.26
572.25	100.64
572.41	21.06
572.57	25.75
572.74	23.41
572.90	0.00
573.06	0.00
573.22	16.38
573.38	25.75
573.55	21.06
573.71	100.64
573.87	0.00
574.03	0.00
574.20	9.36
574.36	0.00
574.52	30.43
574.68	70.22
574.84	72.56
575.01	44.47
575.17	119.37
575.33	44.47
575.49	58.51
575.65	35.11
575.82	0.00
575.98	56.17
576.14	51.49
576.30	91.28
576.46	98.30
576.62	112.35
576.79	53.83
576.95	0.00
577.11	0.00
577.27	0.00
577.43	0.00
577.59	95.96
577.75	28.09
577.92	16.38
578.08	0.00
578.24	7.02
578.40	63.19
578.56	51.49
578.72	91.28
578.88	67.88
579.04	84.26
579.21	9.36
579.37	56.17
579.53	23.41
579.69	81.92
579.85	35.11
580.01	23.41
580.17	60.85
580.33	117.03
580.49	25.75
580.65	100.64
580.82	0.00
580.98	110.01
581.14	21.06
581.30	100.64
581.46	65.54
581.62	67.88
581.78	102.98
581.94	46.81
582.10	0.00
582.26	42.13
582.42	65.54
582.58	32.77
582.74	147.45
582.90	30.43
583.06	74.90
583.22	0.00
583.38	51.49
583.54	42.13
583.70	28.09
583.86	53.83
584.02	37.45
584.18	14.04
584.34	0.00
584.50	182.56
584.66	851.96
584.82	2064.35
584.98	2981.84
585.14	2626.08
585.30	1696.89
585.46	1004.09
585.62	629.60
585.78	332.36
585.94	117.03
586.10	93.62
586.26	77.24
586.42	58.51
586.58	18.72
586.74	30.43
586.90	46.81
587.06	81.92
587.22	95.96
587.38	84.26
587.54	102.98
587.70	189.58
587.86	175.54
588.02	203.63
588.18	222.35
588.34	170.86
588.49	74.90
588.65	112.35
588.81	0.00
588.97	42.13
589.13	23.41
589.29	4.68
589.45	81.92
589.61	30.43
589.77	102.98
589.93	7.02
590.08	49.15
590.24	18.72
590.40	35.11
590.56	79.58
590.72	28.09
590.88	63.19
591.04	77.24
591.20	114.69
591.35	98.30
591.51	79.58
591.67	56.17
591.83	91.28
591.99	44.47
592.15	98.30
592.31	46.81
592.46	0.00
592.62	0.00
592.78	4.68
592.94	35.11
593.10	63.19
593.26	65.54
593.41	88.94
593.57	51.49
593.73	0.00
593.89	58.51
594.05	301.93
594.20	320.65
594.36	362.78
594.52	273.84
594.68	203.63
594.84	117.03
594.99	102.98
595.15	79.58
595.31	105.32
595.47	105.32
595.62	14.04
595.78	14.04
595.94	0.00
596.10	18.72
596.25	67.88
596.41	49.15
596.57	23.41
596.73	58.51
596.88	37.45
597.04	39.79
597.20	102.98
597.36	168.52
597.51	138.09
597.67	39.79
597.83	105.32
597.99	37.45
598.14	0.00
598.30	32.77
598.46	105.32
598.61	63.19
598.77	70.22
598.93	14.04
599.09	9.36
599.24	9.36
599.40	72.56
599.56	0.00
599.71	18.72
599.87	56.17
600.03	0.00
600.18	42.13
600.34	60.85
600.50	37.45
600.65	14.04
600.81	7.02
600.97	67.88
601.12	95.96
601.28	2.34
601.44	119.37
601.59	0.00
601.75	14.04
601.91	65.54
602.06	21.06
602.22	18.72
602.37	39.79
602.53	58.51
602.69	121.71
602.84	140.43
603.00	105.32
603.16	70.22
603.31	105.32
603.47	25.75
603.62	58.51
603.78	37.45
603.94	0.00
604.09	58.51
604.25	70.22
604.40	114.69
604.56	102.98
604.71	56.17
604.87	60.85
605.03	0.00
605.18	39.79
605.34	77.24
605.49	23.41
605.65	14.04
605.80	0.00
605.96	51.49
606.12	42.13
606.27	91.28
606.43	91.28
606.58	102.98
606.74	110.01
606.89	140.43
607.05	250.44
607.20	360.44
607.36	280.86
607.51	292.57
607.67	112.35
607.82	72.56
607.98	84.26
608.13	72.56
608.29	46.81
608.44	53.83
608.60	16.38
608.75	51.49
608.91	58.51
609.06	208.31
609.22	418.96
609.37	594.50
609.53	498.53
609.68	318.31
609.84	262.14
609.99	145.11
610.15	98.30
610.30	42.13
610.46	16.38
610.61	72.56
610.76	25.75
610.92	42.13
611.07	79.58
611.23	49.15
611.38	0.00
611.54	7.02
611.69	0.00
611.84	32.77
612.00	51.49
612.15	84.26
612.31	11.70
612.46	65.54
612.62	7.02
612.77	63.19
612.92	37.45
613.08	44.47
613.23	81.92
613.39	70.22
613.54	102.98
613.69	203.63
613.85	521.94
614.00	807.48
614.15	931.53
614.31	638.97
614.46	463.43
614.62	346.40
614.77	177.88
614.92	65.54
615.08	60.85
615.23	0.00
615.38	28.09
615.54	0.00
615.69	0.00
615.84	98.30
616.00	264.48
616.15	257.46
616.30	224.69
616.46	208.31
616.61	117.03
616.76	28.09
616.92	58.51
617.07	60.85
617.22	44.47
617.37	74.90
617.53	77.24
617.68	37.45
617.83	0.00
617.99	39.79
618.14	0.00
618.29	23.41
618.45	70.22
618.60	46.81
618.75	30.43
618.90	28.09
619.06	21.06
619.21	0.00
619.36	93.62
619.51	0.00
619.67	105.32
619.82	9.36
619.97	0.00
620.12	93.62
620.28	53.83
620.43	2.34
620.58	117.03
620.73	77.24
620.89	65.54
621.04	56.17
621.19	131.07
621.34	140.43
621.49	189.58
621.65	191.92
621.80	145.11
621.95	60.85
622.10	23.41
622.25	93.62
622.41	0.00
622.56	0.00
622.71	0.00
622.86	49.15
623.01	30.43
623.16	53.83
623.32	23.41
623.47	67.88
623.62	49.15
623.77	35.11
623.92	0.00
624.07	58.51
624.23	88.94
624.38	67.88
624.53	11.70
624.68	67.88
624.83	67.88
624.98	23.41
625.13	58.51
625.29	0.00
625.44	53.83
625.59	93.62
625.74	28.09
625.89	86.60
626.04	93.62
626.19	269.16
626.34	451.72
626.49	479.81
626.65	341.72
626.80	243.42
626.95	191.92
627.10	152.13
627.25	0.00
627.40	74.90
627.55	11.70
627.70	79.58
627.85	42.13
628.00	2.34
628.15	79.58
628.30	77.24
628.45	0.00
628.60	58.51
628.76	35.11
628.91	0.00
629.06	39.79
629.21	93.62
629.36	21.06
629.51	35.11
629.66	74.90
629.81	0.00
629.96	100.64
630.11	121.71
630.26	156.82
630.41	84.26
630.56	81.92
630.71	72.56
630.86	117.03
631.01	81.92
631.16	105.32
631.31	0.00
631.46	72.56
631.61	84.26
631.76	21.06
631.91	77.24
632.06	98.30
632.21	63.19
632.36	35.11
632.51	37.45
632.66	32.77
632.81	154.48
632.96	196.60
633.10	241.08
633.25	383.85
633.40	234.05
633.55	241.08
633.70	205.97
633.85	117.03
634.00	46.81
634.15	46.81
634.30	81.92
634.45	35.11
634.60	60.85
634.75	35.11
634.90	39.79
635.05	42.13
635.19	56.17
635.34	42.13
635.49	105.32
635.64	39.79
635.79	49.15
635.94	32.77
636.09	11.70
636.24	72.56
636.39	60.85
636.53	56.17
636.68	86.60
636.83	18.72
636.98	91.28
637.13	28.09
637.28	16.38
637.43	46.81
637.57	0.00
637.72	58.51
637.87	266.82
638.02	566.41
638.17	617.90
638.32	458.74
638.46	372.15
638.61	259.80
638.76	168.52
638.91	117.03
639.06	42.13
639.20	84.26
639.35	70.22
639.50	23.41
639.65	154.48
639.80	482.15
639.94	791.10
640.09	980.68
640.24	723.23
640.39	580.45
640.54	400.23
640.68	241.08
640.83	58.51
640.98	98.30
641.13	86.60
641.27	60.85
641.42	74.90
641.57	32.77
641.72	102.98
641.86	0.00
642.01	0.00
642.16	88.94
642.31	79.58
642.45	0.00
642.60	16.38
642.75	67.88
642.90	42.13
643.04	18.72
643.19	114.69
643.34	35.11
643.48	135.75
643.63	9.36
643.78	9.36
643.93	21.06
644.07	67.88
644.22	0.00
644.37	56.17
644.51	91.28
644.66	44.47
644.81	30.43
644.95	84.26
645.10	0.00
645.25	0.00
645.39	58.51
645.54	39.79
645.69	18.72
645.83	9.36
645.98	23.41
646.13	102.98
646.27	35.11
646.42	86.60
646.57	56.17
646.71	30.43
646.86	0.00
647.00	23.41
647.15	63.19
647.30	84.26
647.44	39.79
647.59	0.00
647.74	42.13
647.88	0.00
648.03	39.79
648.17	56.17
648.32	42.13
648.47	51.49
648.61	35.11
648.76	0.00
648.90	18.72
649.05	28.09
649.20	58.51
649.34	63.19
649.49	37.45
649.63	49.15
649.78	0.00
649.92	72.56
650.07	110.01
650.21	220.01
650.36	428.32
650.51	524.28
650.65	442.36
650.80	294.91
650.94	198.95
651.09	138.09
651.23	88.94
651.38	74.90
651.52	23.41
651.67	0.00
651.81	18.72
651.96	81.92
652.10	18.72
652.25	4.68
652.39	77.24
652.54	49.15
652.68	35.11
652.83	131.07
652.97	198.95
653.12	266.82
653.26	152.13
653.41	107.66
653.55	124.05
653.70	119.37
653.84	0.00
653.99	67.88
654.13	46.81
654.27	37.45
654.42	0.00
654.56	49.15
654.71	32.77
654.85	39.79
655.00	25.75
655.14	37.45
655.29	21.06
655.43	0.00
655.57	16.38
655.72	46.81
655.86	32.77
656.01	74.90
656.15	18.72
656.30	9.36
656.44	44.47
656.58	53.83
656.73	9.36
656.87	32.77
657.01	49.15
657.16	9.36
657.30	37.45
657.45	32.77
657.59	18.72
657.73	46.81
657.88	79.58
658.02	70.22
658.16	18.72
658.31	74.90
658.45	46.81
658.60	39.79
658.74	9.36
658.88	0.00
659.03	37.45
659.17	102.98
659.31	37.45
659.46	128.73
659.60	205.97
659.74	203.63
659.89	245.76
660.03	177.88
660.17	114.69
660.32	110.01
660.46	23.41
660.60	77.24
660.74	28.09
660.89	0.00
661.03	42.13
661.17	4.68
661.32	95.96
661.46	23.41
661.60	0.00
661.74	88.94
661.89	67.88
662.03	0.00
662.17	0.00
662.31	49.15
662.46	84.26
662.60	28.09
662.74	44.47
662.88	42.13
663.03	21.06
663.17	91.28
663.31	42.13
663.45	49.15
663.60	18.72
663.74	88.94
663.88	0.00
664.02	28.09
664.17	63.19
664.31	42.13
664.45	0.00
664.59	16.38
664.73	7.02
664.88	102.98
665.02	0.00
665.16	7.02
665.30	112.35
665.44	14.04
665.59	79.58
665.73	4.68
665.87	14.04
666.01	23.41
666.15	11.70
666.29	70.22
666.44	0.00
666.58	46.81
666.72	0.00
666.86	16.38
667.00	112.35
667.14	42.13
667.28	65.54
667.43	220.01
667.57	327.68
667.71	339.38
667.85	388.53
667.99	311.29
668.13	114.69
668.27	133.41
668.41	124.05
668.56	56.17
668.70	65.54
668.84	117.03
668.98	32.77
669.12	0.00
669.26	60.85
669.40	88.94
669.54	58.51
669.68	14.04
669.82	0.00
669.96	23.41
670.10	65.54
670.25	23.41
670.39	100.64
670.53	39.79
670.67	14.04
670.81	74.90
670.95	42.13
671.09	11.70
671.23	70.22
671.37	203.63
671.51	234.05
671.65	271.50
671.79	234.05
671.93	227.03
672.07	191.92
672.21	39.79
672.35	32.77
672.49	58.51
672.63	91.28
672.77	67.88
672.91	42.13
673.05	58.51
673.19	37.45
673.33	16.38
673.47	51.49
673.61	23.41
673.75	42.13
673.89	0.00
674.03	0.00
674.17	0.00
674.31	51.49
674.45	49.15
674.59	70.22
674.73	35.11
674.87	77.24
675.01	4.68
675.15	91.28
675.29	25.75
675.43	86.60
675.56	88.94
675.70	35.11
675.84	77.24
675.98	49.15
676.12	91.28
676.26	65.54
676.40	93.62
676.54	77.24
676.68	18.72
676.82	53.83
676.96	16.38
677.10	44.47
677.23	74.90
677.37	67.88
677.51	7.02
677.65	14.04
677.79	21.06
677.93	56.17
678.07	23.41
678.21	28.09
678.34	0.00
678.48	30.43
678.62	25.75
678.76	9.36
678.90	9.36
679.04	28.09
679.18	79.58
679.31	21.06
679.45	35.11
679.59	0.00
679.73	51.49
679.87	28.09
680.00	0.00
680.14	74.90
680.28	18.72
680.42	32.77
680.56	4.68
680.70	11.70
680.83	65.54
680.97	0.00
681.11	30.43
681.25	51.49
681.39	0.00
681.52	65.54
681.66	65.54
681.80	4.68
681.94	16.38
682.07	42.13
682.21	56.17
682.35	72.56
682.49	42.13
682.62	18.72
682.76	39.79
682.90	74.90
683.04	0.00
683.17	35.11
683.31	42.13
683.45	46.81
683.59	65.54
683.72	28.09
683.86	67.88
684.00	39.79
684.13	60.85
684.27	49.15
684.41	74.90
684.55	32.77
684.68	67.88
684.82	23.41
684.96	30.43
685.09	51.49
685.23	14.04
685.37	77.24
685.50	7.02
685.64	0.00
685.78	11.70
685.91	30.43
686.05	0.00
686.19	70.22
686.32	2.34
686.46	58.51
686.60	119.37
686.73	63.19
686.87	32.77
687.01	2.34
687.14	23.41
687.28	0.00
687.42	11.70
687.55	9.36
687.69	0.00
687.82	32.77
687.96	0.00
688.10	67.88
688.23	14.04
688.37	0.00
688.50	70.22
688.64	21.06
688.78	46.81
688.91	11.70
689.05	25.75
689.18	23.41
689.32	18.72
689.46	58.51
689.59	37.45
689.73	9.36
689.86	2.34
690.00	23.41
690.13	4.68
690.27	51.49
690.41	44.47
690.54	63.19
690.68	2.34
690.81	0.00
690.95	95.96
691.08	28.09
691.22	21.06
691.35	46.81
691.49	7.02
691.62	49.15
691.76	70.22
691.89	46.81
692.03	28.09
692.16	88.94
692.30	42.13
692.43	23.41
692.57	88.94
692.70	135.75
692.84	191.92
692.97	262.14
693.11	131.07
693.24	140.43
693.38	74.90
693.51	77.24
693.65	74.90
693.78	44.47
693.92	0.00
694.05	39.79
694.19	65.54
694.32	0.00
694.45	84.26
694.59	9.36
694.72	32.77
694.86	98.30
694.99	0.00
695.13	42.13
695.26	0.00
695.39	30.43
695.53	25.75
695.66	0.00
695.80	21.06
695.93	58.51
696.07	42.13
696.20	53.83
696.33	93.62
696.47	117.03
696.60	84.26
696.73	67.88
696.87	0.00
697.00	46.81
697.14	21.06
697.27	0.00
697.40	77.24
697.54	0.00
697.67	0.00
697.80	72.56
697.94	32.77
698.07	117.03
698.21	93.62
698.34	86.60
698.47	79.58
698.61	133.41
698.74	53.83
698.87	16.38
699.01	0.00
699.14	42.13
699.27	0.00
699.40	67.88
699.54	0.00
699.67	35.11
699.80	0.00
699.94	77.24
700.07	56.17
700.20	0.00
700.34	28.09
700.47	0.00
700.60	4.68
700.73	46.81
700.87	46.81
701.00	32.77
701.13	37.45
701.26	18.72
701.40	0.00
701.53	51.49
701.66	25.75
701.79	74.90
701.93	25.75
702.06	46.81
702.19	46.81
702.32	14.04
702.46	32.77
702.59	72.56
702.72	56.17
702.85	128.73
702.99	191.92
703.12	273.84
703.25	379.17
703.38	304.27
703.51	264.48
703.65	222.35
703.78	112.35
703.91	147.45
704.04	51.49
704.17	49.15
704.31	16.38
704.44	46.81
704.57	11.70
704.70	9.36
704.83	49.15
704.96	81.92
705.10	49.15
705.23	0.00
>>>>>End Processed Spectral Data<<<<<
