SpectraSuite Data File
++++++++++++++++++++++++++++++++++++
Date: Fri Oct 04 12:13:36 GMT-05:00 2013
User: price-jones
Dark Spectrum Present: No
Reference Spectrum Present: No
Number of Sampled Component Spectra: 1
Spectrometers: USB2+H05261
Integration Time (usec): 10000 (USB2+H05261)
Spectra Averaged: 1 (USB2+H05261)
Boxcar Smoothing: 0 (USB2+H05261)
Correct for Electrical Dark: No (USB2+H05261)
Strobe/Lamp Enabled: No (USB2+H05261)
Correct for Detector Non-linearity: No (USB2+H05261)
Correct for Stray Light: No (USB2+H05261)
Number of Pixels in Processed Spectrum: 2048
>>>>>Begin Processed Spectral Data<<<<<
365.73	0.00
365.92	0.00
366.12	0.00
366.32	0.00
366.52	0.00
366.72	0.00
366.91	0.00
367.11	0.00
367.31	0.00
367.51	0.00
367.70	0.00
367.90	0.00
368.10	0.00
368.30	0.00
368.49	0.00
368.69	0.00
368.89	0.00
369.09	0.00
369.28	0.00
369.48	0.00
369.68	0.00
369.87	0.00
370.07	0.00
370.27	0.00
370.47	0.00
370.66	0.00
370.86	0.00
371.06	25.75
371.25	39.79
371.45	0.00
371.65	0.00
371.84	56.17
372.04	84.26
372.24	0.00
372.44	0.00
372.63	0.00
372.83	0.00
373.03	21.06
373.22	2.34
373.42	0.00
373.62	60.85
373.81	2.34
374.01	0.00
374.21	51.49
374.40	2.34
374.60	65.54
374.79	16.38
374.99	128.73
375.19	105.32
375.38	35.11
375.58	25.75
375.78	32.77
375.97	74.90
376.17	28.09
376.37	30.43
376.56	0.00
376.76	30.43
376.95	37.45
377.15	37.45
377.35	51.49
377.54	9.36
377.74	0.00
377.93	0.00
378.13	91.28
378.33	0.00
378.52	0.00
378.72	0.00
378.91	0.00
379.11	11.70
379.31	67.88
379.50	44.47
379.70	0.00
379.89	98.30
380.09	100.64
380.28	0.00
380.48	4.68
380.68	2.34
380.87	0.00
381.07	21.06
381.26	49.15
381.46	72.56
381.65	42.13
381.85	4.68
382.04	46.81
382.24	44.47
382.43	11.70
382.63	35.11
382.83	0.00
383.02	37.45
383.22	0.00
383.41	9.36
383.61	0.00
383.80	0.00
384.00	14.04
384.19	44.47
384.39	21.06
384.58	0.00
384.78	4.68
384.97	44.47
385.17	4.68
385.36	63.19
385.56	35.11
385.75	58.51
385.95	0.00
386.14	39.79
386.34	0.00
386.53	0.00
386.72	44.47
386.92	0.00
387.11	0.00
387.31	23.41
387.50	0.00
387.70	0.00
387.89	72.56
388.09	35.11
388.28	7.02
388.48	2.34
388.67	11.70
388.86	23.41
389.06	49.15
389.25	30.43
389.45	60.85
389.64	72.56
389.84	14.04
390.03	4.68
390.22	65.54
390.42	58.51
390.61	0.00
390.81	23.41
391.00	0.00
391.19	58.51
391.39	72.56
391.58	84.26
391.78	0.00
391.97	0.00
392.16	28.09
392.36	60.85
392.55	46.81
392.75	0.00
392.94	42.13
393.13	32.77
393.33	23.41
393.52	58.51
393.71	56.17
393.91	35.11
394.10	86.60
394.29	51.49
394.49	74.90
394.68	7.02
394.88	51.49
395.07	16.38
395.26	53.83
395.46	18.72
395.65	16.38
395.84	23.41
396.04	14.04
396.23	51.49
396.42	30.43
396.62	9.36
396.81	0.00
397.00	7.02
397.19	18.72
397.39	0.00
397.58	30.43
397.77	18.72
397.97	4.68
398.16	37.45
398.35	0.00
398.55	74.90
398.74	60.85
398.93	107.66
399.12	11.70
399.32	0.00
399.51	88.94
399.70	39.79
399.90	0.00
400.09	9.36
400.28	0.00
400.47	51.49
400.67	84.26
400.86	63.19
401.05	14.04
401.24	0.00
401.44	0.00
401.63	51.49
401.82	11.70
402.01	60.85
402.21	42.13
402.40	0.00
402.59	100.64
402.78	0.00
402.97	56.17
403.17	0.00
403.36	72.56
403.55	51.49
403.74	39.79
403.93	4.68
404.13	49.15
404.32	58.51
404.51	81.92
404.70	42.13
404.89	79.58
405.09	32.77
405.28	98.30
405.47	58.51
405.66	18.72
405.85	70.22
406.05	0.00
406.24	35.11
406.43	37.45
406.62	4.68
406.81	23.41
407.00	37.45
407.20	51.49
407.39	28.09
407.58	0.00
407.77	93.62
407.96	49.15
408.15	18.72
408.34	11.70
408.54	35.11
408.73	11.70
408.92	74.90
409.11	63.19
409.30	39.79
409.49	84.26
409.68	67.88
409.87	14.04
410.07	14.04
410.26	39.79
410.45	44.47
410.64	0.00
410.83	25.75
411.02	0.00
411.21	0.00
411.40	46.81
411.59	0.00
411.78	51.49
411.98	39.79
412.17	25.75
412.36	0.00
412.55	21.06
412.74	39.79
412.93	46.81
413.12	77.24
413.31	7.02
413.50	0.00
413.69	11.70
413.88	14.04
414.07	91.28
414.26	72.56
414.45	63.19
414.64	25.75
414.83	51.49
415.02	0.00
415.22	56.17
415.41	95.96
415.60	58.51
415.79	32.77
415.98	7.02
416.17	93.62
416.36	88.94
416.55	98.30
416.74	11.70
416.93	79.58
417.12	119.37
417.31	0.00
417.50	0.00
417.69	67.88
417.88	9.36
418.07	88.94
418.26	65.54
418.45	63.19
418.64	37.45
418.83	32.77
419.02	70.22
419.21	23.41
419.39	70.22
419.58	88.94
419.77	21.06
419.96	21.06
420.15	105.32
420.34	0.00
420.53	25.75
420.72	0.00
420.91	0.00
421.10	42.13
421.29	0.00
421.48	93.62
421.67	86.60
421.86	77.24
422.05	86.60
422.24	42.13
422.43	86.60
422.61	9.36
422.80	23.41
422.99	16.38
423.18	121.71
423.37	0.00
423.56	39.79
423.75	53.83
423.94	142.77
424.13	65.54
424.32	70.22
424.50	93.62
424.69	25.75
424.88	65.54
425.07	25.75
425.26	25.75
425.45	79.58
425.64	23.41
425.83	14.04
426.01	35.11
426.20	2.34
426.39	0.00
426.58	18.72
426.77	70.22
426.96	30.43
427.15	32.77
427.33	18.72
427.52	39.79
427.71	0.00
427.90	79.58
428.09	93.62
428.28	63.19
428.46	67.88
428.65	93.62
428.84	28.09
429.03	63.19
429.22	7.02
429.40	18.72
429.59	56.17
429.78	77.24
429.97	23.41
430.16	44.47
430.34	95.96
430.53	107.66
430.72	35.11
430.91	11.70
431.10	60.85
431.28	14.04
431.47	53.83
431.66	35.11
431.85	0.00
432.03	107.66
432.22	32.77
432.41	7.02
432.60	16.38
432.79	86.60
432.97	51.49
433.16	39.79
433.35	67.88
433.54	0.00
433.72	77.24
433.91	0.00
434.10	88.94
434.28	37.45
434.47	30.43
434.66	0.00
434.85	74.90
435.03	23.41
435.22	112.35
435.41	65.54
435.59	126.39
435.78	46.81
435.97	7.02
436.16	86.60
436.34	7.02
436.53	37.45
436.72	0.00
436.90	70.22
437.09	100.64
437.28	7.02
437.46	56.17
437.65	121.71
437.84	56.17
438.02	98.30
438.21	67.88
438.40	30.43
438.58	9.36
438.77	0.00
438.96	7.02
439.14	135.75
439.33	98.30
439.52	0.00
439.70	39.79
439.89	53.83
440.08	0.00
440.26	4.68
440.45	37.45
440.63	39.79
440.82	51.49
441.01	14.04
441.19	0.00
441.38	74.90
441.57	70.22
441.75	65.54
441.94	46.81
442.12	58.51
442.31	86.60
442.50	30.43
442.68	14.04
442.87	9.36
443.05	65.54
443.24	46.81
443.43	16.38
443.61	81.92
443.80	100.64
443.98	4.68
444.17	51.49
444.35	30.43
444.54	91.28
444.73	51.49
444.91	39.79
445.10	46.81
445.28	95.96
445.47	0.00
445.65	18.72
445.84	23.41
446.02	7.02
446.21	98.30
446.39	14.04
446.58	81.92
446.77	91.28
446.95	25.75
447.14	56.17
447.32	58.51
447.51	37.45
447.69	81.92
447.88	0.00
448.06	56.17
448.25	63.19
448.43	63.19
448.62	88.94
448.80	63.19
448.99	30.43
449.17	84.26
449.36	16.38
449.54	30.43
449.73	65.54
449.91	9.36
450.10	0.00
450.28	58.51
450.46	39.79
450.65	0.00
450.83	58.51
451.02	37.45
451.20	124.05
451.39	102.98
451.57	0.00
451.76	72.56
451.94	81.92
452.13	23.41
452.31	32.77
452.49	35.11
452.68	79.58
452.86	46.81
453.05	30.43
453.23	67.88
453.42	74.90
453.60	39.79
453.78	86.60
453.97	93.62
454.15	49.15
454.34	53.83
454.52	81.92
454.70	42.13
454.89	21.06
455.07	81.92
455.26	91.28
455.44	93.62
455.62	0.00
455.81	25.75
455.99	74.90
456.17	63.19
456.36	25.75
456.54	100.64
456.73	18.72
456.91	18.72
457.09	7.02
457.28	37.45
457.46	98.30
457.64	114.69
457.83	60.85
458.01	93.62
458.19	88.94
458.38	84.26
458.56	95.96
458.74	58.51
458.93	65.54
459.11	23.41
459.29	49.15
459.48	0.00
459.66	79.58
459.84	21.06
460.03	44.47
460.21	93.62
460.39	51.49
460.57	91.28
460.76	74.90
460.94	4.68
461.12	4.68
461.31	107.66
461.49	91.28
461.67	65.54
461.85	105.32
462.04	39.79
462.22	72.56
462.40	4.68
462.59	114.69
462.77	67.88
462.95	35.11
463.13	53.83
463.32	79.58
463.50	14.04
463.68	37.45
463.86	65.54
464.05	53.83
464.23	4.68
464.41	42.13
464.59	98.30
464.78	9.36
464.96	28.09
465.14	32.77
465.32	74.90
465.50	133.41
465.69	46.81
465.87	58.51
466.05	88.94
466.23	161.50
466.41	67.88
466.60	84.26
466.78	98.30
466.96	16.38
467.14	102.98
467.32	0.00
467.51	86.60
467.69	58.51
467.87	39.79
468.05	49.15
468.23	126.39
468.41	30.43
468.60	0.00
468.78	0.00
468.96	95.96
469.14	35.11
469.32	28.09
469.50	60.85
469.69	84.26
469.87	23.41
470.05	14.04
470.23	102.98
470.41	98.30
470.59	65.54
470.77	117.03
470.95	53.83
471.14	11.70
471.32	35.11
471.50	86.60
471.68	21.06
471.86	0.00
472.04	65.54
472.22	25.75
472.40	30.43
472.58	7.02
472.77	7.02
472.95	95.96
473.13	23.41
473.31	51.49
473.49	25.75
473.67	46.81
473.85	60.85
474.03	0.00
474.21	112.35
474.39	110.01
474.57	0.00
474.75	49.15
474.93	18.72
475.12	91.28
475.30	100.64
475.48	14.04
475.66	60.85
475.84	91.28
476.02	44.47
476.20	79.58
476.38	63.19
476.56	9.36
476.74	56.17
476.92	49.15
477.10	67.88
477.28	77.24
477.46	70.22
477.64	93.62
477.82	102.98
478.00	9.36
478.18	112.35
478.36	28.09
478.54	32.77
478.72	25.75
478.90	117.03
479.08	58.51
479.26	110.01
479.44	46.81
479.62	35.11
479.80	121.71
479.98	100.64
480.16	58.51
480.34	91.28
480.52	39.79
480.70	49.15
480.88	46.81
481.06	35.11
481.24	9.36
481.41	51.49
481.59	102.98
481.77	81.92
481.95	105.32
482.13	110.01
482.31	58.51
482.49	79.58
482.67	32.77
482.85	42.13
483.03	79.58
483.21	95.96
483.39	7.02
483.57	58.51
483.74	91.28
483.92	0.00
484.10	11.70
484.28	53.83
484.46	42.13
484.64	65.54
484.82	23.41
485.00	23.41
485.18	72.56
485.35	30.43
485.53	140.43
485.71	84.26
485.89	74.90
486.07	53.83
486.25	16.38
486.43	110.01
486.61	95.96
486.78	102.98
486.96	32.77
487.14	100.64
487.32	67.88
487.50	84.26
487.68	14.04
487.85	56.17
488.03	60.85
488.21	53.83
488.39	39.79
488.57	60.85
488.75	0.00
488.92	131.07
489.10	74.90
489.28	58.51
489.46	67.88
489.64	133.41
489.81	53.83
489.99	53.83
490.17	65.54
490.35	70.22
490.53	28.09
490.70	91.28
490.88	44.47
491.06	95.96
491.24	56.17
491.41	140.43
491.59	84.26
491.77	74.90
491.95	124.05
492.13	102.98
492.30	79.58
492.48	65.54
492.66	35.11
492.84	102.98
493.01	170.86
493.19	105.32
493.37	32.77
493.54	44.47
493.72	72.56
493.90	16.38
494.08	30.43
494.25	154.48
494.43	42.13
494.61	56.17
494.79	25.75
494.96	117.03
495.14	121.71
495.32	25.75
495.49	88.94
495.67	95.96
495.85	133.41
496.02	77.24
496.20	56.17
496.38	14.04
496.55	100.64
496.73	18.72
496.91	114.69
497.09	65.54
497.26	107.66
497.44	112.35
497.62	23.41
497.79	105.32
497.97	81.92
498.14	93.62
498.32	53.83
498.50	63.19
498.67	44.47
498.85	93.62
499.03	30.43
499.20	86.60
499.38	74.90
499.56	70.22
499.73	14.04
499.91	86.60
500.08	56.17
500.26	58.51
500.44	149.79
500.61	175.54
500.79	42.13
500.97	46.81
501.14	121.71
501.32	67.88
501.49	65.54
501.67	0.00
501.84	70.22
502.02	112.35
502.20	53.83
502.37	32.77
502.55	79.58
502.72	114.69
502.90	63.19
503.07	79.58
503.25	7.02
503.43	100.64
503.60	51.49
503.78	9.36
503.95	79.58
504.13	84.26
504.30	100.64
504.48	102.98
504.65	117.03
504.83	74.90
505.01	86.60
505.18	79.58
505.36	58.51
505.53	105.32
505.71	51.49
505.88	98.30
506.06	28.09
506.23	42.13
506.41	60.85
506.58	98.30
506.76	98.30
506.93	46.81
507.11	133.41
507.28	182.56
507.46	88.94
507.63	93.62
507.81	117.03
507.98	152.13
508.16	124.05
508.33	79.58
508.50	56.17
508.68	95.96
508.85	131.07
509.03	110.01
509.20	51.49
509.38	79.58
509.55	46.81
509.73	98.30
509.90	145.11
510.08	74.90
510.25	74.90
510.42	95.96
510.60	84.26
510.77	156.82
510.95	28.09
511.12	65.54
511.30	51.49
511.47	81.92
511.64	74.90
511.82	70.22
511.99	70.22
512.17	98.30
512.34	39.79
512.51	30.43
512.69	91.28
512.86	114.69
513.04	91.28
513.21	126.39
513.38	56.17
513.56	93.62
513.73	152.13
513.90	51.49
514.08	105.32
514.25	88.94
514.43	152.13
514.60	84.26
514.77	63.19
514.95	46.81
515.12	93.62
515.29	56.17
515.47	23.41
515.64	119.37
515.81	93.62
515.99	117.03
516.16	53.83
516.33	95.96
516.51	133.41
516.68	37.45
516.85	110.01
517.03	56.17
517.20	124.05
517.37	60.85
517.54	95.96
517.72	86.60
517.89	32.77
518.06	79.58
518.24	84.26
518.41	119.37
518.58	84.26
518.75	107.66
518.93	110.01
519.10	65.54
519.27	114.69
519.45	72.56
519.62	79.58
519.79	88.94
519.96	28.09
520.14	63.19
520.31	91.28
520.48	81.92
520.65	79.58
520.83	98.30
521.00	112.35
521.17	114.69
521.34	98.30
521.52	51.49
521.69	107.66
521.86	42.13
522.03	88.94
522.20	42.13
522.38	23.41
522.55	147.45
522.72	72.56
522.89	93.62
523.07	98.30
523.24	14.04
523.41	77.24
523.58	135.75
523.75	60.85
523.92	53.83
524.10	60.85
524.27	84.26
524.44	86.60
524.61	25.75
524.78	25.75
524.96	128.73
525.13	32.77
525.30	180.22
525.47	53.83
525.64	105.32
525.81	46.81
525.98	93.62
526.16	74.90
526.33	58.51
526.50	79.58
526.67	60.85
526.84	67.88
527.01	105.32
527.18	110.01
527.36	51.49
527.53	117.03
527.70	63.19
527.87	91.28
528.04	77.24
528.21	56.17
528.38	58.51
528.55	98.30
528.72	135.75
528.89	177.88
529.07	56.17
529.24	39.79
529.41	138.09
529.58	133.41
529.75	105.32
529.92	175.54
530.09	112.35
530.26	58.51
530.43	51.49
530.60	60.85
530.77	79.58
530.94	32.77
531.11	140.43
531.28	16.38
531.46	65.54
531.63	49.15
531.80	16.38
531.97	117.03
532.14	44.47
532.31	67.88
532.48	65.54
532.65	0.00
532.82	86.60
532.99	95.96
533.16	0.00
533.33	65.54
533.50	84.26
533.67	44.47
533.84	100.64
534.01	102.98
534.18	163.84
534.35	119.37
534.52	72.56
534.69	74.90
534.86	102.98
535.03	81.92
535.20	114.69
535.37	63.19
535.54	100.64
535.71	114.69
535.88	65.54
536.05	37.45
536.22	70.22
536.38	131.07
536.55	32.77
536.72	32.77
536.89	56.17
537.06	42.13
537.23	110.01
537.40	77.24
537.57	37.45
537.74	114.69
537.91	93.62
538.08	117.03
538.25	110.01
538.42	28.09
538.59	147.45
538.75	117.03
538.92	98.30
539.09	56.17
539.26	0.00
539.43	86.60
539.60	105.32
539.77	2.34
539.94	65.54
540.11	0.00
540.28	67.88
540.44	60.85
540.61	49.15
540.78	37.45
540.95	105.32
541.12	121.71
541.29	93.62
541.46	140.43
541.62	77.24
541.79	51.49
541.96	56.17
542.13	102.98
542.30	140.43
542.47	30.43
542.63	81.92
542.80	77.24
542.97	121.71
543.14	128.73
543.31	117.03
543.48	65.54
543.64	102.98
543.81	102.98
543.98	56.17
544.15	77.24
544.32	147.45
544.48	98.30
544.65	124.05
544.82	14.04
544.99	42.13
545.16	56.17
545.32	65.54
545.49	217.67
545.66	42.13
545.83	126.39
546.00	105.32
546.16	102.98
546.33	112.35
546.50	74.90
546.67	107.66
546.83	11.70
547.00	39.79
547.17	107.66
547.34	63.19
547.50	49.15
547.67	9.36
547.84	63.19
548.00	107.66
548.17	86.60
548.34	102.98
548.51	72.56
548.67	88.94
548.84	42.13
549.01	14.04
549.18	93.62
549.34	65.54
549.51	37.45
549.68	110.01
549.84	105.32
550.01	30.43
550.18	93.62
550.34	74.90
550.51	60.85
550.68	72.56
550.84	98.30
551.01	93.62
551.18	126.39
551.34	84.26
551.51	21.06
551.68	135.75
551.84	63.19
552.01	72.56
552.18	70.22
552.34	18.72
552.51	35.11
552.68	114.69
552.84	124.05
553.01	7.02
553.18	79.58
553.34	58.51
553.51	51.49
553.67	105.32
553.84	79.58
554.01	147.45
554.17	37.45
554.34	65.54
554.51	117.03
554.67	117.03
554.84	91.28
555.00	86.60
555.17	119.37
555.33	117.03
555.50	72.56
555.67	95.96
555.83	98.30
556.00	117.03
556.16	142.77
556.33	58.51
556.50	152.13
556.66	28.09
556.83	30.43
556.99	51.49
557.16	105.32
557.32	23.41
557.49	51.49
557.65	60.85
557.82	110.01
557.98	65.54
558.15	25.75
558.32	18.72
558.48	72.56
558.65	65.54
558.81	163.84
558.98	114.69
559.14	84.26
559.31	35.11
559.47	63.19
559.64	86.60
559.80	156.82
559.97	133.41
560.13	98.30
560.30	79.58
560.46	30.43
560.63	35.11
560.79	63.19
560.96	81.92
561.12	18.72
561.29	58.51
561.45	72.56
561.61	49.15
561.78	79.58
561.94	95.96
562.11	142.77
562.27	110.01
562.44	121.71
562.60	51.49
562.77	67.88
562.93	51.49
563.10	135.75
563.26	105.32
563.42	18.72
563.59	128.73
563.75	77.24
563.92	110.01
564.08	145.11
564.24	32.77
564.41	86.60
564.57	98.30
564.74	131.07
564.90	105.32
565.07	70.22
565.23	58.51
565.39	124.05
565.56	42.13
565.72	53.83
565.88	46.81
566.05	16.38
566.21	58.51
566.38	133.41
566.54	74.90
566.70	65.54
566.87	28.09
567.03	117.03
567.19	70.22
567.36	74.90
567.52	142.77
567.68	51.49
567.85	70.22
568.01	23.41
568.17	84.26
568.34	74.90
568.50	7.02
568.66	51.49
568.83	23.41
568.99	86.60
569.15	102.98
569.32	117.03
569.48	117.03
569.64	18.72
569.81	53.83
569.97	93.62
570.13	156.82
570.30	149.79
570.46	72.56
570.62	81.92
570.78	145.11
570.95	0.00
571.11	107.66
571.27	46.81
571.43	161.50
571.60	107.66
571.76	110.01
571.92	56.17
572.09	77.24
572.25	65.54
572.41	60.85
572.57	84.26
572.74	135.75
572.90	100.64
573.06	37.45
573.22	91.28
573.38	65.54
573.55	67.88
573.71	35.11
573.87	4.68
574.03	72.56
574.20	65.54
574.36	145.11
574.52	18.72
574.68	126.39
574.84	110.01
575.01	42.13
575.17	79.58
575.33	91.28
575.49	46.81
575.65	53.83
575.82	112.35
575.98	56.17
576.14	14.04
576.30	79.58
576.46	91.28
576.62	72.56
576.79	100.64
576.95	65.54
577.11	70.22
577.27	88.94
577.43	42.13
577.59	74.90
577.75	79.58
577.92	91.28
578.08	39.79
578.24	105.32
578.40	110.01
578.56	81.92
578.72	37.45
578.88	0.00
579.04	21.06
579.21	114.69
579.37	84.26
579.53	140.43
579.69	72.56
579.85	74.90
580.01	93.62
580.17	51.49
580.33	70.22
580.49	79.58
580.65	126.39
580.82	100.64
580.98	72.56
581.14	58.51
581.30	147.45
581.46	46.81
581.62	77.24
581.78	121.71
581.94	56.17
582.10	32.77
582.26	67.88
582.42	117.03
582.58	119.37
582.74	65.54
582.90	53.83
583.06	28.09
583.22	79.58
583.38	88.94
583.54	107.66
583.70	114.69
583.86	79.58
584.02	126.39
584.18	37.45
584.34	88.94
584.50	60.85
584.66	49.15
584.82	105.32
584.98	46.81
585.14	0.00
585.30	119.37
585.46	88.94
585.62	86.60
585.78	18.72
585.94	58.51
586.10	39.79
586.26	11.70
586.42	63.19
586.58	21.06
586.74	93.62
586.90	37.45
587.06	63.19
587.22	60.85
587.38	56.17
587.54	4.68
587.70	74.90
587.86	110.01
588.02	114.69
588.18	88.94
588.34	67.88
588.49	65.54
588.65	65.54
588.81	53.83
588.97	35.11
589.13	53.83
589.29	0.00
589.45	70.22
589.61	131.07
589.77	56.17
589.93	102.98
590.08	121.71
590.24	21.06
590.40	67.88
590.56	0.00
590.72	98.30
590.88	35.11
591.04	28.09
591.20	93.62
591.35	98.30
591.51	98.30
591.67	46.81
591.83	21.06
591.99	60.85
592.15	30.43
592.31	88.94
592.46	58.51
592.62	77.24
592.78	9.36
592.94	58.51
593.10	72.56
593.26	93.62
593.41	105.32
593.57	58.51
593.73	91.28
593.89	65.54
594.05	88.94
594.20	98.30
594.36	56.17
594.52	0.00
594.68	21.06
594.84	81.92
594.99	0.00
595.15	0.00
595.31	2.34
595.47	91.28
595.62	58.51
595.78	142.77
595.94	65.54
596.10	100.64
596.25	35.11
596.41	37.45
596.57	44.47
596.73	51.49
596.88	25.75
597.04	105.32
597.20	65.54
597.36	42.13
597.51	46.81
597.67	81.92
597.83	95.96
597.99	131.07
598.14	63.19
598.30	88.94
598.46	93.62
598.61	35.11
598.77	121.71
598.93	4.68
599.09	53.83
599.24	65.54
599.40	112.35
599.56	74.90
599.71	9.36
599.87	25.75
600.03	39.79
600.18	67.88
600.34	149.79
600.50	58.51
600.65	98.30
600.81	32.77
600.97	84.26
601.12	163.84
601.28	91.28
601.44	91.28
601.59	79.58
601.75	77.24
601.91	39.79
602.06	65.54
602.22	105.32
602.37	58.51
602.53	98.30
602.69	84.26
602.84	58.51
603.00	88.94
603.16	32.77
603.31	86.60
603.47	114.69
603.62	81.92
603.78	117.03
603.94	74.90
604.09	88.94
604.25	63.19
604.40	93.62
604.56	58.51
604.71	28.09
604.87	0.00
605.03	56.17
605.18	95.96
605.34	95.96
605.49	93.62
605.65	14.04
605.80	67.88
605.96	35.11
606.12	95.96
606.27	95.96
606.43	53.83
606.58	119.37
606.74	107.66
606.89	65.54
607.05	42.13
607.20	84.26
607.36	21.06
607.51	77.24
607.67	177.88
607.82	18.72
607.98	105.32
608.13	46.81
608.29	81.92
608.44	131.07
608.60	4.68
608.75	156.82
608.91	25.75
609.06	2.34
609.22	16.38
609.37	84.26
609.53	133.41
609.68	77.24
609.84	18.72
609.99	53.83
610.15	16.38
610.30	95.96
610.46	74.90
610.61	131.07
610.76	49.15
610.92	70.22
611.07	72.56
611.23	56.17
611.38	49.15
611.54	70.22
611.69	65.54
611.84	88.94
612.00	86.60
612.15	11.70
612.31	121.71
612.46	58.51
612.62	74.90
612.77	74.90
612.92	21.06
613.08	42.13
613.23	65.54
613.39	93.62
613.54	63.19
613.69	84.26
613.85	74.90
614.00	18.72
614.15	30.43
614.31	53.83
614.46	49.15
614.62	86.60
614.77	14.04
614.92	72.56
615.08	177.88
615.23	51.49
615.38	35.11
615.54	72.56
615.69	60.85
615.84	51.49
616.00	39.79
616.15	25.75
616.30	9.36
616.46	98.30
616.61	86.60
616.76	105.32
616.92	60.85
617.07	37.45
617.22	100.64
617.37	37.45
617.53	0.00
617.68	53.83
617.83	86.60
617.99	28.09
618.14	46.81
618.29	60.85
618.45	102.98
618.60	107.66
618.75	91.28
618.90	35.11
619.06	23.41
619.21	126.39
619.36	67.88
619.51	91.28
619.67	4.68
619.82	11.70
619.97	60.85
620.12	93.62
620.28	107.66
620.43	49.15
620.58	23.41
620.73	37.45
620.89	95.96
621.04	65.54
621.19	39.79
621.34	9.36
621.49	65.54
621.65	18.72
621.80	77.24
621.95	67.88
622.10	44.47
622.25	0.00
622.41	91.28
622.56	131.07
622.71	84.26
622.86	58.51
623.01	95.96
623.16	56.17
623.32	117.03
623.47	114.69
623.62	46.81
623.77	88.94
623.92	102.98
624.07	72.56
624.23	79.58
624.38	119.37
624.53	25.75
624.68	23.41
624.83	102.98
624.98	44.47
625.13	35.11
625.29	79.58
625.44	84.26
625.59	51.49
625.74	77.24
625.89	77.24
626.04	25.75
626.19	42.13
626.34	23.41
626.49	56.17
626.65	23.41
626.80	91.28
626.95	107.66
627.10	86.60
627.25	9.36
627.40	39.79
627.55	88.94
627.70	79.58
627.85	63.19
628.00	9.36
628.15	63.19
628.30	86.60
628.45	65.54
628.60	21.06
628.76	0.00
628.91	67.88
629.06	86.60
629.21	58.51
629.36	56.17
629.51	121.71
629.66	77.24
629.81	35.11
629.96	63.19
630.11	56.17
630.26	56.17
630.41	95.96
630.56	79.58
630.71	70.22
630.86	95.96
631.01	0.00
631.16	9.36
631.31	35.11
631.46	51.49
631.61	49.15
631.76	67.88
631.91	18.72
632.06	51.49
632.21	35.11
632.36	88.94
632.51	147.45
632.66	25.75
632.81	84.26
632.96	105.32
633.10	14.04
633.25	95.96
633.40	65.54
633.55	126.39
633.70	35.11
633.85	79.58
634.00	84.26
634.15	63.19
634.30	100.64
634.45	84.26
634.60	86.60
634.75	46.81
634.90	9.36
635.05	67.88
635.19	117.03
635.34	35.11
635.49	39.79
635.64	112.35
635.79	56.17
635.94	112.35
636.09	135.75
636.24	53.83
636.39	0.00
636.53	11.70
636.68	44.47
636.83	56.17
636.98	79.58
637.13	46.81
637.28	81.92
637.43	79.58
637.57	0.00
637.72	28.09
637.87	67.88
638.02	95.96
638.17	32.77
638.32	110.01
638.46	25.75
638.61	72.56
638.76	77.24
638.91	79.58
639.06	63.19
639.20	37.45
639.35	42.13
639.50	14.04
639.65	74.90
639.80	63.19
639.94	2.34
640.09	88.94
640.24	93.62
640.39	42.13
640.54	124.05
640.68	7.02
640.83	72.56
640.98	79.58
641.13	60.85
641.27	63.19
641.42	88.94
641.57	0.00
641.72	21.06
641.86	81.92
642.01	42.13
642.16	35.11
642.31	100.64
642.45	119.37
642.60	65.54
642.75	18.72
642.90	93.62
643.04	51.49
643.19	102.98
643.34	56.17
643.48	25.75
643.63	77.24
643.78	30.43
643.93	126.39
644.07	30.43
644.22	70.22
644.37	4.68
644.51	91.28
644.66	65.54
644.81	18.72
644.95	30.43
645.10	32.77
645.25	46.81
645.39	60.85
645.54	28.09
645.69	102.98
645.83	0.00
645.98	91.28
646.13	102.98
646.27	77.24
646.42	84.26
646.57	51.49
646.71	72.56
646.86	102.98
647.00	35.11
647.15	42.13
647.30	51.49
647.44	46.81
647.59	2.34
647.74	65.54
647.88	131.07
648.03	58.51
648.17	77.24
648.32	0.00
648.47	46.81
648.61	2.34
648.76	100.64
648.90	44.47
649.05	107.66
649.20	46.81
649.34	100.64
649.49	133.41
649.63	11.70
649.78	93.62
649.92	28.09
650.07	77.24
650.21	11.70
650.36	11.70
650.51	58.51
650.65	91.28
650.80	46.81
650.94	67.88
651.09	187.24
651.23	44.47
651.38	2.34
651.52	65.54
651.67	35.11
651.81	77.24
651.96	112.35
652.10	56.17
652.25	110.01
652.39	117.03
652.54	70.22
652.68	56.17
652.83	51.49
652.97	91.28
653.12	0.00
653.26	88.94
653.41	117.03
653.55	58.51
653.70	0.00
653.84	4.68
653.99	86.60
654.13	84.26
654.27	46.81
654.42	30.43
654.56	35.11
654.71	39.79
654.85	91.28
655.00	100.64
655.14	110.01
655.29	74.90
655.43	77.24
655.57	70.22
655.72	86.60
655.86	128.73
656.01	67.88
656.15	74.90
656.30	84.26
656.44	93.62
656.58	23.41
656.73	53.83
656.87	9.36
657.01	0.00
657.16	51.49
657.30	74.90
657.45	110.01
657.59	49.15
657.73	119.37
657.88	28.09
658.02	67.88
658.16	72.56
658.31	98.30
658.45	77.24
658.60	60.85
658.74	35.11
658.88	74.90
659.03	0.00
659.17	30.43
659.31	77.24
659.46	58.51
659.60	74.90
659.74	105.32
659.89	2.34
660.03	58.51
660.17	53.83
660.32	0.00
660.46	133.41
660.60	72.56
660.74	49.15
660.89	0.00
661.03	53.83
661.17	28.09
661.32	2.34
661.46	35.11
661.60	46.81
661.74	37.45
661.89	100.64
662.03	91.28
662.17	65.54
662.31	138.09
662.46	0.00
662.60	16.38
662.74	58.51
662.88	32.77
663.03	110.01
663.17	65.54
663.31	51.49
663.45	91.28
663.60	56.17
663.74	79.58
663.88	23.41
664.02	28.09
664.17	60.85
664.31	0.00
664.45	0.00
664.59	0.00
664.73	0.00
664.88	39.79
665.02	74.90
665.16	63.19
665.30	102.98
665.44	32.77
665.59	86.60
665.73	46.81
665.87	93.62
666.01	72.56
666.15	74.90
666.29	77.24
666.44	60.85
666.58	81.92
666.72	39.79
666.86	0.00
667.00	9.36
667.14	60.85
667.28	37.45
667.43	63.19
667.57	67.88
667.71	88.94
667.85	30.43
667.99	37.45
668.13	88.94
668.27	51.49
668.41	63.19
668.56	46.81
668.70	37.45
668.84	119.37
668.98	79.58
669.12	65.54
669.26	67.88
669.40	100.64
669.54	86.60
669.68	35.11
669.82	37.45
669.96	112.35
670.10	0.00
670.25	32.77
670.39	11.70
670.53	77.24
670.67	126.39
670.81	25.75
670.95	84.26
671.09	0.00
671.23	46.81
671.37	46.81
671.51	110.01
671.65	30.43
671.79	18.72
671.93	74.90
672.07	46.81
672.21	44.47
672.35	88.94
672.49	84.26
672.63	98.30
672.77	63.19
672.91	30.43
673.05	11.70
673.19	49.15
673.33	100.64
673.47	37.45
673.61	79.58
673.75	60.85
673.89	30.43
674.03	74.90
674.17	93.62
674.31	58.51
674.45	0.00
674.59	49.15
674.73	0.00
674.87	56.17
675.01	28.09
675.15	0.00
675.29	58.51
675.43	30.43
675.56	65.54
675.70	30.43
675.84	114.69
675.98	60.85
676.12	35.11
676.26	88.94
676.40	107.66
676.54	58.51
676.68	0.00
676.82	39.79
676.96	88.94
677.10	42.13
677.23	28.09
677.37	79.58
677.51	91.28
677.65	84.26
677.79	44.47
677.93	11.70
678.07	0.00
678.21	117.03
678.34	42.13
678.48	86.60
678.62	72.56
678.76	98.30
678.90	21.06
679.04	112.35
679.18	63.19
679.31	25.75
679.45	56.17
679.59	0.00
679.73	42.13
679.87	35.11
680.00	37.45
680.14	30.43
680.28	86.60
680.42	2.34
680.56	21.06
680.70	74.90
680.83	124.05
680.97	35.11
681.11	65.54
681.25	51.49
681.39	28.09
681.52	0.00
681.66	9.36
681.80	39.79
681.94	35.11
682.07	63.19
682.21	0.00
682.35	98.30
682.49	60.85
682.62	84.26
682.76	28.09
682.90	112.35
683.04	42.13
683.17	63.19
683.31	0.00
683.45	0.00
683.59	28.09
683.72	46.81
683.86	9.36
684.00	49.15
684.13	9.36
684.27	0.00
684.41	51.49
684.55	51.49
684.68	121.71
684.82	63.19
684.96	42.13
685.09	21.06
685.23	65.54
685.37	58.51
685.50	46.81
685.64	60.85
685.78	9.36
685.91	67.88
686.05	39.79
686.19	105.32
686.32	25.75
686.46	56.17
686.60	25.75
686.73	0.00
686.87	42.13
687.01	81.92
687.14	58.51
687.28	39.79
687.42	93.62
687.55	110.01
687.69	32.77
687.82	35.11
687.96	0.00
688.10	88.94
688.23	0.00
688.37	25.75
688.50	0.00
688.64	100.64
688.78	25.75
688.91	0.00
689.05	0.00
689.18	0.00
689.32	16.38
689.46	88.94
689.59	0.00
689.73	65.54
689.86	0.00
690.00	16.38
690.13	58.51
690.27	0.00
690.41	77.24
690.54	0.00
690.68	77.24
690.81	18.72
690.95	39.79
691.08	23.41
691.22	2.34
691.35	53.83
691.49	79.58
691.62	0.00
691.76	9.36
691.89	42.13
692.03	30.43
692.16	23.41
692.30	14.04
692.43	63.19
692.57	105.32
692.70	30.43
692.84	70.22
692.97	44.47
693.11	51.49
693.24	79.58
693.38	0.00
693.51	0.00
693.65	74.90
693.78	49.15
693.92	70.22
694.05	25.75
694.19	65.54
694.32	30.43
694.45	32.77
694.59	114.69
694.72	23.41
694.86	56.17
694.99	72.56
695.13	2.34
695.26	49.15
695.39	14.04
695.53	14.04
695.66	2.34
695.80	72.56
695.93	35.11
696.07	0.00
696.20	84.26
696.33	0.00
696.47	51.49
696.60	32.77
696.73	77.24
696.87	81.92
697.00	70.22
697.14	0.00
697.27	39.79
697.40	25.75
697.54	25.75
697.67	72.56
697.80	37.45
697.94	46.81
698.07	93.62
698.21	23.41
698.34	67.88
698.47	46.81
698.61	0.00
698.74	30.43
698.87	51.49
699.01	25.75
699.14	84.26
699.27	84.26
699.40	91.28
699.54	51.49
699.67	39.79
699.80	4.68
699.94	0.00
700.07	86.60
700.20	0.00
700.34	0.00
700.47	7.02
700.60	0.00
700.73	0.00
700.87	56.17
701.00	107.66
701.13	46.81
701.26	46.81
701.40	32.77
701.53	2.34
701.66	4.68
701.79	49.15
701.93	72.56
702.06	72.56
702.19	9.36
702.32	95.96
702.46	23.41
702.59	28.09
702.72	51.49
702.85	72.56
702.99	93.62
703.12	81.92
703.25	18.72
703.38	67.88
703.51	63.19
703.65	79.58
703.78	42.13
703.91	11.70
704.04	0.00
704.17	70.22
704.31	81.92
704.44	0.00
704.57	11.70
704.70	0.00
704.83	0.00
704.96	18.72
705.10	63.19
705.23	72.56
>>>>>End Processed Spectral Data<<<<<
