SpectraSuite Data File
++++++++++++++++++++++++++++++++++++
Date: Fri Oct 04 12:13:29 GMT-05:00 2013
User: price-jones
Dark Spectrum Present: No
Reference Spectrum Present: No
Number of Sampled Component Spectra: 1
Spectrometers: USB2+H05261
Integration Time (usec): 10000 (USB2+H05261)
Spectra Averaged: 1 (USB2+H05261)
Boxcar Smoothing: 0 (USB2+H05261)
Correct for Electrical Dark: No (USB2+H05261)
Strobe/Lamp Enabled: No (USB2+H05261)
Correct for Detector Non-linearity: No (USB2+H05261)
Correct for Stray Light: No (USB2+H05261)
Number of Pixels in Processed Spectrum: 2048
>>>>>Begin Processed Spectral Data<<<<<
365.73	18.72
365.92	18.72
366.12	18.72
366.32	0.00
366.52	0.00
366.72	0.00
366.91	0.00
367.11	0.00
367.31	0.00
367.51	0.00
367.70	0.00
367.90	0.00
368.10	0.00
368.30	0.00
368.49	0.00
368.69	0.00
368.89	0.00
369.09	0.00
369.28	0.00
369.48	0.00
369.68	0.00
369.87	0.00
370.07	0.00
370.27	0.00
370.47	0.00
370.66	0.00
370.86	0.00
371.06	0.00
371.25	2.34
371.45	0.00
371.65	51.49
371.84	9.36
372.04	95.96
372.24	37.45
372.44	0.00
372.63	0.00
372.83	30.43
373.03	0.00
373.22	2.34
373.42	63.19
373.62	30.43
373.81	4.68
374.01	16.38
374.21	23.41
374.40	28.09
374.60	0.00
374.79	88.94
374.99	23.41
375.19	102.98
375.38	14.04
375.58	0.00
375.78	135.75
375.97	60.85
376.17	0.00
376.37	32.77
376.56	32.77
376.76	21.06
376.95	30.43
377.15	25.75
377.35	67.88
377.54	0.00
377.74	0.00
377.93	0.00
378.13	42.13
378.33	11.70
378.52	0.00
378.72	32.77
378.91	32.77
379.11	2.34
379.31	0.00
379.50	46.81
379.70	42.13
379.89	100.64
380.09	0.00
380.28	23.41
380.48	7.02
380.68	0.00
380.87	63.19
381.07	7.02
381.26	79.58
381.46	42.13
381.65	56.17
381.85	23.41
382.04	21.06
382.24	23.41
382.43	0.00
382.63	0.00
382.83	21.06
383.02	14.04
383.22	14.04
383.41	14.04
383.61	44.47
383.80	46.81
384.00	2.34
384.19	0.00
384.39	32.77
384.58	11.70
384.78	28.09
384.97	18.72
385.17	65.54
385.36	7.02
385.56	49.15
385.75	37.45
385.95	23.41
386.14	53.83
386.34	23.41
386.53	21.06
386.72	0.00
386.92	0.00
387.11	93.62
387.31	18.72
387.50	0.00
387.70	18.72
387.89	9.36
388.09	18.72
388.28	58.51
388.48	44.47
388.67	21.06
388.86	0.00
389.06	46.81
389.25	0.00
389.45	0.00
389.64	9.36
389.84	49.15
390.03	16.38
390.22	0.00
390.42	35.11
390.61	88.94
390.81	51.49
391.00	60.85
391.19	72.56
391.39	0.00
391.58	67.88
391.78	49.15
391.97	9.36
392.16	0.00
392.36	23.41
392.55	74.90
392.75	100.64
392.94	51.49
393.13	0.00
393.33	0.00
393.52	70.22
393.71	140.43
393.91	14.04
394.10	23.41
394.29	0.00
394.49	16.38
394.68	46.81
394.88	4.68
395.07	49.15
395.26	23.41
395.46	25.75
395.65	0.00
395.84	0.00
396.04	91.28
396.23	2.34
396.42	70.22
396.62	35.11
396.81	32.77
397.00	21.06
397.19	63.19
397.39	23.41
397.58	39.79
397.77	35.11
397.97	28.09
398.16	11.70
398.35	42.13
398.55	28.09
398.74	53.83
398.93	74.90
399.12	86.60
399.32	53.83
399.51	32.77
399.70	42.13
399.90	42.13
400.09	14.04
400.28	14.04
400.47	7.02
400.67	0.00
400.86	25.75
401.05	0.00
401.24	16.38
401.44	0.00
401.63	21.06
401.82	21.06
402.01	0.00
402.21	25.75
402.40	11.70
402.59	44.47
402.78	49.15
402.97	7.02
403.17	18.72
403.36	0.00
403.55	0.00
403.74	0.00
403.93	72.56
404.13	102.98
404.32	0.00
404.51	7.02
404.70	35.11
404.89	0.00
405.09	86.60
405.28	65.54
405.47	0.00
405.66	2.34
405.85	56.17
406.05	35.11
406.24	25.75
406.43	35.11
406.62	0.00
406.81	44.47
407.00	18.72
407.20	0.00
407.39	0.00
407.58	88.94
407.77	58.51
407.96	14.04
408.15	23.41
408.34	0.00
408.54	70.22
408.73	0.00
408.92	0.00
409.11	0.00
409.30	16.38
409.49	65.54
409.68	11.70
409.87	7.02
410.07	23.41
410.26	14.04
410.45	0.00
410.64	0.00
410.83	0.00
411.02	88.94
411.21	9.36
411.40	84.26
411.59	63.19
411.78	53.83
411.98	0.00
412.17	0.00
412.36	79.58
412.55	51.49
412.74	0.00
412.93	16.38
413.12	0.00
413.31	63.19
413.50	0.00
413.69	44.47
413.88	0.00
414.07	23.41
414.26	0.00
414.45	63.19
414.64	60.85
414.83	7.02
415.02	28.09
415.22	49.15
415.41	121.71
415.60	4.68
415.79	0.00
415.98	72.56
416.17	88.94
416.36	14.04
416.55	39.79
416.74	46.81
416.93	56.17
417.12	49.15
417.31	32.77
417.50	56.17
417.69	37.45
417.88	88.94
418.07	0.00
418.26	81.92
418.45	11.70
418.64	44.47
418.83	0.00
419.02	9.36
419.21	23.41
419.39	30.43
419.58	0.00
419.77	16.38
419.96	0.00
420.15	16.38
420.34	0.00
420.53	16.38
420.72	16.38
420.91	53.83
421.10	0.00
421.29	16.38
421.48	2.34
421.67	21.06
421.86	79.58
422.05	0.00
422.24	18.72
422.43	0.00
422.61	25.75
422.80	0.00
422.99	60.85
423.18	72.56
423.37	21.06
423.56	63.19
423.75	60.85
423.94	74.90
424.13	0.00
424.32	81.92
424.50	25.75
424.69	23.41
424.88	0.00
425.07	58.51
425.26	9.36
425.45	81.92
425.64	4.68
425.83	35.11
426.01	14.04
426.20	4.68
426.39	56.17
426.58	4.68
426.77	28.09
426.96	18.72
427.15	56.17
427.33	16.38
427.52	51.49
427.71	42.13
427.90	51.49
428.09	23.41
428.28	0.00
428.46	100.64
428.65	56.17
428.84	0.00
429.03	49.15
429.22	53.83
429.40	32.77
429.59	88.94
429.78	0.00
429.97	0.00
430.16	37.45
430.34	58.51
430.53	30.43
430.72	2.34
430.91	79.58
431.10	14.04
431.28	0.00
431.47	11.70
431.66	0.00
431.85	9.36
432.03	0.00
432.22	0.00
432.41	60.85
432.60	49.15
432.79	46.81
432.97	0.00
433.16	30.43
433.35	46.81
433.54	0.00
433.72	0.00
433.91	39.79
434.10	53.83
434.28	51.49
434.47	86.60
434.66	65.54
434.85	88.94
435.03	51.49
435.22	49.15
435.41	60.85
435.59	98.30
435.78	4.68
435.97	0.00
436.16	9.36
436.34	44.47
436.53	37.45
436.72	72.56
436.90	44.47
437.09	42.13
437.28	25.75
437.46	77.24
437.65	0.00
437.84	9.36
438.02	65.54
438.21	0.00
438.40	0.00
438.58	79.58
438.77	46.81
438.96	4.68
439.14	9.36
439.33	44.47
439.52	28.09
439.70	77.24
439.89	46.81
440.08	70.22
440.26	18.72
440.45	30.43
440.63	49.15
440.82	91.28
441.01	0.00
441.19	58.51
441.38	46.81
441.57	0.00
441.75	9.36
441.94	4.68
442.12	42.13
442.31	32.77
442.50	39.79
442.68	60.85
442.87	67.88
443.05	9.36
443.24	0.00
443.43	49.15
443.61	16.38
443.80	79.58
443.98	25.75
444.17	65.54
444.35	23.41
444.54	46.81
444.73	35.11
444.91	56.17
445.10	91.28
445.28	0.00
445.47	0.00
445.65	0.00
445.84	25.75
446.02	100.64
446.21	56.17
446.39	63.19
446.58	0.00
446.77	0.00
446.95	25.75
447.14	0.00
447.32	7.02
447.51	30.43
447.69	18.72
447.88	28.09
448.06	0.00
448.25	60.85
448.43	0.00
448.62	32.77
448.80	49.15
448.99	95.96
449.17	4.68
449.36	4.68
449.54	32.77
449.73	0.00
449.91	30.43
450.10	42.13
450.28	51.49
450.46	25.75
450.65	53.83
450.83	7.02
451.02	46.81
451.20	35.11
451.39	18.72
451.57	30.43
451.76	14.04
451.94	49.15
452.13	32.77
452.31	51.49
452.49	95.96
452.68	28.09
452.86	4.68
453.05	93.62
453.23	67.88
453.42	39.79
453.60	49.15
453.78	0.00
453.97	0.00
454.15	77.24
454.34	16.38
454.52	11.70
454.70	23.41
454.89	63.19
455.07	0.00
455.26	0.00
455.44	44.47
455.62	37.45
455.81	56.17
455.99	35.11
456.17	49.15
456.36	0.00
456.54	63.19
456.73	79.58
456.91	93.62
457.09	21.06
457.28	117.03
457.46	28.09
457.64	4.68
457.83	117.03
458.01	77.24
458.19	0.00
458.38	65.54
458.56	9.36
458.74	63.19
458.93	44.47
459.11	37.45
459.29	30.43
459.48	21.06
459.66	0.00
459.84	58.51
460.03	42.13
460.21	56.17
460.39	0.00
460.57	70.22
460.76	0.00
460.94	30.43
461.12	35.11
461.31	79.58
461.49	4.68
461.67	46.81
461.85	37.45
462.04	49.15
462.22	112.35
462.40	84.26
462.59	112.35
462.77	32.77
462.95	14.04
463.13	7.02
463.32	0.00
463.50	56.17
463.68	37.45
463.86	4.68
464.05	30.43
464.23	0.00
464.41	60.85
464.59	0.00
464.78	0.00
464.96	72.56
465.14	0.00
465.32	56.17
465.50	18.72
465.69	60.85
465.87	4.68
466.05	7.02
466.23	0.00
466.41	37.45
466.60	30.43
466.78	0.00
466.96	11.70
467.14	14.04
467.32	37.45
467.51	56.17
467.69	49.15
467.87	32.77
468.05	2.34
468.23	7.02
468.41	53.83
468.60	95.96
468.78	44.47
468.96	79.58
469.14	25.75
469.32	44.47
469.50	0.00
469.69	21.06
469.87	65.54
470.05	18.72
470.23	60.85
470.41	51.49
470.59	58.51
470.77	91.28
470.95	21.06
471.14	0.00
471.32	30.43
471.50	32.77
471.68	46.81
471.86	65.54
472.04	25.75
472.22	28.09
472.40	0.00
472.58	63.19
472.77	86.60
472.95	0.00
473.13	74.90
473.31	0.00
473.49	51.49
473.67	18.72
473.85	84.26
474.03	74.90
474.21	32.77
474.39	58.51
474.57	81.92
474.75	25.75
474.93	119.37
475.12	79.58
475.30	51.49
475.48	77.24
475.66	30.43
475.84	67.88
476.02	0.00
476.20	56.17
476.38	42.13
476.56	46.81
476.74	0.00
476.92	93.62
477.10	0.00
477.28	0.00
477.46	30.43
477.64	46.81
477.82	0.00
478.00	0.00
478.18	9.36
478.36	105.32
478.54	88.94
478.72	46.81
478.90	14.04
479.08	53.83
479.26	51.49
479.44	16.38
479.62	91.28
479.80	79.58
479.98	63.19
480.16	65.54
480.34	86.60
480.52	37.45
480.70	21.06
480.88	91.28
481.06	49.15
481.24	7.02
481.41	37.45
481.59	88.94
481.77	44.47
481.95	58.51
482.13	7.02
482.31	95.96
482.49	23.41
482.67	30.43
482.85	18.72
483.03	0.00
483.21	18.72
483.39	46.81
483.57	84.26
483.74	39.79
483.92	14.04
484.10	63.19
484.28	77.24
484.46	30.43
484.64	46.81
484.82	0.00
485.00	14.04
485.18	32.77
485.35	51.49
485.53	30.43
485.71	56.17
485.89	4.68
486.07	0.00
486.25	0.00
486.43	0.00
486.61	46.81
486.78	0.00
486.96	16.38
487.14	11.70
487.32	42.13
487.50	98.30
487.68	0.00
487.85	35.11
488.03	77.24
488.21	0.00
488.39	39.79
488.57	9.36
488.75	0.00
488.92	77.24
489.10	91.28
489.28	51.49
489.46	0.00
489.64	74.90
489.81	65.54
489.99	77.24
490.17	0.00
490.35	46.81
490.53	49.15
490.70	23.41
490.88	128.73
491.06	37.45
491.24	72.56
491.41	70.22
491.59	100.64
491.77	72.56
491.95	56.17
492.13	67.88
492.30	28.09
492.48	35.11
492.66	58.51
492.84	44.47
493.01	39.79
493.19	0.00
493.37	0.00
493.54	0.00
493.72	51.49
493.90	42.13
494.08	35.11
494.25	98.30
494.43	56.17
494.61	60.85
494.79	67.88
494.96	49.15
495.14	102.98
495.32	39.79
495.49	65.54
495.67	56.17
495.85	46.81
496.02	4.68
496.20	42.13
496.38	79.58
496.55	7.02
496.73	81.92
496.91	0.00
497.09	0.00
497.26	98.30
497.44	35.11
497.62	23.41
497.79	105.32
497.97	18.72
498.14	58.51
498.32	0.00
498.50	0.00
498.67	95.96
498.85	46.81
499.03	56.17
499.20	56.17
499.38	28.09
499.56	81.92
499.73	14.04
499.91	51.49
500.08	49.15
500.26	0.00
500.44	0.00
500.61	44.47
500.79	23.41
500.97	67.88
501.14	65.54
501.32	88.94
501.49	74.90
501.67	11.70
501.84	53.83
502.02	65.54
502.20	0.00
502.37	0.00
502.55	30.43
502.72	16.38
502.90	98.30
503.07	0.00
503.25	65.54
503.43	84.26
503.60	28.09
503.78	9.36
503.95	98.30
504.13	42.13
504.30	84.26
504.48	112.35
504.65	42.13
504.83	16.38
505.01	30.43
505.18	39.79
505.36	65.54
505.53	39.79
505.71	11.70
505.88	4.68
506.06	16.38
506.23	32.77
506.41	0.00
506.58	0.00
506.76	2.34
506.93	37.45
507.11	84.26
507.28	0.00
507.46	37.45
507.63	9.36
507.81	0.00
507.98	0.00
508.16	53.83
508.33	128.73
508.50	72.56
508.68	51.49
508.85	124.05
509.03	63.19
509.20	56.17
509.38	79.58
509.55	37.45
509.73	42.13
509.90	7.02
510.08	35.11
510.25	7.02
510.42	51.49
510.60	46.81
510.77	46.81
510.95	0.00
511.12	98.30
511.30	9.36
511.47	44.47
511.64	39.79
511.82	105.32
511.99	72.56
512.17	105.32
512.34	0.00
512.51	32.77
512.69	77.24
512.86	74.90
513.04	100.64
513.21	2.34
513.38	9.36
513.56	4.68
513.73	32.77
513.90	0.00
514.08	72.56
514.25	84.26
514.43	4.68
514.60	46.81
514.77	58.51
514.95	133.41
515.12	72.56
515.29	51.49
515.47	84.26
515.64	51.49
515.81	72.56
515.99	23.41
516.16	79.58
516.33	42.13
516.51	65.54
516.68	9.36
516.85	2.34
517.03	9.36
517.20	28.09
517.37	88.94
517.54	86.60
517.72	51.49
517.89	0.00
518.06	21.06
518.24	21.06
518.41	65.54
518.58	100.64
518.75	42.13
518.93	42.13
519.10	128.73
519.27	42.13
519.45	23.41
519.62	81.92
519.79	49.15
519.96	42.13
520.14	0.00
520.31	28.09
520.48	67.88
520.65	67.88
520.83	42.13
521.00	11.70
521.17	18.72
521.34	0.00
521.52	44.47
521.69	88.94
521.86	79.58
522.03	121.71
522.20	56.17
522.38	30.43
522.55	28.09
522.72	88.94
522.89	46.81
523.07	98.30
523.24	70.22
523.41	56.17
523.58	28.09
523.75	0.00
523.92	51.49
524.10	72.56
524.27	70.22
524.44	0.00
524.61	0.00
524.78	74.90
524.96	28.09
525.13	0.00
525.30	0.00
525.47	21.06
525.64	51.49
525.81	102.98
525.98	42.13
526.16	0.00
526.33	32.77
526.50	28.09
526.67	53.83
526.84	39.79
527.01	88.94
527.18	74.90
527.36	35.11
527.53	84.26
527.70	42.13
527.87	39.79
528.04	44.47
528.21	42.13
528.38	74.90
528.55	25.75
528.72	0.00
528.89	44.47
529.07	30.43
529.24	60.85
529.41	39.79
529.58	0.00
529.75	95.96
529.92	42.13
530.09	0.00
530.26	51.49
530.43	37.45
530.60	93.62
530.77	0.00
530.94	30.43
531.11	0.00
531.28	14.04
531.46	2.34
531.63	28.09
531.80	56.17
531.97	88.94
532.14	0.00
532.31	37.45
532.48	53.83
532.65	0.00
532.82	119.37
532.99	88.94
533.16	39.79
533.33	42.13
533.50	7.02
533.67	11.70
533.84	51.49
534.01	30.43
534.18	49.15
534.35	32.77
534.52	42.13
534.69	133.41
534.86	25.75
535.03	49.15
535.20	30.43
535.37	25.75
535.54	14.04
535.71	49.15
535.88	91.28
536.05	35.11
536.22	37.45
536.38	79.58
536.55	18.72
536.72	77.24
536.89	0.00
537.06	121.71
537.23	46.81
537.40	0.00
537.57	98.30
537.74	0.00
537.91	42.13
538.08	84.26
538.25	35.11
538.42	70.22
538.59	100.64
538.75	35.11
538.92	56.17
539.09	0.00
539.26	39.79
539.43	114.69
539.60	74.90
539.77	133.41
539.94	117.03
540.11	53.83
540.28	37.45
540.44	56.17
540.61	30.43
540.78	65.54
540.95	72.56
541.12	37.45
541.29	2.34
541.46	0.00
541.62	0.00
541.79	16.38
541.96	35.11
542.13	53.83
542.30	100.64
542.47	30.43
542.63	28.09
542.80	58.51
542.97	9.36
543.14	53.83
543.31	84.26
543.48	44.47
543.64	44.47
543.81	149.79
543.98	28.09
544.15	79.58
544.32	4.68
544.48	88.94
544.65	0.00
544.82	39.79
544.99	70.22
545.16	58.51
545.32	98.30
545.49	51.49
545.66	32.77
545.83	77.24
546.00	21.06
546.16	74.90
546.33	67.88
546.50	4.68
546.67	60.85
546.83	14.04
547.00	0.00
547.17	2.34
547.34	0.00
547.50	39.79
547.67	46.81
547.84	30.43
548.00	28.09
548.17	0.00
548.34	42.13
548.51	0.00
548.67	28.09
548.84	9.36
549.01	4.68
549.18	35.11
549.34	16.38
549.51	0.00
549.68	51.49
549.84	91.28
550.01	60.85
550.18	60.85
550.34	86.60
550.51	65.54
550.68	46.81
550.84	42.13
551.01	51.49
551.18	49.15
551.34	0.00
551.51	53.83
551.68	23.41
551.84	51.49
552.01	46.81
552.18	25.75
552.34	25.75
552.51	44.47
552.68	16.38
552.84	60.85
553.01	91.28
553.18	70.22
553.34	0.00
553.51	7.02
553.67	56.17
553.84	37.45
554.01	46.81
554.17	18.72
554.34	37.45
554.51	39.79
554.67	58.51
554.84	44.47
555.00	37.45
555.17	65.54
555.33	18.72
555.50	44.47
555.67	65.54
555.83	18.72
556.00	39.79
556.16	98.30
556.33	58.51
556.50	42.13
556.66	11.70
556.83	49.15
556.99	11.70
557.16	39.79
557.32	56.17
557.49	0.00
557.65	53.83
557.82	0.00
557.98	88.94
558.15	63.19
558.32	63.19
558.48	65.54
558.65	2.34
558.81	18.72
558.98	0.00
559.14	105.32
559.31	9.36
559.47	0.00
559.64	91.28
559.80	46.81
559.97	53.83
560.13	2.34
560.30	65.54
560.46	93.62
560.63	0.00
560.79	0.00
560.96	32.77
561.12	63.19
561.29	60.85
561.45	44.47
561.61	79.58
561.78	110.01
561.94	102.98
562.11	14.04
562.27	39.79
562.44	49.15
562.60	67.88
562.77	18.72
562.93	0.00
563.10	39.79
563.26	37.45
563.42	63.19
563.59	110.01
563.75	86.60
563.92	0.00
564.08	0.00
564.24	16.38
564.41	88.94
564.57	18.72
564.74	11.70
564.90	39.79
565.07	56.17
565.23	102.98
565.39	21.06
565.56	46.81
565.72	35.11
565.88	70.22
566.05	0.00
566.21	9.36
566.38	46.81
566.54	16.38
566.70	0.00
566.87	70.22
567.03	35.11
567.19	28.09
567.36	49.15
567.52	0.00
567.68	0.00
567.85	49.15
568.01	28.09
568.17	67.88
568.34	0.00
568.50	79.58
568.66	56.17
568.83	51.49
568.99	9.36
569.15	7.02
569.32	49.15
569.48	51.49
569.64	91.28
569.81	79.58
569.97	95.96
570.13	60.85
570.30	44.47
570.46	7.02
570.62	46.81
570.78	0.00
570.95	112.35
571.11	63.19
571.27	16.38
571.43	0.00
571.60	114.69
571.76	35.11
571.92	0.00
572.09	23.41
572.25	39.79
572.41	2.34
572.57	9.36
572.74	7.02
572.90	37.45
573.06	0.00
573.22	21.06
573.38	49.15
573.55	28.09
573.71	58.51
573.87	0.00
574.03	37.45
574.20	25.75
574.36	51.49
574.52	21.06
574.68	21.06
574.84	42.13
575.01	32.77
575.17	56.17
575.33	84.26
575.49	23.41
575.65	77.24
575.82	56.17
575.98	121.71
576.14	56.17
576.30	49.15
576.46	86.60
576.62	28.09
576.79	100.64
576.95	117.03
577.11	63.19
577.27	30.43
577.43	21.06
577.59	60.85
577.75	0.00
577.92	166.18
578.08	56.17
578.24	32.77
578.40	140.43
578.56	14.04
578.72	93.62
578.88	102.98
579.04	58.51
579.21	105.32
579.37	51.49
579.53	91.28
579.69	35.11
579.85	16.38
580.01	70.22
580.17	63.19
580.33	58.51
580.49	28.09
580.65	21.06
580.82	39.79
580.98	14.04
581.14	18.72
581.30	65.54
581.46	81.92
581.62	84.26
581.78	112.35
581.94	152.13
582.10	74.90
582.26	84.26
582.42	0.00
582.58	70.22
582.74	37.45
582.90	39.79
583.06	135.75
583.22	23.41
583.38	0.00
583.54	0.00
583.70	28.09
583.86	60.85
584.02	63.19
584.18	67.88
584.34	117.03
584.50	250.44
584.66	1647.74
584.82	3735.50
584.98	5184.29
585.14	4381.48
585.30	2822.69
585.46	1809.23
585.62	1043.88
585.78	552.37
585.94	217.67
586.10	84.26
586.26	56.17
586.42	81.92
586.58	58.51
586.74	112.35
586.90	91.28
587.06	70.22
587.22	65.54
587.38	30.43
587.54	133.41
587.70	224.69
587.86	346.40
588.02	416.62
588.18	278.52
588.34	189.58
588.49	124.05
588.65	100.64
588.81	46.81
588.97	42.13
589.13	25.75
589.29	81.92
589.45	60.85
589.61	0.00
589.77	121.71
589.93	105.32
590.08	112.35
590.24	4.68
590.40	37.45
590.56	91.28
590.72	63.19
590.88	100.64
591.04	39.79
591.20	95.96
591.35	28.09
591.51	0.00
591.67	112.35
591.83	14.04
591.99	0.00
592.15	51.49
592.31	42.13
592.46	86.60
592.62	16.38
592.78	70.22
592.94	25.75
593.10	18.72
593.26	28.09
593.41	28.09
593.57	105.32
593.73	84.26
593.89	273.84
594.05	475.13
594.20	657.69
594.36	648.33
594.52	414.27
594.68	257.46
594.84	220.01
594.99	182.56
595.15	88.94
595.31	9.36
595.47	60.85
595.62	124.05
595.78	32.77
595.94	142.77
596.10	4.68
596.25	32.77
596.41	67.88
596.57	7.02
596.73	0.00
596.88	42.13
597.04	112.35
597.20	145.11
597.36	187.24
597.51	128.73
597.67	18.72
597.83	95.96
597.99	105.32
598.14	42.13
598.30	88.94
598.46	4.68
598.61	0.00
598.77	0.00
598.93	72.56
599.09	72.56
599.24	49.15
599.40	46.81
599.56	25.75
599.71	60.85
599.87	49.15
600.03	39.79
600.18	35.11
600.34	53.83
600.50	9.36
600.65	37.45
600.81	39.79
600.97	67.88
601.12	14.04
601.28	51.49
601.44	65.54
601.59	72.56
601.75	37.45
601.91	21.06
602.06	105.32
602.22	77.24
602.37	98.30
602.53	163.84
602.69	198.95
602.84	255.12
603.00	205.97
603.16	163.84
603.31	58.51
603.47	95.96
603.62	93.62
603.78	44.47
603.94	46.81
604.09	79.58
604.25	0.00
604.40	0.00
604.56	9.36
604.71	32.77
604.87	23.41
605.03	21.06
605.18	21.06
605.34	23.41
605.49	53.83
605.65	124.05
605.80	14.04
605.96	60.85
606.12	112.35
606.27	49.15
606.43	84.26
606.58	81.92
606.74	79.58
606.89	301.93
607.05	451.72
607.20	566.41
607.36	362.78
607.51	280.86
607.67	224.69
607.82	177.88
607.98	51.49
608.13	23.41
608.29	35.11
608.44	60.85
608.60	37.45
608.75	37.45
608.91	154.48
609.06	409.59
609.22	828.55
609.37	1001.75
609.53	926.85
609.68	622.58
609.84	444.70
609.99	283.20
610.15	168.52
610.30	131.07
610.46	0.00
610.61	49.15
610.76	0.00
610.92	121.71
611.07	70.22
611.23	28.09
611.38	23.41
611.54	14.04
611.69	77.24
611.84	7.02
612.00	25.75
612.15	53.83
612.31	65.54
612.46	25.75
612.62	72.56
612.77	65.54
612.92	126.39
613.08	86.60
613.23	46.81
613.39	0.00
613.54	95.96
613.69	358.10
613.85	980.68
614.00	1453.47
614.15	1514.33
614.31	1151.54
614.46	795.78
614.62	564.07
614.77	351.08
614.92	194.26
615.08	91.28
615.23	124.05
615.38	58.51
615.54	93.62
615.69	156.82
615.84	229.37
616.00	339.38
616.15	475.13
616.30	388.53
616.46	147.45
616.61	131.07
616.76	142.77
616.92	163.84
617.07	0.00
617.22	100.64
617.37	42.13
617.53	0.00
617.68	9.36
617.83	81.92
617.99	16.38
618.14	0.00
618.29	30.43
618.45	56.17
618.60	32.77
618.75	37.45
618.90	98.30
619.06	58.51
619.21	32.77
619.36	77.24
619.51	133.41
619.67	18.72
619.82	30.43
619.97	84.26
620.12	65.54
620.28	44.47
620.43	77.24
620.58	100.64
620.73	102.98
620.89	128.73
621.04	117.03
621.19	149.79
621.34	255.12
621.49	245.76
621.65	227.03
621.80	166.18
621.95	95.96
622.10	124.05
622.25	135.75
622.41	18.72
622.56	18.72
622.71	7.02
622.86	49.15
623.01	37.45
623.16	4.68
623.32	98.30
623.47	152.13
623.62	11.70
623.77	11.70
623.92	37.45
624.07	0.00
624.23	0.00
624.38	56.17
624.53	74.90
624.68	72.56
624.83	72.56
624.98	18.72
625.13	0.00
625.29	51.49
625.44	14.04
625.59	0.00
625.74	32.77
625.89	107.66
626.04	187.24
626.19	440.02
626.34	767.70
626.49	912.81
626.65	526.62
626.80	383.85
626.95	320.65
627.10	227.03
627.25	126.39
627.40	88.94
627.55	60.85
627.70	46.81
627.85	28.09
628.00	0.00
628.15	72.56
628.30	91.28
628.45	86.60
628.60	32.77
628.76	39.79
628.91	0.00
629.06	16.38
629.21	35.11
629.36	56.17
629.51	44.47
629.66	0.00
629.81	46.81
629.96	114.69
630.11	234.05
630.26	217.67
630.41	180.22
630.56	227.03
630.71	142.77
630.86	93.62
631.01	32.77
631.16	65.54
631.31	30.43
631.46	98.30
631.61	58.51
631.76	18.72
631.91	84.26
632.06	39.79
632.21	46.81
632.36	14.04
632.51	79.58
632.66	49.15
632.81	65.54
632.96	308.95
633.10	484.49
633.25	627.26
633.40	463.43
633.55	449.38
633.70	287.89
633.85	152.13
634.00	95.96
634.15	102.98
634.30	72.56
634.45	0.00
634.60	63.19
634.75	16.38
634.90	28.09
635.05	46.81
635.19	98.30
635.34	46.81
635.49	23.41
635.64	0.00
635.79	9.36
635.94	0.00
636.09	28.09
636.24	51.49
636.39	86.60
636.53	0.00
636.68	88.94
636.83	105.32
636.98	21.06
637.13	42.13
637.28	58.51
637.43	21.06
637.57	98.30
637.72	262.14
637.87	692.80
638.02	877.70
638.17	1015.79
638.32	828.55
638.46	489.17
638.61	454.06
638.76	294.91
638.91	191.92
639.06	67.88
639.20	93.62
639.35	37.45
639.50	105.32
639.65	477.47
639.80	1071.97
639.94	1516.67
640.09	1605.61
640.24	1177.29
640.39	814.51
640.54	587.47
640.68	388.53
640.83	166.18
640.98	79.58
641.13	100.64
641.27	39.79
641.42	51.49
641.57	21.06
641.72	102.98
641.86	56.17
642.01	56.17
642.16	21.06
642.31	9.36
642.45	16.38
642.60	63.19
642.75	74.90
642.90	49.15
643.04	0.00
643.19	88.94
643.34	37.45
643.48	11.70
643.63	0.00
643.78	74.90
643.93	53.83
644.07	0.00
644.22	102.98
644.37	4.68
644.51	131.07
644.66	14.04
644.81	35.11
644.95	91.28
645.10	0.00
645.25	0.00
645.39	0.00
645.54	16.38
645.69	79.58
645.83	18.72
645.98	0.00
646.13	18.72
646.27	32.77
646.42	42.13
646.57	42.13
646.71	7.02
646.86	0.00
647.00	0.00
647.15	49.15
647.30	14.04
647.44	0.00
647.59	88.94
647.74	32.77
647.88	14.04
648.03	28.09
648.17	65.54
648.32	18.72
648.47	100.64
648.61	53.83
648.76	53.83
648.90	7.02
649.05	63.19
649.20	0.00
649.34	39.79
649.49	23.41
649.63	32.77
649.78	65.54
649.92	114.69
650.07	180.22
650.21	358.10
650.36	781.74
650.51	858.98
650.65	723.23
650.80	486.83
650.94	407.25
651.09	299.59
651.23	149.79
651.38	107.66
651.52	91.28
651.67	14.04
651.81	32.77
651.96	42.13
652.10	7.02
652.25	84.26
652.39	39.79
652.54	14.04
652.68	2.34
652.83	191.92
652.97	287.89
653.12	355.76
653.26	255.12
653.41	180.22
653.55	142.77
653.70	212.99
653.84	28.09
653.99	67.88
654.13	56.17
654.27	72.56
654.42	37.45
654.56	32.77
654.71	0.00
654.85	65.54
655.00	0.00
655.14	0.00
655.29	0.00
655.43	25.75
655.57	46.81
655.72	49.15
655.86	23.41
656.01	37.45
656.15	60.85
656.30	46.81
656.44	9.36
656.58	42.13
656.73	86.60
656.87	30.43
657.01	18.72
657.16	28.09
657.30	112.35
657.45	65.54
657.59	0.00
657.73	37.45
657.88	30.43
658.02	58.51
658.16	0.00
658.31	28.09
658.45	56.17
658.60	0.00
658.74	0.00
658.88	32.77
659.03	0.00
659.17	39.79
659.31	107.66
659.46	222.35
659.60	383.85
659.74	418.96
659.89	418.96
660.03	306.61
660.17	220.01
660.32	156.82
660.46	86.60
660.60	44.47
660.74	37.45
660.89	63.19
661.03	0.00
661.17	84.26
661.32	18.72
661.46	28.09
661.60	0.00
661.74	35.11
661.89	18.72
662.03	98.30
662.17	44.47
662.31	25.75
662.46	42.13
662.60	30.43
662.74	0.00
662.88	35.11
663.03	49.15
663.17	25.75
663.31	67.88
663.45	37.45
663.60	0.00
663.74	0.00
663.88	67.88
664.02	7.02
664.17	30.43
664.31	25.75
664.45	21.06
664.59	37.45
664.73	0.00
664.88	0.00
665.02	4.68
665.16	37.45
665.30	2.34
665.44	95.96
665.59	49.15
665.73	56.17
665.87	0.00
666.01	0.00
666.15	0.00
666.29	4.68
666.44	4.68
666.58	77.24
666.72	37.45
666.86	25.75
667.00	100.64
667.14	0.00
667.28	173.20
667.43	372.15
667.57	636.63
667.71	772.38
667.85	594.50
667.99	472.79
668.13	362.78
668.27	182.56
668.41	149.79
668.56	93.62
668.70	56.17
668.84	81.92
668.98	114.69
669.12	67.88
669.26	4.68
669.40	37.45
669.54	23.41
669.68	60.85
669.82	0.00
669.96	0.00
670.10	84.26
670.25	44.47
670.39	42.13
670.53	0.00
670.67	84.26
670.81	79.58
670.95	63.19
671.09	110.01
671.23	194.26
671.37	404.91
671.51	540.66
671.65	528.96
671.79	390.87
671.93	276.18
672.07	128.73
672.21	44.47
672.35	166.18
672.49	49.15
672.63	70.22
672.77	23.41
672.91	91.28
673.05	91.28
673.19	77.24
673.33	7.02
673.47	32.77
673.61	88.94
673.75	28.09
673.89	95.96
674.03	65.54
674.17	35.11
674.31	86.60
674.45	16.38
674.59	37.45
674.73	28.09
674.87	30.43
675.01	79.58
675.15	0.00
675.29	65.54
675.43	37.45
675.56	72.56
675.70	28.09
675.84	49.15
675.98	32.77
676.12	58.51
676.26	46.81
676.40	11.70
676.54	35.11
676.68	32.77
676.82	28.09
676.96	0.00
677.10	2.34
677.23	2.34
677.37	0.00
677.51	14.04
677.65	9.36
677.79	14.04
677.93	74.90
678.07	0.00
678.21	39.79
678.34	25.75
678.48	67.88
678.62	30.43
678.76	49.15
678.90	2.34
679.04	4.68
679.18	14.04
679.31	23.41
679.45	44.47
679.59	102.98
679.73	93.62
679.87	18.72
680.00	121.71
680.14	51.49
680.28	0.00
680.42	65.54
680.56	16.38
680.70	16.38
680.83	46.81
680.97	37.45
681.11	11.70
681.25	23.41
681.39	9.36
681.52	11.70
681.66	77.24
681.80	0.00
681.94	0.00
682.07	74.90
682.21	0.00
682.35	11.70
682.49	25.75
682.62	0.00
682.76	9.36
682.90	32.77
683.04	0.00
683.17	51.49
683.31	0.00
683.45	42.13
683.59	14.04
683.72	67.88
683.86	0.00
684.00	88.94
684.13	0.00
684.27	32.77
684.41	30.43
684.55	4.68
684.68	53.83
684.82	11.70
684.96	49.15
685.09	70.22
685.23	60.85
685.37	39.79
685.50	23.41
685.64	0.00
685.78	100.64
685.91	46.81
686.05	107.66
686.19	49.15
686.32	9.36
686.46	49.15
686.60	49.15
686.73	0.00
686.87	18.72
687.01	0.00
687.14	11.70
687.28	95.96
687.42	35.11
687.55	0.00
687.69	67.88
687.82	56.17
687.96	28.09
688.10	79.58
688.23	56.17
688.37	28.09
688.50	35.11
688.64	0.00
688.78	42.13
688.91	56.17
689.05	60.85
689.18	72.56
689.32	49.15
689.46	74.90
689.59	16.38
689.73	79.58
689.86	42.13
690.00	16.38
690.13	39.79
690.27	0.00
690.41	14.04
690.54	65.54
690.68	21.06
690.81	11.70
690.95	44.47
691.08	16.38
691.22	18.72
691.35	98.30
691.49	37.45
691.62	0.00
691.76	0.00
691.89	60.85
692.03	60.85
692.16	23.41
692.30	63.19
692.43	131.07
692.57	210.65
692.70	273.84
692.84	390.87
692.97	313.63
693.11	241.08
693.24	121.71
693.38	84.26
693.51	138.09
693.65	91.28
693.78	77.24
693.92	86.60
694.05	58.51
694.19	7.02
694.32	35.11
694.45	2.34
694.59	16.38
694.72	0.00
694.86	0.00
694.99	58.51
695.13	49.15
695.26	9.36
695.39	88.94
695.53	16.38
695.66	25.75
695.80	21.06
695.93	18.72
696.07	117.03
696.20	39.79
696.33	67.88
696.47	102.98
696.60	0.00
696.73	28.09
696.87	84.26
697.00	91.28
697.14	67.88
697.27	77.24
697.40	0.00
697.54	51.49
697.67	42.13
697.80	42.13
697.94	0.00
698.07	110.01
698.21	0.00
698.34	35.11
698.47	44.47
698.61	21.06
698.74	32.77
698.87	67.88
699.01	28.09
699.14	14.04
699.27	107.66
699.40	74.90
699.54	0.00
699.67	0.00
699.80	9.36
699.94	46.81
700.07	0.00
700.20	30.43
700.34	0.00
700.47	32.77
700.60	74.90
700.73	11.70
700.87	4.68
701.00	0.00
701.13	0.00
701.26	42.13
701.40	0.00
701.53	25.75
701.66	0.00
701.79	23.41
701.93	14.04
702.06	77.24
702.19	91.28
702.32	110.01
702.46	67.88
702.59	49.15
702.72	72.56
702.85	285.55
702.99	472.79
703.12	493.85
703.25	671.73
703.38	596.84
703.51	470.45
703.65	362.78
703.78	285.55
703.91	173.20
704.04	65.54
704.17	70.22
704.31	46.81
704.44	102.98
704.57	4.68
704.70	93.62
704.83	0.00
704.96	14.04
705.10	49.15
705.23	0.00
>>>>>End Processed Spectral Data<<<<<
