SpectraSuite Data File
++++++++++++++++++++++++++++++++++++
Date: Fri Oct 04 12:13:42 GMT-05:00 2013
User: price-jones
Dark Spectrum Present: No
Reference Spectrum Present: No
Number of Sampled Component Spectra: 1
Spectrometers: USB2+H05261
Integration Time (usec): 10000 (USB2+H05261)
Spectra Averaged: 1 (USB2+H05261)
Boxcar Smoothing: 0 (USB2+H05261)
Correct for Electrical Dark: No (USB2+H05261)
Strobe/Lamp Enabled: No (USB2+H05261)
Correct for Detector Non-linearity: No (USB2+H05261)
Correct for Stray Light: No (USB2+H05261)
Number of Pixels in Processed Spectrum: 2048
>>>>>Begin Processed Spectral Data<<<<<
365.73	7.02
365.92	7.02
366.12	7.02
366.32	0.00
366.52	0.00
366.72	0.00
366.91	0.00
367.11	0.00
367.31	0.00
367.51	0.00
367.70	0.00
367.90	0.00
368.10	0.00
368.30	0.00
368.49	0.00
368.69	0.00
368.89	0.00
369.09	0.00
369.28	0.00
369.48	0.00
369.68	0.00
369.87	0.00
370.07	0.00
370.27	0.00
370.47	0.00
370.66	0.00
370.86	0.00
371.06	0.00
371.25	9.36
371.45	0.00
371.65	0.00
371.84	0.00
372.04	0.00
372.24	0.00
372.44	0.00
372.63	0.00
372.83	67.88
373.03	21.06
373.22	0.00
373.42	63.19
373.62	25.75
373.81	53.83
374.01	42.13
374.21	74.90
374.40	60.85
374.60	0.00
374.79	7.02
374.99	51.49
375.19	32.77
375.38	30.43
375.58	11.70
375.78	0.00
375.97	0.00
376.17	4.68
376.37	84.26
376.56	65.54
376.76	35.11
376.95	0.00
377.15	56.17
377.35	14.04
377.54	0.00
377.74	0.00
377.93	11.70
378.13	25.75
378.33	107.66
378.52	32.77
378.72	74.90
378.91	56.17
379.11	21.06
379.31	53.83
379.50	72.56
379.70	0.00
379.89	42.13
380.09	58.51
380.28	7.02
380.48	37.45
380.68	0.00
380.87	0.00
381.07	53.83
381.26	32.77
381.46	0.00
381.65	14.04
381.85	0.00
382.04	16.38
382.24	37.45
382.43	0.00
382.63	37.45
382.83	105.32
383.02	0.00
383.22	18.72
383.41	39.79
383.61	25.75
383.80	0.00
384.00	0.00
384.19	37.45
384.39	28.09
384.58	39.79
384.78	42.13
384.97	30.43
385.17	4.68
385.36	131.07
385.56	0.00
385.75	0.00
385.95	0.00
386.14	0.00
386.34	0.00
386.53	0.00
386.72	28.09
386.92	51.49
387.11	28.09
387.31	21.06
387.50	16.38
387.70	16.38
387.89	49.15
388.09	46.81
388.28	7.02
388.48	49.15
388.67	32.77
388.86	4.68
389.06	88.94
389.25	58.51
389.45	0.00
389.64	77.24
389.84	0.00
390.03	0.00
390.22	21.06
390.42	74.90
390.61	30.43
390.81	4.68
391.00	14.04
391.19	88.94
391.39	7.02
391.58	18.72
391.78	0.00
391.97	44.47
392.16	0.00
392.36	9.36
392.55	65.54
392.75	67.88
392.94	16.38
393.13	37.45
393.33	0.00
393.52	32.77
393.71	32.77
393.91	4.68
394.10	2.34
394.29	35.11
394.49	0.00
394.68	0.00
394.88	4.68
395.07	35.11
395.26	28.09
395.46	0.00
395.65	0.00
395.84	37.45
396.04	30.43
396.23	91.28
396.42	42.13
396.62	135.75
396.81	81.92
397.00	46.81
397.19	9.36
397.39	0.00
397.58	28.09
397.77	0.00
397.97	23.41
398.16	18.72
398.35	21.06
398.55	42.13
398.74	0.00
398.93	107.66
399.12	0.00
399.32	53.83
399.51	14.04
399.70	152.13
399.90	53.83
400.09	98.30
400.28	25.75
400.47	0.00
400.67	58.51
400.86	42.13
401.05	32.77
401.24	32.77
401.44	30.43
401.63	7.02
401.82	4.68
402.01	32.77
402.21	51.49
402.40	9.36
402.59	0.00
402.78	42.13
402.97	46.81
403.17	42.13
403.36	67.88
403.55	81.92
403.74	63.19
403.93	11.70
404.13	0.00
404.32	0.00
404.51	67.88
404.70	84.26
404.89	28.09
405.09	42.13
405.28	21.06
405.47	0.00
405.66	46.81
405.85	0.00
406.05	44.47
406.24	4.68
406.43	56.17
406.62	23.41
406.81	46.81
407.00	44.47
407.20	100.64
407.39	91.28
407.58	0.00
407.77	79.58
407.96	0.00
408.15	0.00
408.34	49.15
408.54	18.72
408.73	65.54
408.92	11.70
409.11	77.24
409.30	21.06
409.49	0.00
409.68	9.36
409.87	56.17
410.07	70.22
410.26	0.00
410.45	25.75
410.64	30.43
410.83	35.11
411.02	23.41
411.21	0.00
411.40	16.38
411.59	0.00
411.78	0.00
411.98	88.94
412.17	44.47
412.36	46.81
412.55	32.77
412.74	65.54
412.93	70.22
413.12	0.00
413.31	0.00
413.50	0.00
413.69	56.17
413.88	14.04
414.07	63.19
414.26	56.17
414.45	51.49
414.64	35.11
414.83	46.81
415.02	63.19
415.22	23.41
415.41	32.77
415.60	110.01
415.79	98.30
415.98	72.56
416.17	0.00
416.36	32.77
416.55	93.62
416.74	11.70
416.93	145.11
417.12	67.88
417.31	56.17
417.50	42.13
417.69	11.70
417.88	28.09
418.07	51.49
418.26	25.75
418.45	77.24
418.64	35.11
418.83	11.70
419.02	32.77
419.21	35.11
419.39	88.94
419.58	28.09
419.77	37.45
419.96	0.00
420.15	58.51
420.34	16.38
420.53	32.77
420.72	49.15
420.91	77.24
421.10	79.58
421.29	60.85
421.48	65.54
421.67	30.43
421.86	44.47
422.05	39.79
422.24	14.04
422.43	0.00
422.61	23.41
422.80	32.77
422.99	63.19
423.18	46.81
423.37	128.73
423.56	21.06
423.75	16.38
423.94	44.47
424.13	58.51
424.32	58.51
424.50	28.09
424.69	98.30
424.88	23.41
425.07	0.00
425.26	51.49
425.45	0.00
425.64	0.00
425.83	88.94
426.01	32.77
426.20	95.96
426.39	39.79
426.58	37.45
426.77	46.81
426.96	56.17
427.15	42.13
427.33	121.71
427.52	28.09
427.71	72.56
427.90	95.96
428.09	4.68
428.28	74.90
428.46	49.15
428.65	0.00
428.84	30.43
429.03	91.28
429.22	95.96
429.40	7.02
429.59	7.02
429.78	0.00
429.97	2.34
430.16	21.06
430.34	0.00
430.53	25.75
430.72	30.43
430.91	79.58
431.10	0.00
431.28	23.41
431.47	58.51
431.66	95.96
431.85	145.11
432.03	30.43
432.22	56.17
432.41	25.75
432.60	0.00
432.79	100.64
432.97	72.56
433.16	60.85
433.35	86.60
433.54	53.83
433.72	42.13
433.91	65.54
434.10	4.68
434.28	100.64
434.47	14.04
434.66	49.15
434.85	77.24
435.03	79.58
435.22	9.36
435.41	65.54
435.59	0.00
435.78	28.09
435.97	28.09
436.16	49.15
436.34	51.49
436.53	110.01
436.72	53.83
436.90	84.26
437.09	21.06
437.28	53.83
437.46	70.22
437.65	49.15
437.84	39.79
438.02	65.54
438.21	86.60
438.40	77.24
438.58	107.66
438.77	74.90
438.96	107.66
439.14	74.90
439.33	7.02
439.52	32.77
439.70	30.43
439.89	81.92
440.08	60.85
440.26	72.56
440.45	77.24
440.63	70.22
440.82	67.88
441.01	18.72
441.19	79.58
441.38	60.85
441.57	72.56
441.75	98.30
441.94	70.22
442.12	32.77
442.31	70.22
442.50	102.98
442.68	74.90
442.87	117.03
443.05	91.28
443.24	93.62
443.43	77.24
443.61	93.62
443.80	21.06
443.98	49.15
444.17	0.00
444.35	11.70
444.54	105.32
444.73	114.69
444.91	28.09
445.10	46.81
445.28	121.71
445.47	35.11
445.65	16.38
445.84	44.47
446.02	9.36
446.21	60.85
446.39	2.34
446.58	0.00
446.77	98.30
446.95	2.34
447.14	51.49
447.32	0.00
447.51	11.70
447.69	21.06
447.88	46.81
448.06	100.64
448.25	60.85
448.43	11.70
448.62	105.32
448.80	35.11
448.99	32.77
449.17	117.03
449.36	53.83
449.54	56.17
449.73	105.32
449.91	0.00
450.10	60.85
450.28	32.77
450.46	42.13
450.65	0.00
450.83	7.02
451.02	0.00
451.20	49.15
451.39	0.00
451.57	51.49
451.76	102.98
451.94	124.05
452.13	91.28
452.31	46.81
452.49	56.17
452.68	70.22
452.86	72.56
453.05	42.13
453.23	93.62
453.42	81.92
453.60	98.30
453.78	58.51
453.97	53.83
454.15	56.17
454.34	42.13
454.52	86.60
454.70	74.90
454.89	81.92
455.07	95.96
455.26	28.09
455.44	42.13
455.62	16.38
455.81	77.24
455.99	63.19
456.17	42.13
456.36	74.90
456.54	0.00
456.73	56.17
456.91	98.30
457.09	81.92
457.28	51.49
457.46	51.49
457.64	98.30
457.83	63.19
458.01	14.04
458.19	102.98
458.38	23.41
458.56	79.58
458.74	72.56
458.93	0.00
459.11	37.45
459.29	79.58
459.48	105.32
459.66	67.88
459.84	9.36
460.03	39.79
460.21	86.60
460.39	46.81
460.57	119.37
460.76	0.00
460.94	18.72
461.12	44.47
461.31	72.56
461.49	21.06
461.67	35.11
461.85	51.49
462.04	86.60
462.22	166.18
462.40	70.22
462.59	74.90
462.77	51.49
462.95	58.51
463.13	86.60
463.32	63.19
463.50	53.83
463.68	49.15
463.86	79.58
464.05	0.00
464.23	84.26
464.41	35.11
464.59	35.11
464.78	39.79
464.96	93.62
465.14	58.51
465.32	35.11
465.50	23.41
465.69	7.02
465.87	56.17
466.05	9.36
466.23	72.56
466.41	77.24
466.60	56.17
466.78	51.49
466.96	51.49
467.14	46.81
467.32	0.00
467.51	0.00
467.69	140.43
467.87	112.35
468.05	86.60
468.23	74.90
468.41	131.07
468.60	28.09
468.78	30.43
468.96	37.45
469.14	46.81
469.32	86.60
469.50	39.79
469.69	23.41
469.87	25.75
470.05	65.54
470.23	84.26
470.41	58.51
470.59	70.22
470.77	25.75
470.95	95.96
471.14	88.94
471.32	44.47
471.50	60.85
471.68	39.79
471.86	0.00
472.04	65.54
472.22	0.00
472.40	60.85
472.58	23.41
472.77	117.03
472.95	105.32
473.13	37.45
473.31	51.49
473.49	0.00
473.67	95.96
473.85	32.77
474.03	30.43
474.21	14.04
474.39	102.98
474.57	56.17
474.75	128.73
474.93	53.83
475.12	46.81
475.30	121.71
475.48	81.92
475.66	25.75
475.84	63.19
476.02	35.11
476.20	0.00
476.38	70.22
476.56	18.72
476.74	21.06
476.92	84.26
477.10	86.60
477.28	74.90
477.46	39.79
477.64	88.94
477.82	98.30
478.00	58.51
478.18	95.96
478.36	70.22
478.54	63.19
478.72	32.77
478.90	84.26
479.08	21.06
479.26	25.75
479.44	112.35
479.62	93.62
479.80	98.30
479.98	21.06
480.16	0.00
480.34	126.39
480.52	30.43
480.70	98.30
480.88	30.43
481.06	65.54
481.24	18.72
481.41	74.90
481.59	56.17
481.77	93.62
481.95	91.28
482.13	65.54
482.31	53.83
482.49	53.83
482.67	126.39
482.85	30.43
483.03	79.58
483.21	46.81
483.39	58.51
483.57	0.00
483.74	39.79
483.92	11.70
484.10	25.75
484.28	21.06
484.46	84.26
484.64	60.85
484.82	23.41
485.00	84.26
485.18	67.88
485.35	23.41
485.53	110.01
485.71	93.62
485.89	110.01
486.07	37.45
486.25	7.02
486.43	70.22
486.61	67.88
486.78	30.43
486.96	63.19
487.14	49.15
487.32	46.81
487.50	121.71
487.68	107.66
487.85	65.54
488.03	65.54
488.21	91.28
488.39	74.90
488.57	14.04
488.75	58.51
488.92	135.75
489.10	81.92
489.28	84.26
489.46	63.19
489.64	98.30
489.81	74.90
489.99	21.06
490.17	119.37
490.35	110.01
490.53	0.00
490.70	77.24
490.88	173.20
491.06	58.51
491.24	77.24
491.41	98.30
491.59	117.03
491.77	121.71
491.95	154.48
492.13	65.54
492.30	107.66
492.48	93.62
492.66	145.11
492.84	49.15
493.01	35.11
493.19	105.32
493.37	56.17
493.54	51.49
493.72	121.71
493.90	32.77
494.08	74.90
494.25	39.79
494.43	42.13
494.61	100.64
494.79	72.56
494.96	28.09
495.14	70.22
495.32	112.35
495.49	60.85
495.67	46.81
495.85	51.49
496.02	14.04
496.20	110.01
496.38	63.19
496.55	98.30
496.73	84.26
496.91	135.75
497.09	44.47
497.26	28.09
497.44	7.02
497.62	56.17
497.79	93.62
497.97	18.72
498.14	70.22
498.32	74.90
498.50	30.43
498.67	105.32
498.85	105.32
499.03	30.43
499.20	102.98
499.38	65.54
499.56	119.37
499.73	112.35
499.91	77.24
500.08	102.98
500.26	72.56
500.44	88.94
500.61	25.75
500.79	91.28
500.97	86.60
501.14	46.81
501.32	67.88
501.49	0.00
501.67	147.45
501.84	58.51
502.02	112.35
502.20	63.19
502.37	74.90
502.55	133.41
502.72	0.00
502.90	105.32
503.07	56.17
503.25	77.24
503.43	70.22
503.60	39.79
503.78	95.96
503.95	91.28
504.13	77.24
504.30	21.06
504.48	100.64
504.65	32.77
504.83	35.11
505.01	60.85
505.18	67.88
505.36	63.19
505.53	74.90
505.71	79.58
505.88	14.04
506.06	102.98
506.23	72.56
506.41	39.79
506.58	46.81
506.76	147.45
506.93	32.77
507.11	67.88
507.28	37.45
507.46	14.04
507.63	114.69
507.81	70.22
507.98	84.26
508.16	46.81
508.33	107.66
508.50	44.47
508.68	44.47
508.85	98.30
509.03	86.60
509.20	46.81
509.38	95.96
509.55	100.64
509.73	88.94
509.90	0.00
510.08	100.64
510.25	67.88
510.42	84.26
510.60	84.26
510.77	37.45
510.95	53.83
511.12	105.32
511.30	131.07
511.47	154.48
511.64	86.60
511.82	65.54
511.99	16.38
512.17	56.17
512.34	77.24
512.51	105.32
512.69	88.94
512.86	98.30
513.04	39.79
513.21	67.88
513.38	145.11
513.56	56.17
513.73	63.19
513.90	95.96
514.08	51.49
514.25	154.48
514.43	84.26
514.60	79.58
514.77	117.03
514.95	91.28
515.12	114.69
515.29	37.45
515.47	100.64
515.64	37.45
515.81	95.96
515.99	95.96
516.16	84.26
516.33	74.90
516.51	121.71
516.68	0.00
516.85	18.72
517.03	86.60
517.20	58.51
517.37	60.85
517.54	79.58
517.72	2.34
517.89	67.88
518.06	58.51
518.24	81.92
518.41	100.64
518.58	81.92
518.75	117.03
518.93	95.96
519.10	23.41
519.27	67.88
519.45	93.62
519.62	72.56
519.79	102.98
519.96	70.22
520.14	95.96
520.31	86.60
520.48	98.30
520.65	93.62
520.83	60.85
521.00	49.15
521.17	138.09
521.34	135.75
521.52	79.58
521.69	145.11
521.86	91.28
522.03	100.64
522.20	70.22
522.38	91.28
522.55	100.64
522.72	65.54
522.89	72.56
523.07	42.13
523.24	72.56
523.41	37.45
523.58	65.54
523.75	107.66
523.92	114.69
524.10	98.30
524.27	72.56
524.44	140.43
524.61	79.58
524.78	117.03
524.96	91.28
525.13	95.96
525.30	147.45
525.47	35.11
525.64	9.36
525.81	112.35
525.98	51.49
526.16	88.94
526.33	39.79
526.50	107.66
526.67	117.03
526.84	95.96
527.01	58.51
527.18	63.19
527.36	74.90
527.53	95.96
527.70	149.79
527.87	93.62
528.04	107.66
528.21	63.19
528.38	81.92
528.55	72.56
528.72	98.30
528.89	60.85
529.07	128.73
529.24	91.28
529.41	91.28
529.58	18.72
529.75	32.77
529.92	44.47
530.09	107.66
530.26	128.73
530.43	91.28
530.60	70.22
530.77	98.30
530.94	77.24
531.11	145.11
531.28	46.81
531.46	105.32
531.63	63.19
531.80	131.07
531.97	63.19
532.14	117.03
532.31	117.03
532.48	145.11
532.65	60.85
532.82	74.90
532.99	124.05
533.16	70.22
533.33	149.79
533.50	114.69
533.67	81.92
533.84	93.62
534.01	161.50
534.18	65.54
534.35	32.77
534.52	152.13
534.69	135.75
534.86	98.30
535.03	49.15
535.20	110.01
535.37	42.13
535.54	84.26
535.71	44.47
535.88	77.24
536.05	25.75
536.22	58.51
536.38	56.17
536.55	72.56
536.72	93.62
536.89	16.38
537.06	114.69
537.23	63.19
537.40	152.13
537.57	91.28
537.74	44.47
537.91	77.24
538.08	0.00
538.25	67.88
538.42	39.79
538.59	126.39
538.75	32.77
538.92	81.92
539.09	21.06
539.26	91.28
539.43	152.13
539.60	79.58
539.77	140.43
539.94	39.79
540.11	65.54
540.28	14.04
540.44	128.73
540.61	25.75
540.78	126.39
540.95	107.66
541.12	100.64
541.29	173.20
541.46	39.79
541.62	112.35
541.79	86.60
541.96	56.17
542.13	23.41
542.30	39.79
542.47	117.03
542.63	95.96
542.80	149.79
542.97	114.69
543.14	25.75
543.31	110.01
543.48	102.98
543.64	110.01
543.81	63.19
543.98	49.15
544.15	65.54
544.32	56.17
544.48	72.56
544.65	53.83
544.82	88.94
544.99	86.60
545.16	63.19
545.32	117.03
545.49	126.39
545.66	37.45
545.83	135.75
546.00	60.85
546.16	182.56
546.33	119.37
546.50	98.30
546.67	77.24
546.83	46.81
547.00	100.64
547.17	100.64
547.34	88.94
547.50	79.58
547.67	11.70
547.84	65.54
548.00	93.62
548.17	102.98
548.34	107.66
548.51	84.26
548.67	121.71
548.84	63.19
549.01	117.03
549.18	117.03
549.34	51.49
549.51	182.56
549.68	107.66
549.84	32.77
550.01	25.75
550.18	128.73
550.34	77.24
550.51	51.49
550.68	98.30
550.84	95.96
551.01	56.17
551.18	60.85
551.34	91.28
551.51	72.56
551.68	124.05
551.84	39.79
552.01	121.71
552.18	117.03
552.34	126.39
552.51	25.75
552.68	79.58
552.84	58.51
553.01	93.62
553.18	35.11
553.34	86.60
553.51	32.77
553.67	28.09
553.84	63.19
554.01	131.07
554.17	100.64
554.34	126.39
554.51	133.41
554.67	117.03
554.84	56.17
555.00	58.51
555.17	72.56
555.33	37.45
555.50	112.35
555.67	112.35
555.83	124.05
556.00	98.30
556.16	42.13
556.33	84.26
556.50	114.69
556.66	95.96
556.83	32.77
556.99	86.60
557.16	9.36
557.32	56.17
557.49	121.71
557.65	102.98
557.82	107.66
557.98	91.28
558.15	77.24
558.32	112.35
558.48	14.04
558.65	72.56
558.81	37.45
558.98	14.04
559.14	84.26
559.31	84.26
559.47	65.54
559.64	107.66
559.80	91.28
559.97	72.56
560.13	105.32
560.30	9.36
560.46	32.77
560.63	21.06
560.79	77.24
560.96	84.26
561.12	70.22
561.29	117.03
561.45	63.19
561.61	98.30
561.78	91.28
561.94	135.75
562.11	81.92
562.27	102.98
562.44	117.03
562.60	100.64
562.77	23.41
562.93	51.49
563.10	135.75
563.26	65.54
563.42	37.45
563.59	105.32
563.75	102.98
563.92	44.47
564.08	131.07
564.24	105.32
564.41	152.13
564.57	28.09
564.74	51.49
564.90	77.24
565.07	39.79
565.23	74.90
565.39	128.73
565.56	56.17
565.72	100.64
565.88	63.19
566.05	114.69
566.21	91.28
566.38	65.54
566.54	112.35
566.70	84.26
566.87	53.83
567.03	28.09
567.19	70.22
567.36	46.81
567.52	114.69
567.68	14.04
567.85	72.56
568.01	42.13
568.17	39.79
568.34	79.58
568.50	79.58
568.66	128.73
568.83	107.66
568.99	79.58
569.15	49.15
569.32	35.11
569.48	18.72
569.64	79.58
569.81	86.60
569.97	58.51
570.13	7.02
570.30	51.49
570.46	156.82
570.62	37.45
570.78	42.13
570.95	72.56
571.11	133.41
571.27	58.51
571.43	100.64
571.60	28.09
571.76	32.77
571.92	112.35
572.09	58.51
572.25	100.64
572.41	86.60
572.57	81.92
572.74	100.64
572.90	88.94
573.06	74.90
573.22	91.28
573.38	110.01
573.55	35.11
573.71	18.72
573.87	32.77
574.03	39.79
574.20	114.69
574.36	25.75
574.52	128.73
574.68	32.77
574.84	56.17
575.01	86.60
575.17	119.37
575.33	11.70
575.49	128.73
575.65	105.32
575.82	58.51
575.98	121.71
576.14	37.45
576.30	46.81
576.46	84.26
576.62	72.56
576.79	126.39
576.95	124.05
577.11	112.35
577.27	81.92
577.43	65.54
577.59	128.73
577.75	35.11
577.92	65.54
578.08	18.72
578.24	79.58
578.40	117.03
578.56	65.54
578.72	86.60
578.88	100.64
579.04	149.79
579.21	56.17
579.37	175.54
579.53	91.28
579.69	86.60
579.85	9.36
580.01	110.01
580.17	49.15
580.33	117.03
580.49	74.90
580.65	70.22
580.82	39.79
580.98	14.04
581.14	58.51
581.30	95.96
581.46	53.83
581.62	91.28
581.78	91.28
581.94	49.15
582.10	70.22
582.26	131.07
582.42	98.30
582.58	105.32
582.74	88.94
582.90	37.45
583.06	32.77
583.22	77.24
583.38	0.00
583.54	102.98
583.70	53.83
583.86	133.41
584.02	93.62
584.18	30.43
584.34	25.75
584.50	67.88
584.66	53.83
584.82	58.51
584.98	30.43
585.14	72.56
585.30	49.15
585.46	63.19
585.62	37.45
585.78	42.13
585.94	72.56
586.10	11.70
586.26	21.06
586.42	63.19
586.58	88.94
586.74	21.06
586.90	74.90
587.06	9.36
587.22	67.88
587.38	46.81
587.54	105.32
587.70	112.35
587.86	65.54
588.02	60.85
588.18	51.49
588.34	63.19
588.49	30.43
588.65	28.09
588.81	21.06
588.97	81.92
589.13	9.36
589.29	102.98
589.45	39.79
589.61	119.37
589.77	60.85
589.93	21.06
590.08	49.15
590.24	53.83
590.40	49.15
590.56	30.43
590.72	23.41
590.88	63.19
591.04	102.98
591.20	53.83
591.35	56.17
591.51	81.92
591.67	107.66
591.83	30.43
591.99	77.24
592.15	0.00
592.31	79.58
592.46	128.73
592.62	140.43
592.78	37.45
592.94	0.00
593.10	44.47
593.26	65.54
593.41	131.07
593.57	18.72
593.73	65.54
593.89	51.49
594.05	98.30
594.20	117.03
594.36	9.36
594.52	30.43
594.68	93.62
594.84	74.90
594.99	39.79
595.15	63.19
595.31	93.62
595.47	0.00
595.62	58.51
595.78	70.22
595.94	0.00
596.10	0.00
596.25	93.62
596.41	126.39
596.57	14.04
596.73	53.83
596.88	117.03
597.04	128.73
597.20	72.56
597.36	60.85
597.51	58.51
597.67	93.62
597.83	30.43
597.99	93.62
598.14	98.30
598.30	46.81
598.46	60.85
598.61	77.24
598.77	28.09
598.93	9.36
599.09	44.47
599.24	51.49
599.40	102.98
599.56	84.26
599.71	25.75
599.87	37.45
600.03	7.02
600.18	67.88
600.34	86.60
600.50	32.77
600.65	42.13
600.81	35.11
600.97	74.90
601.12	60.85
601.28	32.77
601.44	110.01
601.59	67.88
601.75	77.24
601.91	72.56
602.06	112.35
602.22	70.22
602.37	88.94
602.53	56.17
602.69	67.88
602.84	149.79
603.00	114.69
603.16	65.54
603.31	110.01
603.47	60.85
603.62	53.83
603.78	67.88
603.94	77.24
604.09	88.94
604.25	142.77
604.40	145.11
604.56	98.30
604.71	100.64
604.87	70.22
605.03	0.00
605.18	81.92
605.34	154.48
605.49	58.51
605.65	23.41
605.80	77.24
605.96	95.96
606.12	25.75
606.27	74.90
606.43	168.52
606.58	42.13
606.74	51.49
606.89	100.64
607.05	84.26
607.20	51.49
607.36	21.06
607.51	23.41
607.67	28.09
607.82	0.00
607.98	98.30
608.13	53.83
608.29	56.17
608.44	77.24
608.60	0.00
608.75	39.79
608.91	95.96
609.06	30.43
609.22	91.28
609.37	0.00
609.53	163.84
609.68	37.45
609.84	16.38
609.99	37.45
610.15	46.81
610.30	86.60
610.46	102.98
610.61	70.22
610.76	18.72
610.92	60.85
611.07	39.79
611.23	133.41
611.38	56.17
611.54	107.66
611.69	67.88
611.84	53.83
612.00	107.66
612.15	107.66
612.31	42.13
612.46	28.09
612.62	84.26
612.77	70.22
612.92	147.45
613.08	16.38
613.23	107.66
613.39	60.85
613.54	114.69
613.69	51.49
613.85	102.98
614.00	86.60
614.15	81.92
614.31	67.88
614.46	105.32
614.62	147.45
614.77	79.58
614.92	37.45
615.08	46.81
615.23	74.90
615.38	88.94
615.54	88.94
615.69	39.79
615.84	58.51
616.00	81.92
616.15	16.38
616.30	72.56
616.46	79.58
616.61	37.45
616.76	51.49
616.92	51.49
617.07	28.09
617.22	81.92
617.37	46.81
617.53	84.26
617.68	91.28
617.83	107.66
617.99	63.19
618.14	56.17
618.29	102.98
618.45	70.22
618.60	9.36
618.75	105.32
618.90	81.92
619.06	46.81
619.21	2.34
619.36	56.17
619.51	91.28
619.67	44.47
619.82	58.51
619.97	9.36
620.12	49.15
620.28	37.45
620.43	28.09
620.58	18.72
620.73	42.13
620.89	30.43
621.04	95.96
621.19	86.60
621.34	14.04
621.49	53.83
621.65	81.92
621.80	44.47
621.95	149.79
622.10	65.54
622.25	72.56
622.41	46.81
622.56	117.03
622.71	67.88
622.86	65.54
623.01	105.32
623.16	100.64
623.32	86.60
623.47	53.83
623.62	112.35
623.77	16.38
623.92	4.68
624.07	44.47
624.23	100.64
624.38	72.56
624.53	56.17
624.68	7.02
624.83	35.11
624.98	0.00
625.13	107.66
625.29	18.72
625.44	32.77
625.59	53.83
625.74	23.41
625.89	44.47
626.04	0.00
626.19	86.60
626.34	77.24
626.49	58.51
626.65	32.77
626.80	84.26
626.95	9.36
627.10	35.11
627.25	18.72
627.40	53.83
627.55	74.90
627.70	72.56
627.85	37.45
628.00	0.00
628.15	37.45
628.30	91.28
628.45	21.06
628.60	81.92
628.76	53.83
628.91	0.00
629.06	0.00
629.21	2.34
629.36	28.09
629.51	21.06
629.66	42.13
629.81	79.58
629.96	110.01
630.11	37.45
630.26	70.22
630.41	58.51
630.56	65.54
630.71	14.04
630.86	18.72
631.01	53.83
631.16	35.11
631.31	42.13
631.46	65.54
631.61	4.68
631.76	128.73
631.91	14.04
632.06	100.64
632.21	131.07
632.36	44.47
632.51	117.03
632.66	88.94
632.81	63.19
632.96	67.88
633.10	79.58
633.25	42.13
633.40	70.22
633.55	46.81
633.70	0.00
633.85	35.11
634.00	60.85
634.15	79.58
634.30	93.62
634.45	121.71
634.60	44.47
634.75	60.85
634.90	53.83
635.05	65.54
635.19	4.68
635.34	70.22
635.49	39.79
635.64	91.28
635.79	51.49
635.94	63.19
636.09	152.13
636.24	56.17
636.39	91.28
636.53	53.83
636.68	25.75
636.83	88.94
636.98	16.38
637.13	35.11
637.28	81.92
637.43	0.00
637.57	49.15
637.72	81.92
637.87	51.49
638.02	0.00
638.17	37.45
638.32	86.60
638.46	42.13
638.61	93.62
638.76	37.45
638.91	180.22
639.06	84.26
639.20	156.82
639.35	105.32
639.50	119.37
639.65	124.05
639.80	100.64
639.94	0.00
640.09	58.51
640.24	84.26
640.39	91.28
640.54	37.45
640.68	95.96
640.83	53.83
640.98	0.00
641.13	63.19
641.27	58.51
641.42	58.51
641.57	102.98
641.72	56.17
641.86	70.22
642.01	60.85
642.16	124.05
642.31	67.88
642.45	53.83
642.60	23.41
642.75	65.54
642.90	65.54
643.04	119.37
643.19	51.49
643.34	63.19
643.48	91.28
643.63	93.62
643.78	0.00
643.93	49.15
644.07	63.19
644.22	112.35
644.37	53.83
644.51	70.22
644.66	0.00
644.81	16.38
644.95	14.04
645.10	30.43
645.25	65.54
645.39	121.71
645.54	51.49
645.69	70.22
645.83	79.58
645.98	105.32
646.13	91.28
646.27	67.88
646.42	95.96
646.57	53.83
646.71	0.00
646.86	46.81
647.00	60.85
647.15	9.36
647.30	65.54
647.44	30.43
647.59	58.51
647.74	126.39
647.88	0.00
648.03	16.38
648.17	28.09
648.32	60.85
648.47	35.11
648.61	70.22
648.76	0.00
648.90	18.72
649.05	53.83
649.20	67.88
649.34	67.88
649.49	88.94
649.63	126.39
649.78	128.73
649.92	60.85
650.07	0.00
650.21	23.41
650.36	42.13
650.51	46.81
650.65	30.43
650.80	98.30
650.94	159.16
651.09	79.58
651.23	86.60
651.38	60.85
651.52	58.51
651.67	105.32
651.81	84.26
651.96	81.92
652.10	88.94
652.25	28.09
652.39	65.54
652.54	30.43
652.68	44.47
652.83	84.26
652.97	81.92
653.12	37.45
653.26	32.77
653.41	32.77
653.55	65.54
653.70	7.02
653.84	23.41
653.99	60.85
654.13	56.17
654.27	107.66
654.42	0.00
654.56	0.00
654.71	102.98
654.85	65.54
655.00	37.45
655.14	70.22
655.29	21.06
655.43	84.26
655.57	65.54
655.72	0.00
655.86	0.00
656.01	100.64
656.15	56.17
656.30	60.85
656.44	0.00
656.58	30.43
656.73	28.09
656.87	4.68
657.01	37.45
657.16	32.77
657.30	79.58
657.45	37.45
657.59	56.17
657.73	154.48
657.88	107.66
658.02	110.01
658.16	25.75
658.31	93.62
658.45	86.60
658.60	102.98
658.74	77.24
658.88	58.51
659.03	67.88
659.17	0.00
659.31	126.39
659.46	93.62
659.60	84.26
659.74	11.70
659.89	4.68
660.03	95.96
660.17	42.13
660.32	16.38
660.46	86.60
660.60	46.81
660.74	4.68
660.89	63.19
661.03	105.32
661.17	91.28
661.32	37.45
661.46	114.69
661.60	25.75
661.74	23.41
661.89	49.15
662.03	65.54
662.17	9.36
662.31	100.64
662.46	30.43
662.60	112.35
662.74	42.13
662.88	21.06
663.03	51.49
663.17	23.41
663.31	63.19
663.45	0.00
663.60	74.90
663.74	51.49
663.88	60.85
664.02	51.49
664.17	107.66
664.31	35.11
664.45	42.13
664.59	51.49
664.73	91.28
664.88	93.62
665.02	42.13
665.16	98.30
665.30	4.68
665.44	37.45
665.59	46.81
665.73	0.00
665.87	0.00
666.01	28.09
666.15	51.49
666.29	93.62
666.44	95.96
666.58	39.79
666.72	46.81
666.86	30.43
667.00	95.96
667.14	37.45
667.28	0.00
667.43	11.70
667.57	0.00
667.71	60.85
667.85	30.43
667.99	135.75
668.13	84.26
668.27	9.36
668.41	16.38
668.56	44.47
668.70	30.43
668.84	102.98
668.98	79.58
669.12	32.77
669.26	14.04
669.40	128.73
669.54	25.75
669.68	65.54
669.82	63.19
669.96	72.56
670.10	4.68
670.25	51.49
670.39	49.15
670.53	25.75
670.67	95.96
670.81	0.00
670.95	18.72
671.09	28.09
671.23	23.41
671.37	35.11
671.51	79.58
671.65	100.64
671.79	18.72
671.93	74.90
672.07	79.58
672.21	72.56
672.35	70.22
672.49	35.11
672.63	65.54
672.77	42.13
672.91	35.11
673.05	30.43
673.19	102.98
673.33	35.11
673.47	84.26
673.61	81.92
673.75	65.54
673.89	67.88
674.03	0.00
674.17	0.00
674.31	56.17
674.45	56.17
674.59	102.98
674.73	4.68
674.87	32.77
675.01	67.88
675.15	0.00
675.29	0.00
675.43	32.77
675.56	65.54
675.70	72.56
675.84	18.72
675.98	46.81
676.12	79.58
676.26	187.24
676.40	32.77
676.54	119.37
676.68	67.88
676.82	74.90
676.96	65.54
677.10	30.43
677.23	67.88
677.37	30.43
677.51	46.81
677.65	25.75
677.79	0.00
677.93	60.85
678.07	25.75
678.21	110.01
678.34	46.81
678.48	74.90
678.62	25.75
678.76	0.00
678.90	51.49
679.04	60.85
679.18	0.00
679.31	21.06
679.45	0.00
679.59	9.36
679.73	70.22
679.87	37.45
680.00	60.85
680.14	70.22
680.28	110.01
680.42	70.22
680.56	58.51
680.70	37.45
680.83	63.19
680.97	88.94
681.11	63.19
681.25	0.00
681.39	84.26
681.52	79.58
681.66	30.43
681.80	11.70
681.94	133.41
682.07	56.17
682.21	67.88
682.35	63.19
682.49	79.58
682.62	46.81
682.76	16.38
682.90	42.13
683.04	32.77
683.17	112.35
683.31	107.66
683.45	100.64
683.59	65.54
683.72	0.00
683.86	56.17
684.00	56.17
684.13	77.24
684.27	60.85
684.41	9.36
684.55	7.02
684.68	51.49
684.82	49.15
684.96	70.22
685.09	25.75
685.23	9.36
685.37	35.11
685.50	81.92
685.64	49.15
685.78	42.13
685.91	67.88
686.05	14.04
686.19	21.06
686.32	77.24
686.46	23.41
686.60	16.38
686.73	49.15
686.87	77.24
687.01	95.96
687.14	18.72
687.28	79.58
687.42	49.15
687.55	65.54
687.69	79.58
687.82	46.81
687.96	23.41
688.10	93.62
688.23	65.54
688.37	51.49
688.50	88.94
688.64	70.22
688.78	72.56
688.91	32.77
689.05	35.11
689.18	28.09
689.32	39.79
689.46	53.83
689.59	53.83
689.73	0.00
689.86	70.22
690.00	35.11
690.13	70.22
690.27	102.98
690.41	42.13
690.54	0.00
690.68	4.68
690.81	42.13
690.95	77.24
691.08	60.85
691.22	25.75
691.35	0.00
691.49	56.17
691.62	63.19
691.76	39.79
691.89	74.90
692.03	44.47
692.16	0.00
692.30	63.19
692.43	0.00
692.57	44.47
692.70	42.13
692.84	35.11
692.97	11.70
693.11	53.83
693.24	4.68
693.38	124.05
693.51	4.68
693.65	4.68
693.78	102.98
693.92	65.54
694.05	0.00
694.19	18.72
694.32	84.26
694.45	35.11
694.59	42.13
694.72	0.00
694.86	21.06
694.99	23.41
695.13	39.79
695.26	0.00
695.39	23.41
695.53	23.41
695.66	4.68
695.80	0.00
695.93	18.72
696.07	91.28
696.20	21.06
696.33	63.19
696.47	128.73
696.60	42.13
696.73	74.90
696.87	44.47
697.00	70.22
697.14	2.34
697.27	0.00
697.40	81.92
697.54	72.56
697.67	46.81
697.80	32.77
697.94	4.68
698.07	46.81
698.21	30.43
698.34	60.85
698.47	37.45
698.61	14.04
698.74	28.09
698.87	42.13
699.01	25.75
699.14	98.30
699.27	0.00
699.40	0.00
699.54	65.54
699.67	60.85
699.80	35.11
699.94	67.88
700.07	25.75
700.20	93.62
700.34	44.47
700.47	14.04
700.60	16.38
700.73	30.43
700.87	14.04
701.00	119.37
701.13	84.26
701.26	63.19
701.40	0.00
701.53	25.75
701.66	23.41
701.79	53.83
701.93	63.19
702.06	39.79
702.19	74.90
702.32	0.00
702.46	114.69
702.59	70.22
702.72	0.00
702.85	51.49
702.99	32.77
703.12	74.90
703.25	25.75
703.38	25.75
703.51	28.09
703.65	42.13
703.78	58.51
703.91	67.88
704.04	0.00
704.17	0.00
704.31	0.00
704.44	0.00
704.57	81.92
704.70	53.83
704.83	21.06
704.96	25.75
705.10	65.54
705.23	51.49
>>>>>End Processed Spectral Data<<<<<
