SpectraSuite Data File
++++++++++++++++++++++++++++++++++++
Date: Fri Oct 04 12:13:24 GMT-05:00 2013
User: price-jones
Dark Spectrum Present: No
Reference Spectrum Present: No
Number of Sampled Component Spectra: 1
Spectrometers: USB2+H05261
Integration Time (usec): 10000 (USB2+H05261)
Spectra Averaged: 1 (USB2+H05261)
Boxcar Smoothing: 0 (USB2+H05261)
Correct for Electrical Dark: No (USB2+H05261)
Strobe/Lamp Enabled: No (USB2+H05261)
Correct for Detector Non-linearity: No (USB2+H05261)
Correct for Stray Light: No (USB2+H05261)
Number of Pixels in Processed Spectrum: 2048
>>>>>Begin Processed Spectral Data<<<<<
365.73	0.00
365.92	0.00
366.12	0.00
366.32	0.00
366.52	0.00
366.72	0.00
366.91	0.00
367.11	0.00
367.31	0.00
367.51	0.00
367.70	0.00
367.90	0.00
368.10	0.00
368.30	0.00
368.49	0.00
368.69	0.00
368.89	0.00
369.09	0.00
369.28	0.00
369.48	0.00
369.68	0.00
369.87	0.00
370.07	0.00
370.27	0.00
370.47	0.00
370.66	0.00
370.86	0.00
371.06	14.04
371.25	0.00
371.45	0.00
371.65	0.00
371.84	56.17
372.04	14.04
372.24	0.00
372.44	0.00
372.63	0.00
372.83	49.15
373.03	0.00
373.22	44.47
373.42	28.09
373.62	0.00
373.81	0.00
374.01	23.41
374.21	58.51
374.40	39.79
374.60	35.11
374.79	0.00
374.99	49.15
375.19	0.00
375.38	16.38
375.58	74.90
375.78	16.38
375.97	49.15
376.17	42.13
376.37	25.75
376.56	0.00
376.76	0.00
376.95	28.09
377.15	86.60
377.35	51.49
377.54	16.38
377.74	9.36
377.93	67.88
378.13	60.85
378.33	23.41
378.52	98.30
378.72	67.88
378.91	49.15
379.11	14.04
379.31	21.06
379.50	25.75
379.70	0.00
379.89	18.72
380.09	58.51
380.28	16.38
380.48	39.79
380.68	100.64
380.87	2.34
381.07	49.15
381.26	0.00
381.46	44.47
381.65	39.79
381.85	93.62
382.04	42.13
382.24	74.90
382.43	4.68
382.63	0.00
382.83	0.00
383.02	7.02
383.22	42.13
383.41	0.00
383.61	56.17
383.80	11.70
384.00	0.00
384.19	63.19
384.39	0.00
384.58	4.68
384.78	0.00
384.97	16.38
385.17	37.45
385.36	0.00
385.56	30.43
385.75	30.43
385.95	72.56
386.14	16.38
386.34	32.77
386.53	9.36
386.72	16.38
386.92	30.43
387.11	0.00
387.31	0.00
387.50	44.47
387.70	21.06
387.89	46.81
388.09	0.00
388.28	60.85
388.48	63.19
388.67	39.79
388.86	0.00
389.06	39.79
389.25	58.51
389.45	21.06
389.64	0.00
389.84	0.00
390.03	0.00
390.22	32.77
390.42	23.41
390.61	46.81
390.81	18.72
391.00	4.68
391.19	28.09
391.39	70.22
391.58	0.00
391.78	81.92
391.97	74.90
392.16	39.79
392.36	0.00
392.55	133.41
392.75	0.00
392.94	46.81
393.13	0.00
393.33	2.34
393.52	14.04
393.71	0.00
393.91	0.00
394.10	18.72
394.29	0.00
394.49	42.13
394.68	25.75
394.88	37.45
395.07	58.51
395.26	0.00
395.46	16.38
395.65	53.83
395.84	4.68
396.04	53.83
396.23	56.17
396.42	95.96
396.62	135.75
396.81	0.00
397.00	0.00
397.19	67.88
397.39	51.49
397.58	7.02
397.77	0.00
397.97	9.36
398.16	44.47
398.35	67.88
398.55	0.00
398.74	0.00
398.93	84.26
399.12	65.54
399.32	0.00
399.51	49.15
399.70	0.00
399.90	0.00
400.09	11.70
400.28	56.17
400.47	14.04
400.67	60.85
400.86	25.75
401.05	39.79
401.24	58.51
401.44	4.68
401.63	46.81
401.82	56.17
402.01	0.00
402.21	42.13
402.40	23.41
402.59	49.15
402.78	0.00
402.97	18.72
403.17	18.72
403.36	28.09
403.55	42.13
403.74	4.68
403.93	9.36
404.13	0.00
404.32	0.00
404.51	56.17
404.70	0.00
404.89	0.00
405.09	21.06
405.28	65.54
405.47	58.51
405.66	23.41
405.85	58.51
406.05	14.04
406.24	56.17
406.43	0.00
406.62	18.72
406.81	0.00
407.00	44.47
407.20	84.26
407.39	0.00
407.58	16.38
407.77	32.77
407.96	0.00
408.15	98.30
408.34	51.49
408.54	0.00
408.73	46.81
408.92	100.64
409.11	51.49
409.30	53.83
409.49	18.72
409.68	0.00
409.87	42.13
410.07	11.70
410.26	35.11
410.45	74.90
410.64	14.04
410.83	37.45
411.02	4.68
411.21	70.22
411.40	4.68
411.59	39.79
411.78	0.00
411.98	56.17
412.17	42.13
412.36	53.83
412.55	7.02
412.74	0.00
412.93	23.41
413.12	18.72
413.31	42.13
413.50	70.22
413.69	18.72
413.88	67.88
414.07	117.03
414.26	11.70
414.45	46.81
414.64	30.43
414.83	0.00
415.02	7.02
415.22	28.09
415.41	42.13
415.60	110.01
415.79	32.77
415.98	16.38
416.17	18.72
416.36	44.47
416.55	0.00
416.74	70.22
416.93	4.68
417.12	32.77
417.31	9.36
417.50	37.45
417.69	0.00
417.88	39.79
418.07	0.00
418.26	56.17
418.45	30.43
418.64	11.70
418.83	51.49
419.02	39.79
419.21	49.15
419.39	23.41
419.58	49.15
419.77	0.00
419.96	25.75
420.15	98.30
420.34	0.00
420.53	0.00
420.72	0.00
420.91	9.36
421.10	35.11
421.29	21.06
421.48	63.19
421.67	60.85
421.86	14.04
422.05	53.83
422.24	0.00
422.43	0.00
422.61	0.00
422.80	28.09
422.99	4.68
423.18	4.68
423.37	44.47
423.56	81.92
423.75	72.56
423.94	42.13
424.13	53.83
424.32	46.81
424.50	84.26
424.69	67.88
424.88	65.54
425.07	0.00
425.26	39.79
425.45	0.00
425.64	28.09
425.83	0.00
426.01	0.00
426.20	14.04
426.39	79.58
426.58	74.90
426.77	65.54
426.96	74.90
427.15	25.75
427.33	100.64
427.52	63.19
427.71	37.45
427.90	18.72
428.09	46.81
428.28	23.41
428.46	32.77
428.65	32.77
428.84	30.43
429.03	7.02
429.22	39.79
429.40	23.41
429.59	77.24
429.78	0.00
429.97	0.00
430.16	0.00
430.34	0.00
430.53	23.41
430.72	14.04
430.91	0.00
431.10	39.79
431.28	39.79
431.47	51.49
431.66	0.00
431.85	0.00
432.03	0.00
432.22	74.90
432.41	84.26
432.60	18.72
432.79	74.90
432.97	63.19
433.16	23.41
433.35	35.11
433.54	51.49
433.72	0.00
433.91	9.36
434.10	37.45
434.28	0.00
434.47	79.58
434.66	2.34
434.85	7.02
435.03	0.00
435.22	74.90
435.41	28.09
435.59	25.75
435.78	0.00
435.97	65.54
436.16	18.72
436.34	4.68
436.53	0.00
436.72	0.00
436.90	16.38
437.09	84.26
437.28	0.00
437.46	28.09
437.65	126.39
437.84	4.68
438.02	0.00
438.21	16.38
438.40	0.00
438.58	0.00
438.77	23.41
438.96	21.06
439.14	0.00
439.33	32.77
439.52	77.24
439.70	14.04
439.89	102.98
440.08	81.92
440.26	32.77
440.45	9.36
440.63	14.04
440.82	42.13
441.01	0.00
441.19	65.54
441.38	0.00
441.57	11.70
441.75	74.90
441.94	46.81
442.12	11.70
442.31	0.00
442.50	100.64
442.68	39.79
442.87	86.60
443.05	0.00
443.24	51.49
443.43	37.45
443.61	23.41
443.80	4.68
443.98	0.00
444.17	39.79
444.35	0.00
444.54	9.36
444.73	65.54
444.91	28.09
445.10	70.22
445.28	53.83
445.47	81.92
445.65	102.98
445.84	0.00
446.02	63.19
446.21	2.34
446.39	0.00
446.58	30.43
446.77	72.56
446.95	9.36
447.14	4.68
447.32	0.00
447.51	79.58
447.69	58.51
447.88	21.06
448.06	28.09
448.25	0.00
448.43	0.00
448.62	7.02
448.80	7.02
448.99	18.72
449.17	51.49
449.36	79.58
449.54	39.79
449.73	32.77
449.91	21.06
450.10	49.15
450.28	9.36
450.46	0.00
450.65	0.00
450.83	23.41
451.02	23.41
451.20	114.69
451.39	114.69
451.57	0.00
451.76	53.83
451.94	51.49
452.13	11.70
452.31	9.36
452.49	86.60
452.68	46.81
452.86	0.00
453.05	44.47
453.23	67.88
453.42	30.43
453.60	14.04
453.78	77.24
453.97	14.04
454.15	21.06
454.34	28.09
454.52	42.13
454.70	74.90
454.89	18.72
455.07	74.90
455.26	65.54
455.44	51.49
455.62	0.00
455.81	23.41
455.99	23.41
456.17	74.90
456.36	79.58
456.54	84.26
456.73	74.90
456.91	49.15
457.09	49.15
457.28	74.90
457.46	0.00
457.64	28.09
457.83	74.90
458.01	21.06
458.19	0.00
458.38	79.58
458.56	0.00
458.74	0.00
458.93	53.83
459.11	25.75
459.29	35.11
459.48	56.17
459.66	74.90
459.84	14.04
460.03	23.41
460.21	79.58
460.39	49.15
460.57	56.17
460.76	23.41
460.94	65.54
461.12	23.41
461.31	21.06
461.49	147.45
461.67	56.17
461.85	37.45
462.04	72.56
462.22	88.94
462.40	0.00
462.59	67.88
462.77	23.41
462.95	0.00
463.13	9.36
463.32	35.11
463.50	63.19
463.68	67.88
463.86	39.79
464.05	0.00
464.23	44.47
464.41	88.94
464.59	37.45
464.78	53.83
464.96	49.15
465.14	9.36
465.32	9.36
465.50	70.22
465.69	60.85
465.87	16.38
466.05	2.34
466.23	102.98
466.41	56.17
466.60	58.51
466.78	70.22
466.96	14.04
467.14	72.56
467.32	9.36
467.51	11.70
467.69	0.00
467.87	32.77
468.05	86.60
468.23	16.38
468.41	44.47
468.60	42.13
468.78	79.58
468.96	0.00
469.14	46.81
469.32	51.49
469.50	0.00
469.69	0.00
469.87	32.77
470.05	0.00
470.23	65.54
470.41	16.38
470.59	46.81
470.77	21.06
470.95	81.92
471.14	42.13
471.32	107.66
471.50	30.43
471.68	49.15
471.86	79.58
472.04	18.72
472.22	77.24
472.40	110.01
472.58	32.77
472.77	0.00
472.95	44.47
473.13	39.79
473.31	44.47
473.49	9.36
473.67	0.00
473.85	60.85
474.03	37.45
474.21	51.49
474.39	14.04
474.57	21.06
474.75	51.49
474.93	16.38
475.12	30.43
475.30	60.85
475.48	39.79
475.66	51.49
475.84	18.72
476.02	60.85
476.20	91.28
476.38	30.43
476.56	0.00
476.74	56.17
476.92	21.06
477.10	58.51
477.28	70.22
477.46	23.41
477.64	16.38
477.82	0.00
478.00	0.00
478.18	2.34
478.36	67.88
478.54	9.36
478.72	0.00
478.90	4.68
479.08	0.00
479.26	46.81
479.44	42.13
479.62	30.43
479.80	117.03
479.98	60.85
480.16	60.85
480.34	44.47
480.52	37.45
480.70	37.45
480.88	0.00
481.06	0.00
481.24	0.00
481.41	107.66
481.59	4.68
481.77	86.60
481.95	0.00
482.13	18.72
482.31	105.32
482.49	23.41
482.67	74.90
482.85	93.62
483.03	98.30
483.21	98.30
483.39	39.79
483.57	58.51
483.74	60.85
483.92	65.54
484.10	9.36
484.28	107.66
484.46	63.19
484.64	72.56
484.82	70.22
485.00	81.92
485.18	60.85
485.35	46.81
485.53	0.00
485.71	21.06
485.89	138.09
486.07	35.11
486.25	84.26
486.43	44.47
486.61	70.22
486.78	91.28
486.96	63.19
487.14	32.77
487.32	93.62
487.50	44.47
487.68	11.70
487.85	114.69
488.03	0.00
488.21	0.00
488.39	37.45
488.57	67.88
488.75	65.54
488.92	53.83
489.10	0.00
489.28	91.28
489.46	67.88
489.64	30.43
489.81	39.79
489.99	0.00
490.17	4.68
490.35	21.06
490.53	11.70
490.70	51.49
490.88	0.00
491.06	9.36
491.24	51.49
491.41	0.00
491.59	23.41
491.77	25.75
491.95	60.85
492.13	67.88
492.30	21.06
492.48	30.43
492.66	53.83
492.84	7.02
493.01	0.00
493.19	51.49
493.37	60.85
493.54	35.11
493.72	53.83
493.90	49.15
494.08	25.75
494.25	25.75
494.43	51.49
494.61	37.45
494.79	25.75
494.96	0.00
495.14	18.72
495.32	81.92
495.49	105.32
495.67	9.36
495.85	23.41
496.02	79.58
496.20	51.49
496.38	56.17
496.55	32.77
496.73	77.24
496.91	77.24
497.09	114.69
497.26	16.38
497.44	44.47
497.62	72.56
497.79	30.43
497.97	98.30
498.14	65.54
498.32	49.15
498.50	32.77
498.67	53.83
498.85	86.60
499.03	0.00
499.20	21.06
499.38	32.77
499.56	44.47
499.73	7.02
499.91	86.60
500.08	117.03
500.26	79.58
500.44	2.34
500.61	0.00
500.79	11.70
500.97	102.98
501.14	30.43
501.32	21.06
501.49	21.06
501.67	53.83
501.84	30.43
502.02	0.00
502.20	42.13
502.37	23.41
502.55	11.70
502.72	25.75
502.90	0.00
503.07	72.56
503.25	42.13
503.43	72.56
503.60	53.83
503.78	65.54
503.95	56.17
504.13	46.81
504.30	0.00
504.48	35.11
504.65	46.81
504.83	44.47
505.01	16.38
505.18	53.83
505.36	37.45
505.53	25.75
505.71	70.22
505.88	91.28
506.06	37.45
506.23	28.09
506.41	72.56
506.58	7.02
506.76	35.11
506.93	77.24
507.11	23.41
507.28	88.94
507.46	135.75
507.63	70.22
507.81	32.77
507.98	32.77
508.16	23.41
508.33	44.47
508.50	51.49
508.68	67.88
508.85	37.45
509.03	37.45
509.20	93.62
509.38	18.72
509.55	14.04
509.73	28.09
509.90	35.11
510.08	60.85
510.25	70.22
510.42	30.43
510.60	44.47
510.77	32.77
510.95	100.64
511.12	18.72
511.30	42.13
511.47	30.43
511.64	49.15
511.82	30.43
511.99	58.51
512.17	70.22
512.34	0.00
512.51	11.70
512.69	18.72
512.86	35.11
513.04	86.60
513.21	0.00
513.38	0.00
513.56	70.22
513.73	91.28
513.90	0.00
514.08	0.00
514.25	65.54
514.43	74.90
514.60	18.72
514.77	30.43
514.95	53.83
515.12	72.56
515.29	14.04
515.47	0.00
515.64	0.00
515.81	39.79
515.99	35.11
516.16	0.00
516.33	0.00
516.51	0.00
516.68	74.90
516.85	88.94
517.03	39.79
517.20	42.13
517.37	84.26
517.54	21.06
517.72	21.06
517.89	70.22
518.06	112.35
518.24	63.19
518.41	32.77
518.58	37.45
518.75	11.70
518.93	25.75
519.10	0.00
519.27	44.47
519.45	2.34
519.62	35.11
519.79	28.09
519.96	117.03
520.14	102.98
520.31	79.58
520.48	60.85
520.65	77.24
520.83	79.58
521.00	98.30
521.17	72.56
521.34	70.22
521.52	2.34
521.69	67.88
521.86	30.43
522.03	25.75
522.20	0.00
522.38	0.00
522.55	51.49
522.72	37.45
522.89	21.06
523.07	56.17
523.24	128.73
523.41	102.98
523.58	86.60
523.75	4.68
523.92	2.34
524.10	46.81
524.27	0.00
524.44	65.54
524.61	0.00
524.78	49.15
524.96	53.83
525.13	105.32
525.30	0.00
525.47	46.81
525.64	60.85
525.81	39.79
525.98	32.77
526.16	28.09
526.33	65.54
526.50	32.77
526.67	37.45
526.84	18.72
527.01	0.00
527.18	58.51
527.36	60.85
527.53	25.75
527.70	56.17
527.87	51.49
528.04	67.88
528.21	28.09
528.38	37.45
528.55	65.54
528.72	21.06
528.89	91.28
529.07	25.75
529.24	105.32
529.41	44.47
529.58	9.36
529.75	0.00
529.92	60.85
530.09	25.75
530.26	37.45
530.43	11.70
530.60	46.81
530.77	72.56
530.94	84.26
531.11	107.66
531.28	16.38
531.46	4.68
531.63	0.00
531.80	74.90
531.97	0.00
532.14	0.00
532.31	51.49
532.48	86.60
532.65	70.22
532.82	44.47
532.99	30.43
533.16	39.79
533.33	49.15
533.50	86.60
533.67	0.00
533.84	44.47
534.01	18.72
534.18	23.41
534.35	53.83
534.52	51.49
534.69	88.94
534.86	46.81
535.03	0.00
535.20	84.26
535.37	95.96
535.54	42.13
535.71	0.00
535.88	126.39
536.05	53.83
536.22	98.30
536.38	0.00
536.55	72.56
536.72	77.24
536.89	53.83
537.06	0.00
537.23	46.81
537.40	2.34
537.57	53.83
537.74	0.00
537.91	0.00
538.08	18.72
538.25	49.15
538.42	0.00
538.59	0.00
538.75	77.24
538.92	93.62
539.09	0.00
539.26	63.19
539.43	25.75
539.60	100.64
539.77	107.66
539.94	11.70
540.11	9.36
540.28	18.72
540.44	98.30
540.61	0.00
540.78	84.26
540.95	35.11
541.12	0.00
541.29	16.38
541.46	39.79
541.62	74.90
541.79	28.09
541.96	51.49
542.13	0.00
542.30	44.47
542.47	16.38
542.63	60.85
542.80	11.70
542.97	0.00
543.14	44.47
543.31	112.35
543.48	58.51
543.64	30.43
543.81	72.56
543.98	51.49
544.15	112.35
544.32	0.00
544.48	112.35
544.65	23.41
544.82	91.28
544.99	35.11
545.16	67.88
545.32	70.22
545.49	44.47
545.66	14.04
545.83	121.71
546.00	42.13
546.16	0.00
546.33	67.88
546.50	16.38
546.67	100.64
546.83	4.68
547.00	102.98
547.17	16.38
547.34	21.06
547.50	32.77
547.67	84.26
547.84	149.79
548.00	63.19
548.17	7.02
548.34	77.24
548.51	39.79
548.67	4.68
548.84	53.83
549.01	93.62
549.18	14.04
549.34	49.15
549.51	44.47
549.68	86.60
549.84	95.96
550.01	23.41
550.18	16.38
550.34	100.64
550.51	88.94
550.68	56.17
550.84	49.15
551.01	0.00
551.18	0.00
551.34	70.22
551.51	98.30
551.68	53.83
551.84	100.64
552.01	0.00
552.18	58.51
552.34	4.68
552.51	2.34
552.68	60.85
552.84	0.00
553.01	7.02
553.18	0.00
553.34	0.00
553.51	32.77
553.67	16.38
553.84	67.88
554.01	53.83
554.17	81.92
554.34	0.00
554.51	58.51
554.67	0.00
554.84	51.49
555.00	0.00
555.17	70.22
555.33	4.68
555.50	51.49
555.67	60.85
555.83	16.38
556.00	25.75
556.16	11.70
556.33	77.24
556.50	56.17
556.66	0.00
556.83	0.00
556.99	65.54
557.16	63.19
557.32	60.85
557.49	46.81
557.65	0.00
557.82	0.00
557.98	4.68
558.15	121.71
558.32	9.36
558.48	30.43
558.65	23.41
558.81	32.77
558.98	44.47
559.14	49.15
559.31	65.54
559.47	133.41
559.64	0.00
559.80	110.01
559.97	63.19
560.13	39.79
560.30	46.81
560.46	21.06
560.63	60.85
560.79	42.13
560.96	18.72
561.12	0.00
561.29	81.92
561.45	32.77
561.61	58.51
561.78	91.28
561.94	35.11
562.11	70.22
562.27	81.92
562.44	0.00
562.60	84.26
562.77	25.75
562.93	72.56
563.10	32.77
563.26	0.00
563.42	117.03
563.59	7.02
563.75	74.90
563.92	161.50
564.08	84.26
564.24	145.11
564.41	16.38
564.57	9.36
564.74	39.79
564.90	152.13
565.07	51.49
565.23	100.64
565.39	0.00
565.56	0.00
565.72	14.04
565.88	49.15
566.05	42.13
566.21	16.38
566.38	0.00
566.54	98.30
566.70	44.47
566.87	16.38
567.03	74.90
567.19	112.35
567.36	0.00
567.52	37.45
567.68	4.68
567.85	86.60
568.01	0.00
568.17	79.58
568.34	37.45
568.50	4.68
568.66	16.38
568.83	18.72
568.99	58.51
569.15	46.81
569.32	0.00
569.48	93.62
569.64	46.81
569.81	67.88
569.97	56.17
570.13	14.04
570.30	63.19
570.46	37.45
570.62	0.00
570.78	0.00
570.95	53.83
571.11	117.03
571.27	16.38
571.43	56.17
571.60	0.00
571.76	16.38
571.92	0.00
572.09	23.41
572.25	70.22
572.41	35.11
572.57	21.06
572.74	81.92
572.90	86.60
573.06	81.92
573.22	91.28
573.38	46.81
573.55	110.01
573.71	60.85
573.87	42.13
574.03	14.04
574.20	35.11
574.36	84.26
574.52	18.72
574.68	58.51
574.84	79.58
575.01	110.01
575.17	11.70
575.33	21.06
575.49	77.24
575.65	79.58
575.82	145.11
575.98	58.51
576.14	42.13
576.30	0.00
576.46	65.54
576.62	60.85
576.79	56.17
576.95	7.02
577.11	0.00
577.27	0.00
577.43	63.19
577.59	11.70
577.75	11.70
577.92	88.94
578.08	95.96
578.24	32.77
578.40	74.90
578.56	124.05
578.72	37.45
578.88	70.22
579.04	107.66
579.21	28.09
579.37	60.85
579.53	107.66
579.69	49.15
579.85	58.51
580.01	11.70
580.17	37.45
580.33	32.77
580.49	28.09
580.65	7.02
580.82	86.60
580.98	28.09
581.14	53.83
581.30	70.22
581.46	124.05
581.62	23.41
581.78	105.32
581.94	93.62
582.10	11.70
582.26	58.51
582.42	95.96
582.58	46.81
582.74	51.49
582.90	86.60
583.06	95.96
583.22	63.19
583.38	0.00
583.54	2.34
583.70	46.81
583.86	58.51
584.02	110.01
584.18	67.88
584.34	56.17
584.50	0.00
584.66	56.17
584.82	44.47
584.98	86.60
585.14	25.75
585.30	21.06
585.46	121.71
585.62	4.68
585.78	35.11
585.94	74.90
586.10	74.90
586.26	35.11
586.42	0.00
586.58	39.79
586.74	70.22
586.90	7.02
587.06	56.17
587.22	44.47
587.38	21.06
587.54	39.79
587.70	77.24
587.86	0.00
588.02	21.06
588.18	95.96
588.34	67.88
588.49	49.15
588.65	2.34
588.81	72.56
588.97	81.92
589.13	67.88
589.29	32.77
589.45	56.17
589.61	70.22
589.77	60.85
589.93	32.77
590.08	0.00
590.24	21.06
590.40	39.79
590.56	67.88
590.72	23.41
590.88	77.24
591.04	23.41
591.20	35.11
591.35	44.47
591.51	0.00
591.67	63.19
591.83	53.83
591.99	32.77
592.15	60.85
592.31	53.83
592.46	0.00
592.62	2.34
592.78	7.02
592.94	32.77
593.10	42.13
593.26	21.06
593.41	0.00
593.57	44.47
593.73	0.00
593.89	30.43
594.05	37.45
594.20	23.41
594.36	35.11
594.52	37.45
594.68	18.72
594.84	112.35
594.99	56.17
595.15	39.79
595.31	46.81
595.47	28.09
595.62	37.45
595.78	114.69
595.94	42.13
596.10	51.49
596.25	65.54
596.41	86.60
596.57	49.15
596.73	42.13
596.88	74.90
597.04	0.00
597.20	58.51
597.36	117.03
597.51	30.43
597.67	56.17
597.83	23.41
597.99	28.09
598.14	60.85
598.30	11.70
598.46	91.28
598.61	28.09
598.77	25.75
598.93	7.02
599.09	88.94
599.24	7.02
599.40	56.17
599.56	25.75
599.71	91.28
599.87	58.51
600.03	100.64
600.18	65.54
600.34	49.15
600.50	56.17
600.65	28.09
600.81	37.45
600.97	70.22
601.12	30.43
601.28	18.72
601.44	53.83
601.59	21.06
601.75	65.54
601.91	63.19
602.06	58.51
602.22	91.28
602.37	60.85
602.53	21.06
602.69	88.94
602.84	28.09
603.00	0.00
603.16	44.47
603.31	32.77
603.47	0.00
603.62	56.17
603.78	35.11
603.94	30.43
604.09	32.77
604.25	102.98
604.40	58.51
604.56	16.38
604.71	23.41
604.87	0.00
605.03	30.43
605.18	65.54
605.34	67.88
605.49	0.00
605.65	88.94
605.80	39.79
605.96	0.00
606.12	37.45
606.27	16.38
606.43	70.22
606.58	14.04
606.74	42.13
606.89	7.02
607.05	95.96
607.20	65.54
607.36	32.77
607.51	14.04
607.67	18.72
607.82	110.01
607.98	23.41
608.13	84.26
608.29	70.22
608.44	30.43
608.60	37.45
608.75	9.36
608.91	51.49
609.06	0.00
609.22	121.71
609.37	32.77
609.53	44.47
609.68	77.24
609.84	39.79
609.99	79.58
610.15	65.54
610.30	107.66
610.46	9.36
610.61	53.83
610.76	65.54
610.92	46.81
611.07	117.03
611.23	100.64
611.38	39.79
611.54	67.88
611.69	16.38
611.84	53.83
612.00	4.68
612.15	86.60
612.31	39.79
612.46	0.00
612.62	28.09
612.77	0.00
612.92	28.09
613.08	0.00
613.23	0.00
613.39	32.77
613.54	65.54
613.69	74.90
613.85	86.60
614.00	25.75
614.15	63.19
614.31	16.38
614.46	51.49
614.62	11.70
614.77	0.00
614.92	49.15
615.08	14.04
615.23	58.51
615.38	65.54
615.54	0.00
615.69	0.00
615.84	70.22
616.00	63.19
616.15	86.60
616.30	0.00
616.46	37.45
616.61	0.00
616.76	11.70
616.92	42.13
617.07	53.83
617.22	100.64
617.37	32.77
617.53	35.11
617.68	44.47
617.83	56.17
617.99	14.04
618.14	79.58
618.29	86.60
618.45	67.88
618.60	39.79
618.75	63.19
618.90	72.56
619.06	86.60
619.21	35.11
619.36	0.00
619.51	18.72
619.67	56.17
619.82	98.30
619.97	107.66
620.12	16.38
620.28	30.43
620.43	4.68
620.58	42.13
620.73	30.43
620.89	51.49
621.04	74.90
621.19	25.75
621.34	49.15
621.49	46.81
621.65	63.19
621.80	0.00
621.95	91.28
622.10	51.49
622.25	0.00
622.41	51.49
622.56	42.13
622.71	95.96
622.86	88.94
623.01	0.00
623.16	88.94
623.32	98.30
623.47	133.41
623.62	18.72
623.77	7.02
623.92	0.00
624.07	35.11
624.23	0.00
624.38	0.00
624.53	18.72
624.68	67.88
624.83	72.56
624.98	11.70
625.13	46.81
625.29	91.28
625.44	77.24
625.59	0.00
625.74	86.60
625.89	11.70
626.04	44.47
626.19	0.00
626.34	42.13
626.49	42.13
626.65	14.04
626.80	0.00
626.95	145.11
627.10	0.00
627.25	9.36
627.40	46.81
627.55	63.19
627.70	25.75
627.85	21.06
628.00	91.28
628.15	84.26
628.30	72.56
628.45	28.09
628.60	0.00
628.76	32.77
628.91	16.38
629.06	49.15
629.21	11.70
629.36	95.96
629.51	46.81
629.66	79.58
629.81	35.11
629.96	9.36
630.11	67.88
630.26	35.11
630.41	0.00
630.56	35.11
630.71	39.79
630.86	88.94
631.01	30.43
631.16	53.83
631.31	0.00
631.46	23.41
631.61	4.68
631.76	42.13
631.91	0.00
632.06	11.70
632.21	28.09
632.36	37.45
632.51	72.56
632.66	0.00
632.81	44.47
632.96	88.94
633.10	37.45
633.25	98.30
633.40	37.45
633.55	93.62
633.70	11.70
633.85	77.24
634.00	79.58
634.15	30.43
634.30	0.00
634.45	42.13
634.60	37.45
634.75	21.06
634.90	37.45
635.05	2.34
635.19	28.09
635.34	28.09
635.49	81.92
635.64	25.75
635.79	0.00
635.94	72.56
636.09	37.45
636.24	25.75
636.39	58.51
636.53	16.38
636.68	35.11
636.83	74.90
636.98	81.92
637.13	37.45
637.28	37.45
637.43	4.68
637.57	2.34
637.72	49.15
637.87	88.94
638.02	56.17
638.17	0.00
638.32	51.49
638.46	16.38
638.61	65.54
638.76	72.56
638.91	23.41
639.06	49.15
639.20	46.81
639.35	91.28
639.50	74.90
639.65	70.22
639.80	37.45
639.94	32.77
640.09	0.00
640.24	16.38
640.39	56.17
640.54	23.41
640.68	28.09
640.83	42.13
640.98	88.94
641.13	0.00
641.27	65.54
641.42	16.38
641.57	0.00
641.72	2.34
641.86	0.00
642.01	14.04
642.16	0.00
642.31	11.70
642.45	28.09
642.60	21.06
642.75	0.00
642.90	0.00
643.04	93.62
643.19	42.13
643.34	23.41
643.48	88.94
643.63	0.00
643.78	53.83
643.93	0.00
644.07	51.49
644.22	81.92
644.37	77.24
644.51	70.22
644.66	0.00
644.81	39.79
644.95	86.60
645.10	74.90
645.25	60.85
645.39	49.15
645.54	2.34
645.69	0.00
645.83	112.35
645.98	0.00
646.13	21.06
646.27	70.22
646.42	77.24
646.57	58.51
646.71	42.13
646.86	107.66
647.00	37.45
647.15	93.62
647.30	58.51
647.44	49.15
647.59	0.00
647.74	32.77
647.88	86.60
648.03	23.41
648.17	91.28
648.32	14.04
648.47	44.47
648.61	0.00
648.76	128.73
648.90	35.11
649.05	70.22
649.20	53.83
649.34	0.00
649.49	91.28
649.63	84.26
649.78	18.72
649.92	39.79
650.07	51.49
650.21	9.36
650.36	7.02
650.51	0.00
650.65	42.13
650.80	95.96
650.94	32.77
651.09	0.00
651.23	79.58
651.38	42.13
651.52	39.79
651.67	77.24
651.81	28.09
651.96	35.11
652.10	81.92
652.25	2.34
652.39	11.70
652.54	0.00
652.68	25.75
652.83	28.09
652.97	2.34
653.12	28.09
653.26	60.85
653.41	11.70
653.55	84.26
653.70	37.45
653.84	4.68
653.99	88.94
654.13	0.00
654.27	44.47
654.42	0.00
654.56	46.81
654.71	72.56
654.85	88.94
655.00	35.11
655.14	0.00
655.29	0.00
655.43	0.00
655.57	30.43
655.72	0.00
655.86	2.34
656.01	2.34
656.15	32.77
656.30	16.38
656.44	44.47
656.58	0.00
656.73	74.90
656.87	30.43
657.01	0.00
657.16	35.11
657.30	35.11
657.45	77.24
657.59	53.83
657.73	42.13
657.88	0.00
658.02	28.09
658.16	14.04
658.31	14.04
658.45	0.00
658.60	77.24
658.74	7.02
658.88	18.72
659.03	21.06
659.17	0.00
659.31	51.49
659.46	72.56
659.60	0.00
659.74	4.68
659.89	44.47
660.03	42.13
660.17	28.09
660.32	98.30
660.46	25.75
660.60	79.58
660.74	4.68
660.89	0.00
661.03	14.04
661.17	0.00
661.32	49.15
661.46	0.00
661.60	32.77
661.74	0.00
661.89	65.54
662.03	46.81
662.17	84.26
662.31	53.83
662.46	25.75
662.60	98.30
662.74	53.83
662.88	86.60
663.03	37.45
663.17	0.00
663.31	37.45
663.45	70.22
663.60	0.00
663.74	51.49
663.88	16.38
664.02	84.26
664.17	98.30
664.31	0.00
664.45	39.79
664.59	23.41
664.73	72.56
664.88	9.36
665.02	14.04
665.16	0.00
665.30	39.79
665.44	95.96
665.59	28.09
665.73	0.00
665.87	95.96
666.01	53.83
666.15	0.00
666.29	0.00
666.44	121.71
666.58	0.00
666.72	72.56
666.86	88.94
667.00	65.54
667.14	93.62
667.28	0.00
667.43	21.06
667.57	0.00
667.71	16.38
667.85	21.06
667.99	49.15
668.13	42.13
668.27	74.90
668.41	25.75
668.56	32.77
668.70	44.47
668.84	25.75
668.98	9.36
669.12	0.00
669.26	58.51
669.40	79.58
669.54	18.72
669.68	44.47
669.82	72.56
669.96	58.51
670.10	0.00
670.25	25.75
670.39	53.83
670.53	7.02
670.67	0.00
670.81	46.81
670.95	74.90
671.09	2.34
671.23	70.22
671.37	39.79
671.51	30.43
671.65	35.11
671.79	0.00
671.93	102.98
672.07	0.00
672.21	37.45
672.35	11.70
672.49	42.13
672.63	70.22
672.77	32.77
672.91	18.72
673.05	23.41
673.19	67.88
673.33	67.88
673.47	86.60
673.61	65.54
673.75	23.41
673.89	21.06
674.03	63.19
674.17	18.72
674.31	37.45
674.45	16.38
674.59	14.04
674.73	98.30
674.87	79.58
675.01	25.75
675.15	39.79
675.29	65.54
675.43	21.06
675.56	16.38
675.70	70.22
675.84	58.51
675.98	49.15
676.12	56.17
676.26	0.00
676.40	11.70
676.54	60.85
676.68	95.96
676.82	44.47
676.96	11.70
677.10	0.00
677.23	37.45
677.37	7.02
677.51	23.41
677.65	84.26
677.79	112.35
677.93	46.81
678.07	2.34
678.21	2.34
678.34	0.00
678.48	74.90
678.62	9.36
678.76	39.79
678.90	35.11
679.04	39.79
679.18	72.56
679.31	25.75
679.45	7.02
679.59	18.72
679.73	0.00
679.87	42.13
680.00	0.00
680.14	51.49
680.28	51.49
680.42	14.04
680.56	37.45
680.70	46.81
680.83	30.43
680.97	46.81
681.11	4.68
681.25	74.90
681.39	23.41
681.52	0.00
681.66	72.56
681.80	4.68
681.94	18.72
682.07	88.94
682.21	67.88
682.35	0.00
682.49	42.13
682.62	53.83
682.76	37.45
682.90	4.68
683.04	42.13
683.17	0.00
683.31	46.81
683.45	74.90
683.59	58.51
683.72	23.41
683.86	58.51
684.00	53.83
684.13	0.00
684.27	46.81
684.41	58.51
684.55	35.11
684.68	0.00
684.82	44.47
684.96	32.77
685.09	72.56
685.23	7.02
685.37	0.00
685.50	0.00
685.64	77.24
685.78	30.43
685.91	37.45
686.05	0.00
686.19	105.32
686.32	0.00
686.46	46.81
686.60	49.15
686.73	32.77
686.87	30.43
687.01	0.00
687.14	35.11
687.28	0.00
687.42	60.85
687.55	102.98
687.69	4.68
687.82	18.72
687.96	35.11
688.10	18.72
688.23	30.43
688.37	2.34
688.50	37.45
688.64	74.90
688.78	0.00
688.91	28.09
689.05	51.49
689.18	44.47
689.32	18.72
689.46	67.88
689.59	88.94
689.73	88.94
689.86	0.00
690.00	65.54
690.13	42.13
690.27	9.36
690.41	56.17
690.54	39.79
690.68	86.60
690.81	2.34
690.95	0.00
691.08	0.00
691.22	11.70
691.35	0.00
691.49	7.02
691.62	74.90
691.76	0.00
691.89	88.94
692.03	9.36
692.16	21.06
692.30	18.72
692.43	0.00
692.57	0.00
692.70	0.00
692.84	0.00
692.97	32.77
693.11	0.00
693.24	0.00
693.38	70.22
693.51	58.51
693.65	21.06
693.78	16.38
693.92	0.00
694.05	42.13
694.19	37.45
694.32	102.98
694.45	0.00
694.59	44.47
694.72	70.22
694.86	21.06
694.99	58.51
695.13	21.06
695.26	23.41
695.39	51.49
695.53	51.49
695.66	74.90
695.80	58.51
695.93	18.72
696.07	100.64
696.20	70.22
696.33	11.70
696.47	0.00
696.60	53.83
696.73	70.22
696.87	65.54
697.00	91.28
697.14	9.36
697.27	9.36
697.40	51.49
697.54	18.72
697.67	0.00
697.80	11.70
697.94	70.22
698.07	23.41
698.21	0.00
698.34	39.79
698.47	0.00
698.61	60.85
698.74	0.00
698.87	11.70
699.01	7.02
699.14	35.11
699.27	23.41
699.40	18.72
699.54	98.30
699.67	7.02
699.80	44.47
699.94	9.36
700.07	37.45
700.20	37.45
700.34	44.47
700.47	84.26
700.60	46.81
700.73	56.17
700.87	23.41
701.00	37.45
701.13	107.66
701.26	74.90
701.40	9.36
701.53	51.49
701.66	28.09
701.79	74.90
701.93	51.49
702.06	77.24
702.19	56.17
702.32	46.81
702.46	114.69
702.59	0.00
702.72	9.36
702.85	65.54
702.99	0.00
703.12	74.90
703.25	42.13
703.38	79.58
703.51	18.72
703.65	18.72
703.78	49.15
703.91	28.09
704.04	14.04
704.17	37.45
704.31	37.45
704.44	0.00
704.57	95.96
704.70	93.62
704.83	58.51
704.96	51.49
705.10	9.36
705.23	74.90
>>>>>End Processed Spectral Data<<<<<
