SpectraSuite Data File
++++++++++++++++++++++++++++++++++++
Date: Fri Oct 04 12:13:38 GMT-05:00 2013
User: price-jones
Dark Spectrum Present: No
Reference Spectrum Present: No
Number of Sampled Component Spectra: 1
Spectrometers: USB2+H05261
Integration Time (usec): 10000 (USB2+H05261)
Spectra Averaged: 1 (USB2+H05261)
Boxcar Smoothing: 0 (USB2+H05261)
Correct for Electrical Dark: No (USB2+H05261)
Strobe/Lamp Enabled: No (USB2+H05261)
Correct for Detector Non-linearity: No (USB2+H05261)
Correct for Stray Light: No (USB2+H05261)
Number of Pixels in Processed Spectrum: 2048
>>>>>Begin Processed Spectral Data<<<<<
365.73	74.90
365.92	74.90
366.12	74.90
366.32	0.00
366.52	0.00
366.72	0.00
366.91	0.00
367.11	0.00
367.31	0.00
367.51	0.00
367.70	0.00
367.90	0.00
368.10	0.00
368.30	0.00
368.49	0.00
368.69	0.00
368.89	0.00
369.09	0.00
369.28	0.00
369.48	0.00
369.68	0.00
369.87	0.00
370.07	0.00
370.27	0.00
370.47	0.00
370.66	0.00
370.86	0.00
371.06	0.00
371.25	0.00
371.45	0.00
371.65	14.04
371.84	0.00
372.04	44.47
372.24	9.36
372.44	0.00
372.63	7.02
372.83	65.54
373.03	0.00
373.22	0.00
373.42	53.83
373.62	0.00
373.81	23.41
374.01	0.00
374.21	86.60
374.40	42.13
374.60	37.45
374.79	7.02
374.99	88.94
375.19	28.09
375.38	44.47
375.58	0.00
375.78	18.72
375.97	84.26
376.17	56.17
376.37	44.47
376.56	35.11
376.76	56.17
376.95	53.83
377.15	58.51
377.35	98.30
377.54	9.36
377.74	30.43
377.93	117.03
378.13	117.03
378.33	9.36
378.52	0.00
378.72	93.62
378.91	0.00
379.11	28.09
379.31	23.41
379.50	11.70
379.70	0.00
379.89	21.06
380.09	7.02
380.28	7.02
380.48	11.70
380.68	77.24
380.87	0.00
381.07	11.70
381.26	56.17
381.46	30.43
381.65	4.68
381.85	74.90
382.04	60.85
382.24	21.06
382.43	0.00
382.63	25.75
382.83	44.47
383.02	37.45
383.22	0.00
383.41	0.00
383.61	4.68
383.80	100.64
384.00	7.02
384.19	21.06
384.39	16.38
384.58	0.00
384.78	0.00
384.97	0.00
385.17	14.04
385.36	16.38
385.56	74.90
385.75	14.04
385.95	0.00
386.14	93.62
386.34	14.04
386.53	53.83
386.72	60.85
386.92	49.15
387.11	58.51
387.31	0.00
387.50	0.00
387.70	49.15
387.89	0.00
388.09	53.83
388.28	51.49
388.48	53.83
388.67	0.00
388.86	25.75
389.06	11.70
389.25	0.00
389.45	81.92
389.64	39.79
389.84	63.19
390.03	81.92
390.22	112.35
390.42	9.36
390.61	2.34
390.81	0.00
391.00	4.68
391.19	11.70
391.39	14.04
391.58	0.00
391.78	23.41
391.97	23.41
392.16	11.70
392.36	16.38
392.55	0.00
392.75	21.06
392.94	58.51
393.13	0.00
393.33	51.49
393.52	14.04
393.71	51.49
393.91	30.43
394.10	44.47
394.29	67.88
394.49	0.00
394.68	93.62
394.88	42.13
395.07	84.26
395.26	30.43
395.46	60.85
395.65	72.56
395.84	0.00
396.04	65.54
396.23	9.36
396.42	23.41
396.62	0.00
396.81	0.00
397.00	0.00
397.19	49.15
397.39	4.68
397.58	42.13
397.77	70.22
397.97	4.68
398.16	39.79
398.35	44.47
398.55	37.45
398.74	2.34
398.93	79.58
399.12	56.17
399.32	77.24
399.51	0.00
399.70	56.17
399.90	0.00
400.09	21.06
400.28	25.75
400.47	0.00
400.67	23.41
400.86	65.54
401.05	0.00
401.24	65.54
401.44	35.11
401.63	51.49
401.82	65.54
402.01	16.38
402.21	0.00
402.40	44.47
402.59	0.00
402.78	14.04
402.97	18.72
403.17	56.17
403.36	0.00
403.55	0.00
403.74	4.68
403.93	39.79
404.13	0.00
404.32	44.47
404.51	0.00
404.70	70.22
404.89	0.00
405.09	18.72
405.28	60.85
405.47	0.00
405.66	0.00
405.85	30.43
406.05	30.43
406.24	72.56
406.43	0.00
406.62	14.04
406.81	110.01
407.00	70.22
407.20	25.75
407.39	0.00
407.58	0.00
407.77	51.49
407.96	35.11
408.15	72.56
408.34	46.81
408.54	49.15
408.73	63.19
408.92	35.11
409.11	30.43
409.30	0.00
409.49	35.11
409.68	30.43
409.87	37.45
410.07	21.06
410.26	35.11
410.45	9.36
410.64	30.43
410.83	46.81
411.02	7.02
411.21	49.15
411.40	53.83
411.59	39.79
411.78	91.28
411.98	23.41
412.17	30.43
412.36	112.35
412.55	0.00
412.74	16.38
412.93	42.13
413.12	25.75
413.31	95.96
413.50	91.28
413.69	25.75
413.88	67.88
414.07	56.17
414.26	9.36
414.45	56.17
414.64	35.11
414.83	88.94
415.02	11.70
415.22	77.24
415.41	0.00
415.60	35.11
415.79	72.56
415.98	65.54
416.17	110.01
416.36	107.66
416.55	0.00
416.74	35.11
416.93	46.81
417.12	2.34
417.31	44.47
417.50	0.00
417.69	60.85
417.88	84.26
418.07	102.98
418.26	70.22
418.45	16.38
418.64	28.09
418.83	60.85
419.02	77.24
419.21	67.88
419.39	42.13
419.58	0.00
419.77	35.11
419.96	9.36
420.15	60.85
420.34	95.96
420.53	18.72
420.72	0.00
420.91	86.60
421.10	23.41
421.29	65.54
421.48	46.81
421.67	28.09
421.86	35.11
422.05	32.77
422.24	98.30
422.43	100.64
422.61	60.85
422.80	51.49
422.99	32.77
423.18	84.26
423.37	65.54
423.56	44.47
423.75	16.38
423.94	70.22
424.13	46.81
424.32	23.41
424.50	72.56
424.69	0.00
424.88	72.56
425.07	42.13
425.26	65.54
425.45	0.00
425.64	98.30
425.83	7.02
426.01	11.70
426.20	77.24
426.39	51.49
426.58	98.30
426.77	0.00
426.96	28.09
427.15	51.49
427.33	63.19
427.52	53.83
427.71	121.71
427.90	0.00
428.09	0.00
428.28	0.00
428.46	39.79
428.65	149.79
428.84	0.00
429.03	53.83
429.22	53.83
429.40	77.24
429.59	105.32
429.78	81.92
429.97	18.72
430.16	51.49
430.34	39.79
430.53	60.85
430.72	86.60
430.91	77.24
431.10	42.13
431.28	11.70
431.47	124.05
431.66	49.15
431.85	98.30
432.03	11.70
432.22	86.60
432.41	67.88
432.60	58.51
432.79	44.47
432.97	84.26
433.16	133.41
433.35	32.77
433.54	95.96
433.72	0.00
433.91	23.41
434.10	4.68
434.28	37.45
434.47	74.90
434.66	58.51
434.85	0.00
435.03	58.51
435.22	53.83
435.41	84.26
435.59	21.06
435.78	4.68
435.97	65.54
436.16	79.58
436.34	35.11
436.53	86.60
436.72	70.22
436.90	0.00
437.09	39.79
437.28	0.00
437.46	140.43
437.65	0.00
437.84	0.00
438.02	35.11
438.21	95.96
438.40	30.43
438.58	0.00
438.77	37.45
438.96	0.00
439.14	58.51
439.33	0.00
439.52	0.00
439.70	35.11
439.89	35.11
440.08	39.79
440.26	18.72
440.45	42.13
440.63	7.02
440.82	72.56
441.01	51.49
441.19	110.01
441.38	21.06
441.57	70.22
441.75	77.24
441.94	102.98
442.12	49.15
442.31	51.49
442.50	72.56
442.68	44.47
442.87	28.09
443.05	105.32
443.24	65.54
443.43	65.54
443.61	86.60
443.80	32.77
443.98	0.00
444.17	100.64
444.35	42.13
444.54	23.41
444.73	110.01
444.91	42.13
445.10	16.38
445.28	58.51
445.47	67.88
445.65	28.09
445.84	44.47
446.02	77.24
446.21	16.38
446.39	86.60
446.58	44.47
446.77	86.60
446.95	88.94
447.14	39.79
447.32	32.77
447.51	105.32
447.69	86.60
447.88	100.64
448.06	58.51
448.25	67.88
448.43	56.17
448.62	21.06
448.80	131.07
448.99	93.62
449.17	0.00
449.36	30.43
449.54	121.71
449.73	56.17
449.91	140.43
450.10	0.00
450.28	74.90
450.46	119.37
450.65	105.32
450.83	28.09
451.02	32.77
451.20	42.13
451.39	11.70
451.57	21.06
451.76	2.34
451.94	49.15
452.13	32.77
452.31	56.17
452.49	70.22
452.68	53.83
452.86	39.79
453.05	32.77
453.23	126.39
453.42	102.98
453.60	58.51
453.78	30.43
453.97	70.22
454.15	28.09
454.34	44.47
454.52	32.77
454.70	0.00
454.89	23.41
455.07	77.24
455.26	42.13
455.44	67.88
455.62	70.22
455.81	79.58
455.99	0.00
456.17	88.94
456.36	72.56
456.54	42.13
456.73	65.54
456.91	0.00
457.09	74.90
457.28	133.41
457.46	9.36
457.64	46.81
457.83	63.19
458.01	79.58
458.19	72.56
458.38	67.88
458.56	67.88
458.74	0.00
458.93	23.41
459.11	100.64
459.29	86.60
459.48	32.77
459.66	70.22
459.84	46.81
460.03	124.05
460.21	23.41
460.39	81.92
460.57	65.54
460.76	65.54
460.94	56.17
461.12	37.45
461.31	11.70
461.49	32.77
461.67	65.54
461.85	42.13
462.04	124.05
462.22	184.90
462.40	4.68
462.59	49.15
462.77	44.47
462.95	91.28
463.13	102.98
463.32	18.72
463.50	51.49
463.68	84.26
463.86	0.00
464.05	21.06
464.23	65.54
464.41	23.41
464.59	60.85
464.78	93.62
464.96	105.32
465.14	65.54
465.32	0.00
465.50	86.60
465.69	60.85
465.87	126.39
466.05	65.54
466.23	74.90
466.41	51.49
466.60	110.01
466.78	102.98
466.96	60.85
467.14	72.56
467.32	0.00
467.51	79.58
467.69	56.17
467.87	105.32
468.05	65.54
468.23	126.39
468.41	88.94
468.60	32.77
468.78	56.17
468.96	35.11
469.14	72.56
469.32	32.77
469.50	86.60
469.69	14.04
469.87	51.49
470.05	32.77
470.23	70.22
470.41	9.36
470.59	86.60
470.77	58.51
470.95	56.17
471.14	84.26
471.32	77.24
471.50	81.92
471.68	79.58
471.86	70.22
472.04	21.06
472.22	0.00
472.40	100.64
472.58	84.26
472.77	79.58
472.95	37.45
473.13	14.04
473.31	86.60
473.49	67.88
473.67	28.09
473.85	58.51
474.03	67.88
474.21	95.96
474.39	79.58
474.57	63.19
474.75	63.19
474.93	28.09
475.12	121.71
475.30	133.41
475.48	88.94
475.66	67.88
475.84	25.75
476.02	23.41
476.20	135.75
476.38	100.64
476.56	51.49
476.74	0.00
476.92	79.58
477.10	49.15
477.28	56.17
477.46	42.13
477.64	74.90
477.82	0.00
478.00	53.83
478.18	0.00
478.36	0.00
478.54	21.06
478.72	44.47
478.90	53.83
479.08	42.13
479.26	72.56
479.44	107.66
479.62	49.15
479.80	35.11
479.98	93.62
480.16	51.49
480.34	107.66
480.52	112.35
480.70	95.96
480.88	49.15
481.06	0.00
481.24	51.49
481.41	39.79
481.59	74.90
481.77	4.68
481.95	0.00
482.13	56.17
482.31	110.01
482.49	60.85
482.67	37.45
482.85	117.03
483.03	110.01
483.21	95.96
483.39	117.03
483.57	11.70
483.74	91.28
483.92	53.83
484.10	49.15
484.28	119.37
484.46	98.30
484.64	98.30
484.82	58.51
485.00	86.60
485.18	107.66
485.35	39.79
485.53	72.56
485.71	30.43
485.89	77.24
486.07	86.60
486.25	16.38
486.43	23.41
486.61	56.17
486.78	72.56
486.96	79.58
487.14	102.98
487.32	30.43
487.50	100.64
487.68	25.75
487.85	53.83
488.03	77.24
488.21	46.81
488.39	131.07
488.57	49.15
488.75	16.38
488.92	56.17
489.10	53.83
489.28	135.75
489.46	35.11
489.64	121.71
489.81	117.03
489.99	39.79
490.17	77.24
490.35	84.26
490.53	42.13
490.70	67.88
490.88	65.54
491.06	88.94
491.24	88.94
491.41	46.81
491.59	107.66
491.77	131.07
491.95	58.51
492.13	16.38
492.30	58.51
492.48	65.54
492.66	86.60
492.84	65.54
493.01	46.81
493.19	39.79
493.37	32.77
493.54	56.17
493.72	156.82
493.90	35.11
494.08	128.73
494.25	107.66
494.43	107.66
494.61	121.71
494.79	114.69
494.96	56.17
495.14	32.77
495.32	112.35
495.49	91.28
495.67	51.49
495.85	105.32
496.02	49.15
496.20	81.92
496.38	11.70
496.55	98.30
496.73	84.26
496.91	138.09
497.09	79.58
497.26	81.92
497.44	95.96
497.62	81.92
497.79	81.92
497.97	93.62
498.14	51.49
498.32	121.71
498.50	21.06
498.67	49.15
498.85	79.58
499.03	119.37
499.20	70.22
499.38	156.82
499.56	161.50
499.73	168.52
499.91	84.26
500.08	98.30
500.26	49.15
500.44	56.17
500.61	42.13
500.79	42.13
500.97	135.75
501.14	91.28
501.32	37.45
501.49	46.81
501.67	95.96
501.84	124.05
502.02	88.94
502.20	67.88
502.37	100.64
502.55	60.85
502.72	95.96
502.90	110.01
503.07	95.96
503.25	124.05
503.43	49.15
503.60	91.28
503.78	56.17
503.95	46.81
504.13	81.92
504.30	112.35
504.48	77.24
504.65	93.62
504.83	67.88
505.01	37.45
505.18	60.85
505.36	110.01
505.53	21.06
505.71	32.77
505.88	152.13
506.06	196.60
506.23	79.58
506.41	77.24
506.58	93.62
506.76	0.00
506.93	46.81
507.11	98.30
507.28	102.98
507.46	86.60
507.63	63.19
507.81	32.77
507.98	88.94
508.16	84.26
508.33	142.77
508.50	21.06
508.68	44.47
508.85	135.75
509.03	7.02
509.20	107.66
509.38	100.64
509.55	112.35
509.73	79.58
509.90	42.13
510.08	95.96
510.25	37.45
510.42	37.45
510.60	74.90
510.77	51.49
510.95	0.00
511.12	124.05
511.30	46.81
511.47	42.13
511.64	0.00
511.82	9.36
511.99	131.07
512.17	53.83
512.34	100.64
512.51	77.24
512.69	39.79
512.86	51.49
513.04	154.48
513.21	44.47
513.38	81.92
513.56	138.09
513.73	58.51
513.90	124.05
514.08	39.79
514.25	81.92
514.43	95.96
514.60	51.49
514.77	95.96
514.95	114.69
515.12	98.30
515.29	126.39
515.47	37.45
515.64	105.32
515.81	60.85
515.99	112.35
516.16	91.28
516.33	44.47
516.51	46.81
516.68	70.22
516.85	105.32
517.03	39.79
517.20	58.51
517.37	14.04
517.54	110.01
517.72	72.56
517.89	35.11
518.06	58.51
518.24	81.92
518.41	102.98
518.58	60.85
518.75	70.22
518.93	60.85
519.10	65.54
519.27	114.69
519.45	37.45
519.62	117.03
519.79	138.09
519.96	67.88
520.14	107.66
520.31	112.35
520.48	56.17
520.65	9.36
520.83	49.15
521.00	135.75
521.17	72.56
521.34	102.98
521.52	46.81
521.69	100.64
521.86	86.60
522.03	102.98
522.20	135.75
522.38	46.81
522.55	35.11
522.72	42.13
522.89	175.54
523.07	105.32
523.24	32.77
523.41	117.03
523.58	86.60
523.75	32.77
523.92	124.05
524.10	112.35
524.27	63.19
524.44	79.58
524.61	124.05
524.78	88.94
524.96	58.51
525.13	58.51
525.30	149.79
525.47	100.64
525.64	114.69
525.81	32.77
525.98	44.47
526.16	138.09
526.33	91.28
526.50	60.85
526.67	46.81
526.84	117.03
527.01	65.54
527.18	91.28
527.36	23.41
527.53	93.62
527.70	74.90
527.87	100.64
528.04	70.22
528.21	11.70
528.38	100.64
528.55	79.58
528.72	65.54
528.89	133.41
529.07	124.05
529.24	187.24
529.41	84.26
529.58	42.13
529.75	16.38
529.92	84.26
530.09	88.94
530.26	9.36
530.43	105.32
530.60	63.19
530.77	81.92
530.94	105.32
531.11	28.09
531.28	112.35
531.46	39.79
531.63	81.92
531.80	121.71
531.97	49.15
532.14	154.48
532.31	105.32
532.48	135.75
532.65	81.92
532.82	77.24
532.99	30.43
533.16	98.30
533.33	159.16
533.50	74.90
533.67	23.41
533.84	72.56
534.01	56.17
534.18	32.77
534.35	112.35
534.52	53.83
534.69	53.83
534.86	93.62
535.03	60.85
535.20	112.35
535.37	98.30
535.54	84.26
535.71	154.48
535.88	53.83
536.05	147.45
536.22	21.06
536.38	72.56
536.55	105.32
536.72	100.64
536.89	28.09
537.06	105.32
537.23	72.56
537.40	100.64
537.57	114.69
537.74	72.56
537.91	65.54
538.08	102.98
538.25	32.77
538.42	25.75
538.59	63.19
538.75	110.01
538.92	23.41
539.09	44.47
539.26	152.13
539.43	51.49
539.60	119.37
539.77	93.62
539.94	70.22
540.11	37.45
540.28	74.90
540.44	39.79
540.61	81.92
540.78	121.71
540.95	86.60
541.12	102.98
541.29	72.56
541.46	112.35
541.62	70.22
541.79	42.13
541.96	67.88
542.13	140.43
542.30	56.17
542.47	98.30
542.63	53.83
542.80	81.92
542.97	98.30
543.14	49.15
543.31	93.62
543.48	81.92
543.64	79.58
543.81	84.26
543.98	131.07
544.15	95.96
544.32	35.11
544.48	102.98
544.65	93.62
544.82	4.68
544.99	58.51
545.16	53.83
545.32	77.24
545.49	77.24
545.66	133.41
545.83	16.38
546.00	53.83
546.16	100.64
546.33	126.39
546.50	102.98
546.67	39.79
546.83	49.15
547.00	42.13
547.17	95.96
547.34	95.96
547.50	74.90
547.67	138.09
547.84	72.56
548.00	39.79
548.17	140.43
548.34	4.68
548.51	79.58
548.67	77.24
548.84	110.01
549.01	53.83
549.18	77.24
549.34	110.01
549.51	58.51
549.68	98.30
549.84	93.62
550.01	65.54
550.18	72.56
550.34	105.32
550.51	110.01
550.68	25.75
550.84	173.20
551.01	135.75
551.18	98.30
551.34	49.15
551.51	114.69
551.68	21.06
551.84	63.19
552.01	72.56
552.18	14.04
552.34	98.30
552.51	88.94
552.68	119.37
552.84	98.30
553.01	86.60
553.18	42.13
553.34	60.85
553.51	42.13
553.67	91.28
553.84	81.92
554.01	44.47
554.17	74.90
554.34	46.81
554.51	65.54
554.67	39.79
554.84	70.22
555.00	56.17
555.17	135.75
555.33	53.83
555.50	102.98
555.67	145.11
555.83	98.30
556.00	138.09
556.16	32.77
556.33	60.85
556.50	142.77
556.66	56.17
556.83	58.51
556.99	91.28
557.16	81.92
557.32	110.01
557.49	105.32
557.65	56.17
557.82	117.03
557.98	72.56
558.15	53.83
558.32	112.35
558.48	53.83
558.65	86.60
558.81	142.77
558.98	28.09
559.14	159.16
559.31	84.26
559.47	58.51
559.64	102.98
559.80	91.28
559.97	100.64
560.13	72.56
560.30	70.22
560.46	105.32
560.63	79.58
560.79	117.03
560.96	117.03
561.12	93.62
561.29	145.11
561.45	79.58
561.61	95.96
561.78	128.73
561.94	39.79
562.11	138.09
562.27	37.45
562.44	107.66
562.60	93.62
562.77	35.11
562.93	98.30
563.10	81.92
563.26	49.15
563.42	128.73
563.59	121.71
563.75	63.19
563.92	105.32
564.08	60.85
564.24	63.19
564.41	93.62
564.57	114.69
564.74	44.47
564.90	128.73
565.07	42.13
565.23	98.30
565.39	70.22
565.56	93.62
565.72	98.30
565.88	65.54
566.05	119.37
566.21	84.26
566.38	60.85
566.54	67.88
566.70	95.96
566.87	105.32
567.03	56.17
567.19	35.11
567.36	95.96
567.52	86.60
567.68	56.17
567.85	95.96
568.01	9.36
568.17	60.85
568.34	81.92
568.50	128.73
568.66	135.75
568.83	133.41
568.99	138.09
569.15	51.49
569.32	7.02
569.48	98.30
569.64	102.98
569.81	72.56
569.97	58.51
570.13	65.54
570.30	107.66
570.46	91.28
570.62	110.01
570.78	28.09
570.95	81.92
571.11	70.22
571.27	114.69
571.43	65.54
571.60	81.92
571.76	44.47
571.92	74.90
572.09	35.11
572.25	0.00
572.41	112.35
572.57	88.94
572.74	119.37
572.90	124.05
573.06	128.73
573.22	65.54
573.38	67.88
573.55	74.90
573.71	95.96
573.87	0.00
574.03	105.32
574.20	79.58
574.36	98.30
574.52	39.79
574.68	138.09
574.84	133.41
575.01	30.43
575.17	25.75
575.33	46.81
575.49	37.45
575.65	93.62
575.82	100.64
575.98	93.62
576.14	194.26
576.30	105.32
576.46	86.60
576.62	30.43
576.79	163.84
576.95	88.94
577.11	100.64
577.27	0.00
577.43	49.15
577.59	114.69
577.75	131.07
577.92	117.03
578.08	79.58
578.24	86.60
578.40	32.77
578.56	46.81
578.72	95.96
578.88	11.70
579.04	105.32
579.21	21.06
579.37	51.49
579.53	37.45
579.69	58.51
579.85	44.47
580.01	63.19
580.17	124.05
580.33	77.24
580.49	67.88
580.65	67.88
580.82	74.90
580.98	44.47
581.14	72.56
581.30	21.06
581.46	70.22
581.62	67.88
581.78	86.60
581.94	102.98
582.10	98.30
582.26	65.54
582.42	121.71
582.58	93.62
582.74	39.79
582.90	93.62
583.06	39.79
583.22	149.79
583.38	32.77
583.54	56.17
583.70	107.66
583.86	74.90
584.02	70.22
584.18	65.54
584.34	107.66
584.50	67.88
584.66	14.04
584.82	28.09
584.98	28.09
585.14	56.17
585.30	117.03
585.46	60.85
585.62	44.47
585.78	67.88
585.94	70.22
586.10	119.37
586.26	65.54
586.42	138.09
586.58	30.43
586.74	65.54
586.90	65.54
587.06	67.88
587.22	9.36
587.38	70.22
587.54	74.90
587.70	100.64
587.86	88.94
588.02	110.01
588.18	72.56
588.34	140.43
588.49	128.73
588.65	53.83
588.81	0.00
588.97	67.88
589.13	110.01
589.29	58.51
589.45	86.60
589.61	37.45
589.77	84.26
589.93	56.17
590.08	49.15
590.24	67.88
590.40	131.07
590.56	81.92
590.72	107.66
590.88	86.60
591.04	65.54
591.20	86.60
591.35	84.26
591.51	53.83
591.67	21.06
591.83	95.96
591.99	74.90
592.15	84.26
592.31	98.30
592.46	60.85
592.62	53.83
592.78	95.96
592.94	58.51
593.10	79.58
593.26	70.22
593.41	79.58
593.57	91.28
593.73	81.92
593.89	42.13
594.05	79.58
594.20	42.13
594.36	49.15
594.52	95.96
594.68	51.49
594.84	42.13
594.99	107.66
595.15	88.94
595.31	121.71
595.47	121.71
595.62	105.32
595.78	37.45
595.94	67.88
596.10	81.92
596.25	84.26
596.41	138.09
596.57	98.30
596.73	30.43
596.88	11.70
597.04	72.56
597.20	135.75
597.36	11.70
597.51	49.15
597.67	110.01
597.83	63.19
597.99	14.04
598.14	16.38
598.30	49.15
598.46	53.83
598.61	84.26
598.77	49.15
598.93	16.38
599.09	37.45
599.24	67.88
599.40	67.88
599.56	56.17
599.71	60.85
599.87	133.41
600.03	18.72
600.18	100.64
600.34	63.19
600.50	60.85
600.65	107.66
600.81	74.90
600.97	42.13
601.12	44.47
601.28	46.81
601.44	25.75
601.59	100.64
601.75	65.54
601.91	84.26
602.06	11.70
602.22	114.69
602.37	49.15
602.53	9.36
602.69	70.22
602.84	84.26
603.00	91.28
603.16	91.28
603.31	81.92
603.47	30.43
603.62	58.51
603.78	46.81
603.94	23.41
604.09	11.70
604.25	105.32
604.40	30.43
604.56	65.54
604.71	65.54
604.87	60.85
605.03	88.94
605.18	60.85
605.34	37.45
605.49	145.11
605.65	49.15
605.80	53.83
605.96	53.83
606.12	35.11
606.27	58.51
606.43	58.51
606.58	79.58
606.74	11.70
606.89	77.24
607.05	18.72
607.20	58.51
607.36	77.24
607.51	65.54
607.67	100.64
607.82	168.52
607.98	100.64
608.13	93.62
608.29	0.00
608.44	117.03
608.60	110.01
608.75	65.54
608.91	11.70
609.06	65.54
609.22	63.19
609.37	35.11
609.53	0.00
609.68	53.83
609.84	102.98
609.99	110.01
610.15	0.00
610.30	53.83
610.46	98.30
610.61	74.90
610.76	16.38
610.92	0.00
611.07	126.39
611.23	110.01
611.38	74.90
611.54	51.49
611.69	49.15
611.84	112.35
612.00	60.85
612.15	131.07
612.31	72.56
612.46	35.11
612.62	44.47
612.77	53.83
612.92	21.06
613.08	35.11
613.23	81.92
613.39	58.51
613.54	51.49
613.69	102.98
613.85	70.22
614.00	42.13
614.15	114.69
614.31	49.15
614.46	37.45
614.62	42.13
614.77	135.75
614.92	58.51
615.08	49.15
615.23	39.79
615.38	32.77
615.54	42.13
615.69	28.09
615.84	72.56
616.00	93.62
616.15	37.45
616.30	105.32
616.46	37.45
616.61	9.36
616.76	58.51
616.92	91.28
617.07	72.56
617.22	18.72
617.37	107.66
617.53	110.01
617.68	70.22
617.83	84.26
617.99	84.26
618.14	0.00
618.29	53.83
618.45	105.32
618.60	0.00
618.75	28.09
618.90	56.17
619.06	51.49
619.21	84.26
619.36	112.35
619.51	28.09
619.67	51.49
619.82	49.15
619.97	60.85
620.12	110.01
620.28	84.26
620.43	81.92
620.58	60.85
620.73	32.77
620.89	39.79
621.04	0.00
621.19	63.19
621.34	93.62
621.49	121.71
621.65	49.15
621.80	14.04
621.95	32.77
622.10	72.56
622.25	107.66
622.41	9.36
622.56	28.09
622.71	93.62
622.86	79.58
623.01	95.96
623.16	79.58
623.32	95.96
623.47	37.45
623.62	117.03
623.77	32.77
623.92	0.00
624.07	23.41
624.23	100.64
624.38	46.81
624.53	121.71
624.68	51.49
624.83	23.41
624.98	67.88
625.13	56.17
625.29	72.56
625.44	60.85
625.59	79.58
625.74	53.83
625.89	100.64
626.04	107.66
626.19	28.09
626.34	107.66
626.49	77.24
626.65	124.05
626.80	70.22
626.95	77.24
627.10	0.00
627.25	21.06
627.40	42.13
627.55	58.51
627.70	86.60
627.85	30.43
628.00	74.90
628.15	65.54
628.30	35.11
628.45	35.11
628.60	79.58
628.76	98.30
628.91	126.39
629.06	74.90
629.21	86.60
629.36	35.11
629.51	37.45
629.66	72.56
629.81	72.56
629.96	32.77
630.11	91.28
630.26	21.06
630.41	72.56
630.56	60.85
630.71	70.22
630.86	32.77
631.01	70.22
631.16	46.81
631.31	46.81
631.46	95.96
631.61	42.13
631.76	91.28
631.91	51.49
632.06	42.13
632.21	95.96
632.36	124.05
632.51	105.32
632.66	39.79
632.81	95.96
632.96	65.54
633.10	105.32
633.25	107.66
633.40	9.36
633.55	74.90
633.70	105.32
633.85	110.01
634.00	60.85
634.15	74.90
634.30	67.88
634.45	51.49
634.60	42.13
634.75	58.51
634.90	32.77
635.05	63.19
635.19	35.11
635.34	56.17
635.49	98.30
635.64	86.60
635.79	42.13
635.94	128.73
636.09	28.09
636.24	28.09
636.39	86.60
636.53	79.58
636.68	37.45
636.83	56.17
636.98	58.51
637.13	30.43
637.28	70.22
637.43	0.00
637.57	98.30
637.72	18.72
637.87	107.66
638.02	77.24
638.17	49.15
638.32	65.54
638.46	100.64
638.61	65.54
638.76	102.98
638.91	49.15
639.06	44.47
639.20	102.98
639.35	67.88
639.50	39.79
639.65	93.62
639.80	53.83
639.94	70.22
640.09	79.58
640.24	0.00
640.39	49.15
640.54	14.04
640.68	72.56
640.83	67.88
640.98	56.17
641.13	58.51
641.27	46.81
641.42	18.72
641.57	18.72
641.72	49.15
641.86	72.56
642.01	42.13
642.16	67.88
642.31	56.17
642.45	88.94
642.60	126.39
642.75	70.22
642.90	30.43
643.04	72.56
643.19	23.41
643.34	88.94
643.48	37.45
643.63	0.00
643.78	9.36
643.93	65.54
644.07	60.85
644.22	30.43
644.37	112.35
644.51	53.83
644.66	88.94
644.81	25.75
644.95	0.00
645.10	117.03
645.25	114.69
645.39	65.54
645.54	105.32
645.69	98.30
645.83	35.11
645.98	16.38
646.13	25.75
646.27	67.88
646.42	72.56
646.57	58.51
646.71	0.00
646.86	67.88
647.00	53.83
647.15	121.71
647.30	58.51
647.44	30.43
647.59	32.77
647.74	11.70
647.88	65.54
648.03	51.49
648.17	37.45
648.32	67.88
648.47	53.83
648.61	102.98
648.76	72.56
648.90	56.17
649.05	53.83
649.20	60.85
649.34	65.54
649.49	16.38
649.63	60.85
649.78	65.54
649.92	74.90
650.07	105.32
650.21	58.51
650.36	46.81
650.51	42.13
650.65	70.22
650.80	0.00
650.94	32.77
651.09	39.79
651.23	16.38
651.38	30.43
651.52	49.15
651.67	98.30
651.81	42.13
651.96	117.03
652.10	67.88
652.25	124.05
652.39	32.77
652.54	0.00
652.68	28.09
652.83	60.85
652.97	110.01
653.12	91.28
653.26	112.35
653.41	42.13
653.55	63.19
653.70	37.45
653.84	77.24
653.99	81.92
654.13	72.56
654.27	79.58
654.42	131.07
654.56	65.54
654.71	18.72
654.85	0.00
655.00	16.38
655.14	49.15
655.29	56.17
655.43	65.54
655.57	84.26
655.72	65.54
655.86	51.49
656.01	117.03
656.15	60.85
656.30	67.88
656.44	0.00
656.58	0.00
656.73	124.05
656.87	0.00
657.01	21.06
657.16	67.88
657.30	58.51
657.45	4.68
657.59	79.58
657.73	51.49
657.88	30.43
658.02	9.36
658.16	32.77
658.31	63.19
658.45	110.01
658.60	86.60
658.74	44.47
658.88	74.90
659.03	23.41
659.17	42.13
659.31	42.13
659.46	30.43
659.60	63.19
659.74	37.45
659.89	81.92
660.03	72.56
660.17	42.13
660.32	4.68
660.46	30.43
660.60	63.19
660.74	44.47
660.89	0.00
661.03	58.51
661.17	98.30
661.32	74.90
661.46	70.22
661.60	95.96
661.74	25.75
661.89	105.32
662.03	58.51
662.17	18.72
662.31	77.24
662.46	7.02
662.60	11.70
662.74	21.06
662.88	46.81
663.03	128.73
663.17	42.13
663.31	107.66
663.45	4.68
663.60	21.06
663.74	133.41
663.88	133.41
664.02	84.26
664.17	7.02
664.31	65.54
664.45	4.68
664.59	42.13
664.73	32.77
664.88	23.41
665.02	37.45
665.16	51.49
665.30	67.88
665.44	105.32
665.59	46.81
665.73	44.47
665.87	0.00
666.01	9.36
666.15	42.13
666.29	4.68
666.44	65.54
666.58	49.15
666.72	35.11
666.86	53.83
667.00	70.22
667.14	65.54
667.28	25.75
667.43	53.83
667.57	23.41
667.71	0.00
667.85	23.41
667.99	72.56
668.13	46.81
668.27	0.00
668.41	14.04
668.56	37.45
668.70	86.60
668.84	35.11
668.98	37.45
669.12	0.00
669.26	65.54
669.40	65.54
669.54	25.75
669.68	49.15
669.82	88.94
669.96	2.34
670.10	16.38
670.25	35.11
670.39	0.00
670.53	110.01
670.67	60.85
670.81	23.41
670.95	4.68
671.09	67.88
671.23	35.11
671.37	102.98
671.51	53.83
671.65	9.36
671.79	2.34
671.93	49.15
672.07	93.62
672.21	81.92
672.35	42.13
672.49	56.17
672.63	16.38
672.77	28.09
672.91	37.45
673.05	7.02
673.19	65.54
673.33	23.41
673.47	81.92
673.61	65.54
673.75	25.75
673.89	44.47
674.03	74.90
674.17	49.15
674.31	46.81
674.45	77.24
674.59	145.11
674.73	98.30
674.87	39.79
675.01	0.00
675.15	51.49
675.29	67.88
675.43	67.88
675.56	0.00
675.70	39.79
675.84	0.00
675.98	81.92
676.12	7.02
676.26	9.36
676.40	39.79
676.54	37.45
676.68	42.13
676.82	91.28
676.96	49.15
677.10	110.01
677.23	37.45
677.37	67.88
677.51	23.41
677.65	49.15
677.79	79.58
677.93	72.56
678.07	124.05
678.21	124.05
678.34	60.85
678.48	105.32
678.62	25.75
678.76	25.75
678.90	102.98
679.04	77.24
679.18	0.00
679.31	77.24
679.45	9.36
679.59	25.75
679.73	63.19
679.87	0.00
680.00	0.00
680.14	51.49
680.28	0.00
680.42	79.58
680.56	44.47
680.70	126.39
680.83	86.60
680.97	58.51
681.11	18.72
681.25	18.72
681.39	107.66
681.52	32.77
681.66	28.09
681.80	53.83
681.94	14.04
682.07	28.09
682.21	95.96
682.35	51.49
682.49	65.54
682.62	0.00
682.76	70.22
682.90	39.79
683.04	37.45
683.17	56.17
683.31	88.94
683.45	51.49
683.59	56.17
683.72	72.56
683.86	2.34
684.00	39.79
684.13	37.45
684.27	51.49
684.41	56.17
684.55	9.36
684.68	65.54
684.82	67.88
684.96	93.62
685.09	70.22
685.23	102.98
685.37	0.00
685.50	7.02
685.64	11.70
685.78	51.49
685.91	49.15
686.05	32.77
686.19	88.94
686.32	18.72
686.46	63.19
686.60	35.11
686.73	7.02
686.87	0.00
687.01	2.34
687.14	16.38
687.28	77.24
687.42	67.88
687.55	37.45
687.69	14.04
687.82	58.51
687.96	0.00
688.10	35.11
688.23	42.13
688.37	0.00
688.50	51.49
688.64	79.58
688.78	9.36
688.91	72.56
689.05	53.83
689.18	84.26
689.32	0.00
689.46	0.00
689.59	35.11
689.73	142.77
689.86	42.13
690.00	65.54
690.13	98.30
690.27	107.66
690.41	42.13
690.54	51.49
690.68	49.15
690.81	42.13
690.95	0.00
691.08	30.43
691.22	21.06
691.35	0.00
691.49	63.19
691.62	67.88
691.76	32.77
691.89	28.09
692.03	49.15
692.16	39.79
692.30	42.13
692.43	53.83
692.57	98.30
692.70	60.85
692.84	74.90
692.97	25.75
693.11	0.00
693.24	37.45
693.38	11.70
693.51	58.51
693.65	56.17
693.78	58.51
693.92	0.00
694.05	67.88
694.19	0.00
694.32	30.43
694.45	35.11
694.59	79.58
694.72	9.36
694.86	0.00
694.99	0.00
695.13	0.00
695.26	93.62
695.39	107.66
695.53	53.83
695.66	0.00
695.80	4.68
695.93	86.60
696.07	102.98
696.20	39.79
696.33	58.51
696.47	60.85
696.60	32.77
696.73	9.36
696.87	28.09
697.00	4.68
697.14	25.75
697.27	9.36
697.40	67.88
697.54	0.00
697.67	30.43
697.80	0.00
697.94	0.00
698.07	0.00
698.21	44.47
698.34	0.00
698.47	49.15
698.61	14.04
698.74	30.43
698.87	16.38
699.01	77.24
699.14	81.92
699.27	91.28
699.40	21.06
699.54	35.11
699.67	32.77
699.80	30.43
699.94	70.22
700.07	77.24
700.20	65.54
700.34	18.72
700.47	0.00
700.60	0.00
700.73	14.04
700.87	23.41
701.00	0.00
701.13	81.92
701.26	65.54
701.40	46.81
701.53	70.22
701.66	11.70
701.79	2.34
701.93	77.24
702.06	56.17
702.19	23.41
702.32	63.19
702.46	25.75
702.59	28.09
702.72	93.62
702.85	56.17
702.99	0.00
703.12	0.00
703.25	51.49
703.38	39.79
703.51	51.49
703.65	0.00
703.78	44.47
703.91	0.00
704.04	121.71
704.17	21.06
704.31	74.90
704.44	37.45
704.57	72.56
704.70	0.00
704.83	58.51
704.96	21.06
705.10	0.00
705.23	25.75
>>>>>End Processed Spectral Data<<<<<
