SpectraSuite Data File
++++++++++++++++++++++++++++++++++++
Date: Fri Oct 04 12:13:27 GMT-05:00 2013
User: price-jones
Dark Spectrum Present: No
Reference Spectrum Present: No
Number of Sampled Component Spectra: 1
Spectrometers: USB2+H05261
Integration Time (usec): 10000 (USB2+H05261)
Spectra Averaged: 1 (USB2+H05261)
Boxcar Smoothing: 0 (USB2+H05261)
Correct for Electrical Dark: No (USB2+H05261)
Strobe/Lamp Enabled: No (USB2+H05261)
Correct for Detector Non-linearity: No (USB2+H05261)
Correct for Stray Light: No (USB2+H05261)
Number of Pixels in Processed Spectrum: 2048
>>>>>Begin Processed Spectral Data<<<<<
365.73	49.15
365.92	49.15
366.12	49.15
366.32	0.00
366.52	0.00
366.72	0.00
366.91	0.00
367.11	0.00
367.31	0.00
367.51	0.00
367.70	0.00
367.90	0.00
368.10	0.00
368.30	0.00
368.49	0.00
368.69	0.00
368.89	0.00
369.09	0.00
369.28	0.00
369.48	0.00
369.68	0.00
369.87	0.00
370.07	0.00
370.27	0.00
370.47	0.00
370.66	0.00
370.86	0.00
371.06	0.00
371.25	0.00
371.45	9.36
371.65	0.00
371.84	0.00
372.04	0.00
372.24	0.00
372.44	0.00
372.63	93.62
372.83	56.17
373.03	35.11
373.22	56.17
373.42	53.83
373.62	65.54
373.81	65.54
374.01	2.34
374.21	16.38
374.40	23.41
374.60	28.09
374.79	39.79
374.99	35.11
375.19	7.02
375.38	93.62
375.58	46.81
375.78	72.56
375.97	39.79
376.17	14.04
376.37	49.15
376.56	28.09
376.76	51.49
376.95	30.43
377.15	16.38
377.35	0.00
377.54	0.00
377.74	0.00
377.93	70.22
378.13	93.62
378.33	16.38
378.52	28.09
378.72	0.00
378.91	51.49
379.11	11.70
379.31	0.00
379.50	0.00
379.70	7.02
379.89	0.00
380.09	11.70
380.28	42.13
380.48	16.38
380.68	42.13
380.87	7.02
381.07	9.36
381.26	0.00
381.46	0.00
381.65	0.00
381.85	7.02
382.04	49.15
382.24	58.51
382.43	46.81
382.63	0.00
382.83	21.06
383.02	46.81
383.22	0.00
383.41	0.00
383.61	0.00
383.80	0.00
384.00	0.00
384.19	0.00
384.39	58.51
384.58	77.24
384.78	37.45
384.97	21.06
385.17	14.04
385.36	51.49
385.56	60.85
385.75	16.38
385.95	30.43
386.14	53.83
386.34	0.00
386.53	44.47
386.72	28.09
386.92	0.00
387.11	58.51
387.31	58.51
387.50	72.56
387.70	0.00
387.89	0.00
388.09	7.02
388.28	72.56
388.48	37.45
388.67	28.09
388.86	77.24
389.06	9.36
389.25	0.00
389.45	0.00
389.64	30.43
389.84	30.43
390.03	0.00
390.22	9.36
390.42	0.00
390.61	14.04
390.81	37.45
391.00	0.00
391.19	30.43
391.39	0.00
391.58	0.00
391.78	14.04
391.97	0.00
392.16	0.00
392.36	32.77
392.55	60.85
392.75	30.43
392.94	23.41
393.13	14.04
393.33	81.92
393.52	14.04
393.71	84.26
393.91	18.72
394.10	16.38
394.29	23.41
394.49	9.36
394.68	32.77
394.88	7.02
395.07	0.00
395.26	37.45
395.46	0.00
395.65	49.15
395.84	67.88
396.04	16.38
396.23	30.43
396.42	51.49
396.62	30.43
396.81	0.00
397.00	23.41
397.19	0.00
397.39	0.00
397.58	117.03
397.77	0.00
397.97	93.62
398.16	102.98
398.35	56.17
398.55	0.00
398.74	0.00
398.93	56.17
399.12	0.00
399.32	56.17
399.51	0.00
399.70	95.96
399.90	4.68
400.09	49.15
400.28	91.28
400.47	2.34
400.67	0.00
400.86	32.77
401.05	28.09
401.24	18.72
401.44	21.06
401.63	65.54
401.82	0.00
402.01	30.43
402.21	58.51
402.40	70.22
402.59	35.11
402.78	0.00
402.97	0.00
403.17	0.00
403.36	42.13
403.55	0.00
403.74	14.04
403.93	28.09
404.13	72.56
404.32	32.77
404.51	72.56
404.70	21.06
404.89	35.11
405.09	23.41
405.28	74.90
405.47	0.00
405.66	11.70
405.85	35.11
406.05	28.09
406.24	117.03
406.43	39.79
406.62	0.00
406.81	58.51
407.00	32.77
407.20	0.00
407.39	0.00
407.58	46.81
407.77	21.06
407.96	0.00
408.15	0.00
408.34	0.00
408.54	58.51
408.73	67.88
408.92	53.83
409.11	42.13
409.30	0.00
409.49	28.09
409.68	18.72
409.87	67.88
410.07	35.11
410.26	49.15
410.45	25.75
410.64	0.00
410.83	53.83
411.02	44.47
411.21	18.72
411.40	23.41
411.59	28.09
411.78	0.00
411.98	86.60
412.17	102.98
412.36	28.09
412.55	0.00
412.74	86.60
412.93	39.79
413.12	4.68
413.31	65.54
413.50	0.00
413.69	44.47
413.88	16.38
414.07	42.13
414.26	95.96
414.45	28.09
414.64	49.15
414.83	44.47
415.02	46.81
415.22	4.68
415.41	9.36
415.60	0.00
415.79	0.00
415.98	46.81
416.17	0.00
416.36	42.13
416.55	0.00
416.74	117.03
416.93	102.98
417.12	0.00
417.31	72.56
417.50	0.00
417.69	30.43
417.88	56.17
418.07	21.06
418.26	74.90
418.45	60.85
418.64	2.34
418.83	7.02
419.02	0.00
419.21	79.58
419.39	2.34
419.58	37.45
419.77	25.75
419.96	16.38
420.15	58.51
420.34	0.00
420.53	58.51
420.72	16.38
420.91	105.32
421.10	0.00
421.29	25.75
421.48	11.70
421.67	0.00
421.86	0.00
422.05	67.88
422.24	44.47
422.43	0.00
422.61	93.62
422.80	25.75
422.99	9.36
423.18	95.96
423.37	39.79
423.56	49.15
423.75	49.15
423.94	63.19
424.13	16.38
424.32	30.43
424.50	0.00
424.69	49.15
424.88	65.54
425.07	14.04
425.26	32.77
425.45	25.75
425.64	84.26
425.83	16.38
426.01	102.98
426.20	4.68
426.39	11.70
426.58	0.00
426.77	56.17
426.96	32.77
427.15	107.66
427.33	21.06
427.52	0.00
427.71	30.43
427.90	56.17
428.09	91.28
428.28	70.22
428.46	30.43
428.65	30.43
428.84	67.88
429.03	51.49
429.22	91.28
429.40	65.54
429.59	32.77
429.78	7.02
429.97	42.13
430.16	0.00
430.34	63.19
430.53	0.00
430.72	23.41
430.91	0.00
431.10	51.49
431.28	74.90
431.47	9.36
431.66	16.38
431.85	2.34
432.03	16.38
432.22	4.68
432.41	18.72
432.60	102.98
432.79	117.03
432.97	21.06
433.16	35.11
433.35	107.66
433.54	46.81
433.72	49.15
433.91	128.73
434.10	110.01
434.28	28.09
434.47	16.38
434.66	0.00
434.85	4.68
435.03	37.45
435.22	0.00
435.41	0.00
435.59	14.04
435.78	9.36
435.97	105.32
436.16	32.77
436.34	11.70
436.53	67.88
436.72	2.34
436.90	9.36
437.09	7.02
437.28	23.41
437.46	53.83
437.65	23.41
437.84	0.00
438.02	74.90
438.21	74.90
438.40	0.00
438.58	72.56
438.77	28.09
438.96	39.79
439.14	0.00
439.33	81.92
439.52	35.11
439.70	28.09
439.89	32.77
440.08	53.83
440.26	0.00
440.45	0.00
440.63	67.88
440.82	49.15
441.01	72.56
441.19	84.26
441.38	7.02
441.57	25.75
441.75	42.13
441.94	56.17
442.12	11.70
442.31	60.85
442.50	42.13
442.68	60.85
442.87	74.90
443.05	2.34
443.24	23.41
443.43	0.00
443.61	18.72
443.80	60.85
443.98	0.00
444.17	0.00
444.35	51.49
444.54	0.00
444.73	37.45
444.91	7.02
445.10	79.58
445.28	63.19
445.47	0.00
445.65	16.38
445.84	70.22
446.02	67.88
446.21	23.41
446.39	0.00
446.58	28.09
446.77	30.43
446.95	107.66
447.14	0.00
447.32	0.00
447.51	65.54
447.69	131.07
447.88	72.56
448.06	14.04
448.25	53.83
448.43	25.75
448.62	65.54
448.80	44.47
448.99	0.00
449.17	58.51
449.36	37.45
449.54	14.04
449.73	39.79
449.91	56.17
450.10	86.60
450.28	93.62
450.46	46.81
450.65	0.00
450.83	23.41
451.02	0.00
451.20	0.00
451.39	32.77
451.57	32.77
451.76	21.06
451.94	0.00
452.13	0.00
452.31	67.88
452.49	28.09
452.68	46.81
452.86	58.51
453.05	58.51
453.23	18.72
453.42	11.70
453.60	35.11
453.78	63.19
453.97	84.26
454.15	4.68
454.34	100.64
454.52	0.00
454.70	42.13
454.89	0.00
455.07	28.09
455.26	4.68
455.44	0.00
455.62	14.04
455.81	35.11
455.99	44.47
456.17	60.85
456.36	4.68
456.54	56.17
456.73	0.00
456.91	23.41
457.09	84.26
457.28	56.17
457.46	28.09
457.64	56.17
457.83	21.06
458.01	2.34
458.19	44.47
458.38	4.68
458.56	4.68
458.74	60.85
458.93	0.00
459.11	39.79
459.29	67.88
459.48	28.09
459.66	0.00
459.84	39.79
460.03	77.24
460.21	23.41
460.39	81.92
460.57	25.75
460.76	70.22
460.94	7.02
461.12	42.13
461.31	9.36
461.49	23.41
461.67	63.19
461.85	28.09
462.04	23.41
462.22	32.77
462.40	0.00
462.59	51.49
462.77	77.24
462.95	37.45
463.13	2.34
463.32	37.45
463.50	0.00
463.68	14.04
463.86	0.00
464.05	56.17
464.23	0.00
464.41	81.92
464.59	16.38
464.78	70.22
464.96	37.45
465.14	107.66
465.32	39.79
465.50	121.71
465.69	67.88
465.87	14.04
466.05	28.09
466.23	0.00
466.41	86.60
466.60	9.36
466.78	53.83
466.96	67.88
467.14	16.38
467.32	72.56
467.51	9.36
467.69	0.00
467.87	7.02
468.05	140.43
468.23	0.00
468.41	14.04
468.60	77.24
468.78	79.58
468.96	86.60
469.14	25.75
469.32	23.41
469.50	14.04
469.69	72.56
469.87	44.47
470.05	16.38
470.23	37.45
470.41	39.79
470.59	114.69
470.77	39.79
470.95	0.00
471.14	74.90
471.32	81.92
471.50	0.00
471.68	21.06
471.86	39.79
472.04	4.68
472.22	46.81
472.40	32.77
472.58	0.00
472.77	46.81
472.95	30.43
473.13	37.45
473.31	28.09
473.49	9.36
473.67	23.41
473.85	28.09
474.03	56.17
474.21	28.09
474.39	14.04
474.57	142.77
474.75	114.69
474.93	7.02
475.12	93.62
475.30	11.70
475.48	21.06
475.66	21.06
475.84	58.51
476.02	72.56
476.20	95.96
476.38	0.00
476.56	65.54
476.74	25.75
476.92	49.15
477.10	42.13
477.28	0.00
477.46	77.24
477.64	70.22
477.82	98.30
478.00	0.00
478.18	56.17
478.36	44.47
478.54	14.04
478.72	28.09
478.90	0.00
479.08	4.68
479.26	0.00
479.44	53.83
479.62	0.00
479.80	67.88
479.98	0.00
480.16	0.00
480.34	42.13
480.52	23.41
480.70	58.51
480.88	7.02
481.06	58.51
481.24	9.36
481.41	35.11
481.59	91.28
481.77	63.19
481.95	14.04
482.13	0.00
482.31	42.13
482.49	0.00
482.67	65.54
482.85	0.00
483.03	0.00
483.21	88.94
483.39	63.19
483.57	2.34
483.74	84.26
483.92	23.41
484.10	46.81
484.28	72.56
484.46	74.90
484.64	0.00
484.82	0.00
485.00	0.00
485.18	56.17
485.35	44.47
485.53	0.00
485.71	49.15
485.89	0.00
486.07	9.36
486.25	35.11
486.43	0.00
486.61	0.00
486.78	30.43
486.96	7.02
487.14	93.62
487.32	37.45
487.50	37.45
487.68	49.15
487.85	32.77
488.03	14.04
488.21	65.54
488.39	0.00
488.57	37.45
488.75	79.58
488.92	79.58
489.10	44.47
489.28	44.47
489.46	56.17
489.64	86.60
489.81	0.00
489.99	21.06
490.17	32.77
490.35	0.00
490.53	23.41
490.70	49.15
490.88	44.47
491.06	46.81
491.24	2.34
491.41	4.68
491.59	18.72
491.77	16.38
491.95	35.11
492.13	65.54
492.30	46.81
492.48	0.00
492.66	67.88
492.84	39.79
493.01	51.49
493.19	4.68
493.37	44.47
493.54	0.00
493.72	42.13
493.90	14.04
494.08	135.75
494.25	56.17
494.43	32.77
494.61	16.38
494.79	49.15
494.96	0.00
495.14	65.54
495.32	72.56
495.49	32.77
495.67	35.11
495.85	63.19
496.02	0.00
496.20	72.56
496.38	74.90
496.55	49.15
496.73	79.58
496.91	37.45
497.09	25.75
497.26	63.19
497.44	100.64
497.62	39.79
497.79	49.15
497.97	30.43
498.14	23.41
498.32	35.11
498.50	60.85
498.67	16.38
498.85	11.70
499.03	46.81
499.20	93.62
499.38	7.02
499.56	32.77
499.73	44.47
499.91	0.00
500.08	65.54
500.26	25.75
500.44	86.60
500.61	39.79
500.79	91.28
500.97	70.22
501.14	46.81
501.32	21.06
501.49	65.54
501.67	35.11
501.84	2.34
502.02	0.00
502.20	28.09
502.37	60.85
502.55	51.49
502.72	28.09
502.90	0.00
503.07	0.00
503.25	42.13
503.43	25.75
503.60	93.62
503.78	35.11
503.95	58.51
504.13	0.00
504.30	60.85
504.48	77.24
504.65	30.43
504.83	65.54
505.01	91.28
505.18	102.98
505.36	133.41
505.53	23.41
505.71	53.83
505.88	46.81
506.06	53.83
506.23	81.92
506.41	72.56
506.58	0.00
506.76	42.13
506.93	0.00
507.11	46.81
507.28	21.06
507.46	58.51
507.63	35.11
507.81	46.81
507.98	0.00
508.16	39.79
508.33	28.09
508.50	67.88
508.68	9.36
508.85	42.13
509.03	7.02
509.20	86.60
509.38	0.00
509.55	0.00
509.73	72.56
509.90	112.35
510.08	14.04
510.25	65.54
510.42	28.09
510.60	32.77
510.77	11.70
510.95	74.90
511.12	49.15
511.30	77.24
511.47	28.09
511.64	23.41
511.82	21.06
511.99	93.62
512.17	86.60
512.34	51.49
512.51	0.00
512.69	0.00
512.86	81.92
513.04	4.68
513.21	72.56
513.38	0.00
513.56	102.98
513.73	110.01
513.90	86.60
514.08	67.88
514.25	9.36
514.43	67.88
514.60	14.04
514.77	74.90
514.95	74.90
515.12	0.00
515.29	0.00
515.47	46.81
515.64	0.00
515.81	37.45
515.99	0.00
516.16	32.77
516.33	60.85
516.51	0.00
516.68	42.13
516.85	77.24
517.03	32.77
517.20	51.49
517.37	30.43
517.54	0.00
517.72	0.00
517.89	14.04
518.06	72.56
518.24	32.77
518.41	72.56
518.58	42.13
518.75	0.00
518.93	86.60
519.10	79.58
519.27	28.09
519.45	9.36
519.62	32.77
519.79	18.72
519.96	46.81
520.14	0.00
520.31	65.54
520.48	65.54
520.65	37.45
520.83	30.43
521.00	0.00
521.17	7.02
521.34	42.13
521.52	74.90
521.69	56.17
521.86	30.43
522.03	88.94
522.20	44.47
522.38	60.85
522.55	32.77
522.72	88.94
522.89	14.04
523.07	42.13
523.24	14.04
523.41	51.49
523.58	39.79
523.75	7.02
523.92	58.51
524.10	21.06
524.27	93.62
524.44	53.83
524.61	9.36
524.78	46.81
524.96	0.00
525.13	67.88
525.30	79.58
525.47	95.96
525.64	0.00
525.81	56.17
525.98	23.41
526.16	77.24
526.33	35.11
526.50	4.68
526.67	42.13
526.84	56.17
527.01	63.19
527.18	60.85
527.36	42.13
527.53	49.15
527.70	0.00
527.87	56.17
528.04	42.13
528.21	0.00
528.38	65.54
528.55	9.36
528.72	32.77
528.89	60.85
529.07	0.00
529.24	0.00
529.41	49.15
529.58	63.19
529.75	102.98
529.92	91.28
530.09	46.81
530.26	98.30
530.43	91.28
530.60	105.32
530.77	35.11
530.94	18.72
531.11	21.06
531.28	21.06
531.46	128.73
531.63	51.49
531.80	32.77
531.97	21.06
532.14	25.75
532.31	58.51
532.48	74.90
532.65	39.79
532.82	114.69
532.99	72.56
533.16	37.45
533.33	0.00
533.50	58.51
533.67	30.43
533.84	58.51
534.01	124.05
534.18	63.19
534.35	35.11
534.52	0.00
534.69	91.28
534.86	0.00
535.03	81.92
535.20	23.41
535.37	0.00
535.54	16.38
535.71	0.00
535.88	74.90
536.05	51.49
536.22	2.34
536.38	11.70
536.55	163.84
536.72	0.00
536.89	0.00
537.06	65.54
537.23	56.17
537.40	35.11
537.57	39.79
537.74	32.77
537.91	30.43
538.08	58.51
538.25	79.58
538.42	86.60
538.59	60.85
538.75	2.34
538.92	35.11
539.09	91.28
539.26	0.00
539.43	39.79
539.60	107.66
539.77	86.60
539.94	154.48
540.11	98.30
540.28	67.88
540.44	110.01
540.61	93.62
540.78	25.75
540.95	112.35
541.12	84.26
541.29	91.28
541.46	23.41
541.62	37.45
541.79	72.56
541.96	0.00
542.13	11.70
542.30	46.81
542.47	37.45
542.63	84.26
542.80	81.92
542.97	70.22
543.14	56.17
543.31	0.00
543.48	70.22
543.64	77.24
543.81	32.77
543.98	35.11
544.15	53.83
544.32	110.01
544.48	37.45
544.65	30.43
544.82	16.38
544.99	0.00
545.16	67.88
545.32	81.92
545.49	56.17
545.66	0.00
545.83	77.24
546.00	0.00
546.16	0.00
546.33	30.43
546.50	0.00
546.67	14.04
546.83	23.41
547.00	46.81
547.17	42.13
547.34	7.02
547.50	46.81
547.67	42.13
547.84	67.88
548.00	23.41
548.17	30.43
548.34	51.49
548.51	44.47
548.67	30.43
548.84	63.19
549.01	44.47
549.18	42.13
549.34	77.24
549.51	0.00
549.68	21.06
549.84	46.81
550.01	100.64
550.18	39.79
550.34	16.38
550.51	79.58
550.68	79.58
550.84	30.43
551.01	65.54
551.18	53.83
551.34	9.36
551.51	70.22
551.68	93.62
551.84	18.72
552.01	88.94
552.18	67.88
552.34	32.77
552.51	2.34
552.68	42.13
552.84	7.02
553.01	28.09
553.18	0.00
553.34	81.92
553.51	44.47
553.67	105.32
553.84	56.17
554.01	25.75
554.17	9.36
554.34	2.34
554.51	0.00
554.67	28.09
554.84	72.56
555.00	21.06
555.17	0.00
555.33	0.00
555.50	79.58
555.67	86.60
555.83	88.94
556.00	49.15
556.16	65.54
556.33	39.79
556.50	0.00
556.66	91.28
556.83	60.85
556.99	51.49
557.16	117.03
557.32	0.00
557.49	0.00
557.65	0.00
557.82	25.75
557.98	0.00
558.15	0.00
558.32	49.15
558.48	51.49
558.65	49.15
558.81	60.85
558.98	51.49
559.14	28.09
559.31	112.35
559.47	53.83
559.64	65.54
559.80	32.77
559.97	30.43
560.13	30.43
560.30	25.75
560.46	0.00
560.63	35.11
560.79	46.81
560.96	88.94
561.12	0.00
561.29	0.00
561.45	30.43
561.61	63.19
561.78	91.28
561.94	30.43
562.11	16.38
562.27	37.45
562.44	23.41
562.60	65.54
562.77	44.47
562.93	86.60
563.10	35.11
563.26	30.43
563.42	25.75
563.59	63.19
563.75	77.24
563.92	28.09
564.08	35.11
564.24	58.51
564.41	88.94
564.57	60.85
564.74	49.15
564.90	72.56
565.07	42.13
565.23	2.34
565.39	74.90
565.56	72.56
565.72	58.51
565.88	84.26
566.05	28.09
566.21	16.38
566.38	70.22
566.54	65.54
566.70	9.36
566.87	79.58
567.03	0.00
567.19	16.38
567.36	53.83
567.52	51.49
567.68	60.85
567.85	93.62
568.01	46.81
568.17	14.04
568.34	102.98
568.50	60.85
568.66	0.00
568.83	53.83
568.99	18.72
569.15	67.88
569.32	49.15
569.48	44.47
569.64	49.15
569.81	95.96
569.97	93.62
570.13	14.04
570.30	60.85
570.46	9.36
570.62	30.43
570.78	102.98
570.95	74.90
571.11	37.45
571.27	88.94
571.43	53.83
571.60	65.54
571.76	28.09
571.92	0.00
572.09	11.70
572.25	72.56
572.41	49.15
572.57	14.04
572.74	46.81
572.90	25.75
573.06	53.83
573.22	0.00
573.38	112.35
573.55	46.81
573.71	77.24
573.87	0.00
574.03	79.58
574.20	51.49
574.36	63.19
574.52	35.11
574.68	53.83
574.84	2.34
575.01	0.00
575.17	105.32
575.33	100.64
575.49	58.51
575.65	16.38
575.82	46.81
575.98	30.43
576.14	49.15
576.30	56.17
576.46	9.36
576.62	72.56
576.79	28.09
576.95	0.00
577.11	58.51
577.27	7.02
577.43	53.83
577.59	16.38
577.75	7.02
577.92	32.77
578.08	93.62
578.24	51.49
578.40	58.51
578.56	4.68
578.72	14.04
578.88	49.15
579.04	65.54
579.21	53.83
579.37	0.00
579.53	18.72
579.69	30.43
579.85	7.02
580.01	86.60
580.17	4.68
580.33	2.34
580.49	63.19
580.65	51.49
580.82	7.02
580.98	2.34
581.14	51.49
581.30	25.75
581.46	37.45
581.62	152.13
581.78	98.30
581.94	79.58
582.10	21.06
582.26	32.77
582.42	51.49
582.58	63.19
582.74	53.83
582.90	14.04
583.06	51.49
583.22	67.88
583.38	72.56
583.54	39.79
583.70	28.09
583.86	112.35
584.02	65.54
584.18	105.32
584.34	63.19
584.50	278.52
584.66	1523.69
584.82	3548.25
584.98	5069.60
585.14	4285.52
585.30	2822.69
585.46	1792.85
585.62	1074.31
585.78	416.62
585.94	208.31
586.10	145.11
586.26	86.60
586.42	74.90
586.58	77.24
586.74	21.06
586.90	107.66
587.06	117.03
587.22	110.01
587.38	67.88
587.54	105.32
587.70	238.73
587.86	428.32
588.02	325.33
588.18	287.89
588.34	220.01
588.49	107.66
588.65	95.96
588.81	11.70
588.97	32.77
589.13	21.06
589.29	44.47
589.45	86.60
589.61	131.07
589.77	46.81
589.93	28.09
590.08	121.71
590.24	14.04
590.40	2.34
590.56	42.13
590.72	42.13
590.88	9.36
591.04	98.30
591.20	63.19
591.35	72.56
591.51	67.88
591.67	0.00
591.83	9.36
591.99	30.43
592.15	51.49
592.31	30.43
592.46	67.88
592.62	65.54
592.78	0.00
592.94	42.13
593.10	42.13
593.26	107.66
593.41	2.34
593.57	63.19
593.73	105.32
593.89	285.55
594.05	470.45
594.20	725.57
594.36	613.22
594.52	437.68
594.68	255.12
594.84	168.52
594.99	161.50
595.15	98.30
595.31	142.77
595.47	18.72
595.62	37.45
595.78	42.13
595.94	63.19
596.10	60.85
596.25	42.13
596.41	37.45
596.57	98.30
596.73	63.19
596.88	0.00
597.04	86.60
597.20	163.84
597.36	117.03
597.51	128.73
597.67	37.45
597.83	49.15
597.99	42.13
598.14	28.09
598.30	23.41
598.46	51.49
598.61	25.75
598.77	117.03
598.93	11.70
599.09	39.79
599.24	39.79
599.40	79.58
599.56	58.51
599.71	84.26
599.87	60.85
600.03	32.77
600.18	23.41
600.34	93.62
600.50	32.77
600.65	84.26
600.81	107.66
600.97	14.04
601.12	32.77
601.28	42.13
601.44	11.70
601.59	18.72
601.75	35.11
601.91	107.66
602.06	0.00
602.22	65.54
602.37	100.64
602.53	154.48
602.69	212.99
602.84	168.52
603.00	135.75
603.16	74.90
603.31	152.13
603.47	175.54
603.62	7.02
603.78	95.96
603.94	25.75
604.09	37.45
604.25	91.28
604.40	74.90
604.56	81.92
604.71	18.72
604.87	44.47
605.03	0.00
605.18	67.88
605.34	72.56
605.49	16.38
605.65	46.81
605.80	28.09
605.96	25.75
606.12	74.90
606.27	28.09
606.43	93.62
606.58	91.28
606.74	105.32
606.89	283.20
607.05	407.25
607.20	543.00
607.36	472.79
607.51	322.99
607.67	189.58
607.82	189.58
607.98	93.62
608.13	95.96
608.29	133.41
608.44	72.56
608.60	56.17
608.75	35.11
608.91	114.69
609.06	358.10
609.22	737.27
609.37	985.37
609.53	823.87
609.68	648.33
609.84	435.34
609.99	222.35
610.15	177.88
610.30	124.05
610.46	88.94
610.61	35.11
610.76	49.15
610.92	9.36
611.07	70.22
611.23	37.45
611.38	35.11
611.54	46.81
611.69	56.17
611.84	0.00
612.00	16.38
612.15	21.06
612.31	28.09
612.46	67.88
612.62	88.94
612.77	102.98
612.92	65.54
613.08	72.56
613.23	60.85
613.39	81.92
613.54	117.03
613.69	332.36
613.85	992.39
614.00	1390.28
614.15	1472.20
614.31	1050.90
614.46	713.86
614.62	519.60
614.77	344.06
614.92	133.41
615.08	154.48
615.23	63.19
615.38	42.13
615.54	46.81
615.69	74.90
615.84	229.37
616.00	353.42
616.15	449.38
616.30	308.95
616.46	205.97
616.61	131.07
616.76	131.07
616.92	102.98
617.07	30.43
617.22	88.94
617.37	60.85
617.53	7.02
617.68	49.15
617.83	0.00
617.99	110.01
618.14	49.15
618.29	88.94
618.45	46.81
618.60	53.83
618.75	42.13
618.90	88.94
619.06	86.60
619.21	53.83
619.36	65.54
619.51	30.43
619.67	60.85
619.82	18.72
619.97	32.77
620.12	65.54
620.28	23.41
620.43	53.83
620.58	49.15
620.73	0.00
620.89	9.36
621.04	0.00
621.19	152.13
621.34	243.42
621.49	294.91
621.65	280.86
621.80	266.82
621.95	187.24
622.10	138.09
622.25	72.56
622.41	9.36
622.56	81.92
622.71	0.00
622.86	25.75
623.01	25.75
623.16	53.83
623.32	81.92
623.47	37.45
623.62	74.90
623.77	0.00
623.92	86.60
624.07	51.49
624.23	79.58
624.38	53.83
624.53	11.70
624.68	37.45
624.83	39.79
624.98	21.06
625.13	25.75
625.29	70.22
625.44	44.47
625.59	105.32
625.74	2.34
625.89	23.41
626.04	220.01
626.19	505.56
626.34	648.33
626.49	835.57
626.65	638.97
626.80	421.30
626.95	332.36
627.10	299.59
627.25	77.24
627.40	35.11
627.55	46.81
627.70	42.13
627.85	46.81
628.00	21.06
628.15	49.15
628.30	2.34
628.45	14.04
628.60	49.15
628.76	0.00
628.91	35.11
629.06	18.72
629.21	56.17
629.36	0.00
629.51	51.49
629.66	25.75
629.81	72.56
629.96	98.30
630.11	217.67
630.26	203.63
630.41	177.88
630.56	208.31
630.71	140.43
630.86	117.03
631.01	46.81
631.16	42.13
631.31	2.34
631.46	79.58
631.61	81.92
631.76	58.51
631.91	28.09
632.06	4.68
632.21	63.19
632.36	44.47
632.51	86.60
632.66	11.70
632.81	98.30
632.96	395.55
633.10	411.93
633.25	575.77
633.40	482.15
633.55	383.85
633.70	220.01
633.85	102.98
634.00	93.62
634.15	58.51
634.30	49.15
634.45	74.90
634.60	65.54
634.75	2.34
634.90	56.17
635.05	32.77
635.19	9.36
635.34	49.15
635.49	58.51
635.64	4.68
635.79	51.49
635.94	93.62
636.09	105.32
636.24	67.88
636.39	35.11
636.53	93.62
636.68	56.17
636.83	91.28
636.98	39.79
637.13	0.00
637.28	98.30
637.43	67.88
637.57	77.24
637.72	278.52
637.87	624.92
638.02	924.51
638.17	1008.77
638.32	734.93
638.46	486.83
638.61	360.44
638.76	159.16
638.91	79.58
639.06	67.88
639.20	102.98
639.35	98.30
639.50	124.05
639.65	386.19
639.80	957.28
639.94	1434.75
640.09	1561.14
640.24	1149.20
640.39	812.17
640.54	517.26
640.68	393.21
640.83	194.26
640.98	117.03
641.13	23.41
641.27	21.06
641.42	0.00
641.57	112.35
641.72	70.22
641.86	65.54
642.01	42.13
642.16	46.81
642.31	2.34
642.45	23.41
642.60	93.62
642.75	9.36
642.90	23.41
643.04	42.13
643.19	28.09
643.34	2.34
643.48	21.06
643.63	72.56
643.78	0.00
643.93	32.77
644.07	70.22
644.22	74.90
644.37	58.51
644.51	25.75
644.66	88.94
644.81	0.00
644.95	49.15
645.10	23.41
645.25	7.02
645.39	32.77
645.54	7.02
645.69	32.77
645.83	21.06
645.98	14.04
646.13	21.06
646.27	72.56
646.42	37.45
646.57	23.41
646.71	0.00
646.86	39.79
647.00	0.00
647.15	23.41
647.30	0.00
647.44	0.00
647.59	11.70
647.74	25.75
647.88	98.30
648.03	0.00
648.17	18.72
648.32	84.26
648.47	81.92
648.61	32.77
648.76	39.79
648.90	2.34
649.05	46.81
649.20	51.49
649.34	4.68
649.49	60.85
649.63	0.00
649.78	60.85
649.92	0.00
650.07	138.09
650.21	524.28
650.36	746.63
650.51	765.36
650.65	622.58
650.80	554.71
650.94	369.80
651.09	264.48
651.23	72.56
651.38	93.62
651.52	0.00
651.67	102.98
651.81	58.51
651.96	7.02
652.10	0.00
652.25	25.75
652.39	79.58
652.54	30.43
652.68	49.15
652.83	147.45
652.97	301.93
653.12	266.82
653.26	245.76
653.41	180.22
653.55	161.50
653.70	117.03
653.84	81.92
653.99	49.15
654.13	23.41
654.27	16.38
654.42	35.11
654.56	37.45
654.71	4.68
654.85	25.75
655.00	46.81
655.14	114.69
655.29	58.51
655.43	0.00
655.57	18.72
655.72	2.34
655.86	2.34
656.01	18.72
656.15	74.90
656.30	32.77
656.44	65.54
656.58	42.13
656.73	46.81
656.87	0.00
657.01	2.34
657.16	65.54
657.30	18.72
657.45	79.58
657.59	28.09
657.73	72.56
657.88	93.62
658.02	86.60
658.16	77.24
658.31	9.36
658.45	102.98
658.60	72.56
658.74	0.00
658.88	81.92
659.03	39.79
659.17	65.54
659.31	105.32
659.46	201.29
659.60	285.55
659.74	332.36
659.89	353.42
660.03	248.10
660.17	236.39
660.32	135.75
660.46	147.45
660.60	46.81
660.74	91.28
660.89	18.72
661.03	16.38
661.17	0.00
661.32	65.54
661.46	25.75
661.60	0.00
661.74	23.41
661.89	30.43
662.03	49.15
662.17	4.68
662.31	2.34
662.46	0.00
662.60	9.36
662.74	51.49
662.88	110.01
663.03	70.22
663.17	30.43
663.31	18.72
663.45	16.38
663.60	58.51
663.74	70.22
663.88	53.83
664.02	39.79
664.17	79.58
664.31	28.09
664.45	18.72
664.59	39.79
664.73	58.51
664.88	67.88
665.02	93.62
665.16	60.85
665.30	25.75
665.44	28.09
665.59	67.88
665.73	0.00
665.87	112.35
666.01	100.64
666.15	25.75
666.29	7.02
666.44	46.81
666.58	56.17
666.72	0.00
666.86	88.94
667.00	16.38
667.14	67.88
667.28	142.77
667.43	404.91
667.57	524.28
667.71	744.29
667.85	622.58
667.99	468.11
668.13	304.27
668.27	194.26
668.41	84.26
668.56	81.92
668.70	32.77
668.84	86.60
668.98	0.00
669.12	25.75
669.26	51.49
669.40	37.45
669.54	4.68
669.68	32.77
669.82	72.56
669.96	0.00
670.10	46.81
670.25	70.22
670.39	25.75
670.53	4.68
670.67	95.96
670.81	18.72
670.95	9.36
671.09	39.79
671.23	124.05
671.37	196.60
671.51	402.57
671.65	416.62
671.79	334.70
671.93	208.31
672.07	93.62
672.21	107.66
672.35	102.98
672.49	63.19
672.63	44.47
672.77	32.77
672.91	7.02
673.05	0.00
673.19	46.81
673.33	21.06
673.47	0.00
673.61	25.75
673.75	35.11
673.89	53.83
674.03	49.15
674.17	2.34
674.31	18.72
674.45	42.13
674.59	77.24
674.73	0.00
674.87	28.09
675.01	14.04
675.15	74.90
675.29	65.54
675.43	58.51
675.56	49.15
675.70	74.90
675.84	56.17
675.98	11.70
676.12	58.51
676.26	42.13
676.40	28.09
676.54	114.69
676.68	72.56
676.82	16.38
676.96	0.00
677.10	79.58
677.23	37.45
677.37	0.00
677.51	25.75
677.65	0.00
677.79	95.96
677.93	51.49
678.07	44.47
678.21	14.04
678.34	51.49
678.48	4.68
678.62	74.90
678.76	107.66
678.90	16.38
679.04	93.62
679.18	0.00
679.31	60.85
679.45	28.09
679.59	51.49
679.73	23.41
679.87	4.68
680.00	56.17
680.14	14.04
680.28	51.49
680.42	23.41
680.56	4.68
680.70	0.00
680.83	110.01
680.97	0.00
681.11	46.81
681.25	119.37
681.39	0.00
681.52	0.00
681.66	0.00
681.80	56.17
681.94	7.02
682.07	70.22
682.21	0.00
682.35	7.02
682.49	51.49
682.62	21.06
682.76	79.58
682.90	65.54
683.04	91.28
683.17	93.62
683.31	0.00
683.45	93.62
683.59	21.06
683.72	0.00
683.86	56.17
684.00	84.26
684.13	25.75
684.27	0.00
684.41	95.96
684.55	72.56
684.68	65.54
684.82	0.00
684.96	23.41
685.09	0.00
685.23	23.41
685.37	86.60
685.50	14.04
685.64	23.41
685.78	0.00
685.91	30.43
686.05	0.00
686.19	30.43
686.32	9.36
686.46	0.00
686.60	51.49
686.73	79.58
686.87	60.85
687.01	110.01
687.14	39.79
687.28	77.24
687.42	9.36
687.55	0.00
687.69	44.47
687.82	0.00
687.96	9.36
688.10	63.19
688.23	18.72
688.37	30.43
688.50	37.45
688.64	39.79
688.78	70.22
688.91	67.88
689.05	0.00
689.18	58.51
689.32	67.88
689.46	51.49
689.59	35.11
689.73	0.00
689.86	4.68
690.00	0.00
690.13	77.24
690.27	53.83
690.41	0.00
690.54	14.04
690.68	0.00
690.81	32.77
690.95	37.45
691.08	11.70
691.22	79.58
691.35	74.90
691.49	114.69
691.62	14.04
691.76	46.81
691.89	4.68
692.03	53.83
692.16	0.00
692.30	81.92
692.43	70.22
692.57	107.66
692.70	231.71
692.84	379.17
692.97	271.50
693.11	191.92
693.24	142.77
693.38	86.60
693.51	88.94
693.65	67.88
693.78	39.79
693.92	81.92
694.05	16.38
694.19	70.22
694.32	0.00
694.45	58.51
694.59	30.43
694.72	2.34
694.86	7.02
694.99	0.00
695.13	58.51
695.26	25.75
695.39	95.96
695.53	0.00
695.66	18.72
695.80	88.94
695.93	44.47
696.07	2.34
696.20	79.58
696.33	133.41
696.47	51.49
696.60	70.22
696.73	86.60
696.87	49.15
697.00	42.13
697.14	9.36
697.27	4.68
697.40	65.54
697.54	18.72
697.67	23.41
697.80	35.11
697.94	28.09
698.07	30.43
698.21	0.00
698.34	60.85
698.47	0.00
698.61	0.00
698.74	86.60
698.87	74.90
699.01	56.17
699.14	7.02
699.27	35.11
699.40	28.09
699.54	35.11
699.67	79.58
699.80	0.00
699.94	4.68
700.07	4.68
700.20	18.72
700.34	21.06
700.47	51.49
700.60	0.00
700.73	18.72
700.87	14.04
701.00	18.72
701.13	23.41
701.26	100.64
701.40	56.17
701.53	28.09
701.66	93.62
701.79	0.00
701.93	49.15
702.06	28.09
702.19	0.00
702.32	16.38
702.46	0.00
702.59	0.00
702.72	105.32
702.85	229.37
702.99	379.17
703.12	610.88
703.25	592.16
703.38	496.19
703.51	465.77
703.65	444.70
703.78	227.03
703.91	102.98
704.04	159.16
704.17	67.88
704.31	14.04
704.44	53.83
704.57	25.75
704.70	44.47
704.83	25.75
704.96	67.88
705.10	84.26
705.23	77.24
>>>>>End Processed Spectral Data<<<<<
