SpectraSuite Data File
++++++++++++++++++++++++++++++++++++
Date: Fri Oct 04 12:13:29 GMT-05:00 2013
User: price-jones
Dark Spectrum Present: No
Reference Spectrum Present: No
Number of Sampled Component Spectra: 1
Spectrometers: USB2+H05261
Integration Time (usec): 10000 (USB2+H05261)
Spectra Averaged: 1 (USB2+H05261)
Boxcar Smoothing: 0 (USB2+H05261)
Correct for Electrical Dark: No (USB2+H05261)
Strobe/Lamp Enabled: No (USB2+H05261)
Correct for Detector Non-linearity: No (USB2+H05261)
Correct for Stray Light: No (USB2+H05261)
Number of Pixels in Processed Spectrum: 2048
>>>>>Begin Processed Spectral Data<<<<<
365.73	0.00
365.92	0.00
366.12	0.00
366.32	0.00
366.52	0.00
366.72	0.00
366.91	0.00
367.11	0.00
367.31	0.00
367.51	0.00
367.70	0.00
367.90	0.00
368.10	0.00
368.30	0.00
368.49	0.00
368.69	0.00
368.89	0.00
369.09	0.00
369.28	0.00
369.48	0.00
369.68	0.00
369.87	0.00
370.07	0.00
370.27	0.00
370.47	0.00
370.66	0.00
370.86	0.00
371.06	23.41
371.25	0.00
371.45	0.00
371.65	0.00
371.84	0.00
372.04	0.00
372.24	0.00
372.44	0.00
372.63	100.64
372.83	49.15
373.03	0.00
373.22	0.00
373.42	0.00
373.62	42.13
373.81	0.00
374.01	30.43
374.21	39.79
374.40	0.00
374.60	23.41
374.79	0.00
374.99	0.00
375.19	86.60
375.38	0.00
375.58	74.90
375.78	107.66
375.97	25.75
376.17	9.36
376.37	32.77
376.56	42.13
376.76	25.75
376.95	0.00
377.15	74.90
377.35	32.77
377.54	0.00
377.74	25.75
377.93	51.49
378.13	0.00
378.33	7.02
378.52	37.45
378.72	0.00
378.91	39.79
379.11	4.68
379.31	63.19
379.50	30.43
379.70	2.34
379.89	28.09
380.09	0.00
380.28	35.11
380.48	0.00
380.68	37.45
380.87	0.00
381.07	0.00
381.26	14.04
381.46	21.06
381.65	56.17
381.85	32.77
382.04	4.68
382.24	0.00
382.43	28.09
382.63	37.45
382.83	0.00
383.02	56.17
383.22	86.60
383.41	32.77
383.61	4.68
383.80	56.17
384.00	25.75
384.19	58.51
384.39	58.51
384.58	4.68
384.78	0.00
384.97	0.00
385.17	21.06
385.36	0.00
385.56	0.00
385.75	63.19
385.95	77.24
386.14	35.11
386.34	4.68
386.53	39.79
386.72	46.81
386.92	0.00
387.11	21.06
387.31	39.79
387.50	18.72
387.70	4.68
387.89	21.06
388.09	53.83
388.28	28.09
388.48	35.11
388.67	25.75
388.86	9.36
389.06	60.85
389.25	95.96
389.45	44.47
389.64	0.00
389.84	28.09
390.03	35.11
390.22	16.38
390.42	102.98
390.61	107.66
390.81	35.11
391.00	70.22
391.19	0.00
391.39	7.02
391.58	46.81
391.78	65.54
391.97	23.41
392.16	0.00
392.36	46.81
392.55	60.85
392.75	70.22
392.94	23.41
393.13	7.02
393.33	7.02
393.52	37.45
393.71	63.19
393.91	42.13
394.10	28.09
394.29	0.00
394.49	7.02
394.68	30.43
394.88	46.81
395.07	0.00
395.26	0.00
395.46	0.00
395.65	18.72
395.84	0.00
396.04	23.41
396.23	37.45
396.42	65.54
396.62	67.88
396.81	58.51
397.00	32.77
397.19	0.00
397.39	35.11
397.58	16.38
397.77	4.68
397.97	0.00
398.16	0.00
398.35	0.00
398.55	46.81
398.74	39.79
398.93	0.00
399.12	72.56
399.32	39.79
399.51	58.51
399.70	21.06
399.90	67.88
400.09	0.00
400.28	25.75
400.47	21.06
400.67	72.56
400.86	11.70
401.05	0.00
401.24	21.06
401.44	9.36
401.63	28.09
401.82	86.60
402.01	67.88
402.21	7.02
402.40	0.00
402.59	0.00
402.78	53.83
402.97	0.00
403.17	4.68
403.36	42.13
403.55	74.90
403.74	0.00
403.93	23.41
404.13	49.15
404.32	0.00
404.51	23.41
404.70	35.11
404.89	25.75
405.09	23.41
405.28	0.00
405.47	91.28
405.66	49.15
405.85	2.34
406.05	23.41
406.24	32.77
406.43	44.47
406.62	58.51
406.81	28.09
407.00	4.68
407.20	95.96
407.39	81.92
407.58	32.77
407.77	25.75
407.96	67.88
408.15	39.79
408.34	21.06
408.54	7.02
408.73	0.00
408.92	65.54
409.11	0.00
409.30	11.70
409.49	79.58
409.68	25.75
409.87	0.00
410.07	23.41
410.26	0.00
410.45	37.45
410.64	18.72
410.83	72.56
411.02	23.41
411.21	35.11
411.40	79.58
411.59	0.00
411.78	30.43
411.98	107.66
412.17	7.02
412.36	72.56
412.55	70.22
412.74	37.45
412.93	46.81
413.12	77.24
413.31	0.00
413.50	0.00
413.69	58.51
413.88	4.68
414.07	110.01
414.26	7.02
414.45	0.00
414.64	70.22
414.83	49.15
415.02	110.01
415.22	18.72
415.41	0.00
415.60	28.09
415.79	51.49
415.98	0.00
416.17	63.19
416.36	0.00
416.55	4.68
416.74	28.09
416.93	56.17
417.12	0.00
417.31	84.26
417.50	11.70
417.69	0.00
417.88	65.54
418.07	67.88
418.26	56.17
418.45	131.07
418.64	4.68
418.83	44.47
419.02	44.47
419.21	35.11
419.39	46.81
419.58	37.45
419.77	21.06
419.96	56.17
420.15	49.15
420.34	30.43
420.53	42.13
420.72	0.00
420.91	32.77
421.10	0.00
421.29	21.06
421.48	42.13
421.67	91.28
421.86	18.72
422.05	23.41
422.24	53.83
422.43	58.51
422.61	25.75
422.80	23.41
422.99	16.38
423.18	121.71
423.37	32.77
423.56	4.68
423.75	30.43
423.94	0.00
424.13	4.68
424.32	30.43
424.50	0.00
424.69	63.19
424.88	9.36
425.07	9.36
425.26	79.58
425.45	18.72
425.64	79.58
425.83	100.64
426.01	37.45
426.20	56.17
426.39	18.72
426.58	63.19
426.77	21.06
426.96	72.56
427.15	51.49
427.33	30.43
427.52	2.34
427.71	44.47
427.90	51.49
428.09	0.00
428.28	0.00
428.46	2.34
428.65	0.00
428.84	30.43
429.03	53.83
429.22	25.75
429.40	21.06
429.59	16.38
429.78	30.43
429.97	0.00
430.16	23.41
430.34	35.11
430.53	0.00
430.72	0.00
430.91	56.17
431.10	39.79
431.28	35.11
431.47	7.02
431.66	11.70
431.85	42.13
432.03	79.58
432.22	46.81
432.41	2.34
432.60	53.83
432.79	25.75
432.97	67.88
433.16	30.43
433.35	42.13
433.54	30.43
433.72	39.79
433.91	42.13
434.10	28.09
434.28	32.77
434.47	23.41
434.66	53.83
434.85	49.15
435.03	32.77
435.22	0.00
435.41	91.28
435.59	9.36
435.78	28.09
435.97	0.00
436.16	23.41
436.34	18.72
436.53	0.00
436.72	44.47
436.90	28.09
437.09	23.41
437.28	11.70
437.46	32.77
437.65	0.00
437.84	0.00
438.02	28.09
438.21	70.22
438.40	0.00
438.58	67.88
438.77	44.47
438.96	77.24
439.14	70.22
439.33	0.00
439.52	51.49
439.70	14.04
439.89	65.54
440.08	93.62
440.26	21.06
440.45	32.77
440.63	46.81
440.82	32.77
441.01	63.19
441.19	42.13
441.38	0.00
441.57	51.49
441.75	56.17
441.94	18.72
442.12	0.00
442.31	14.04
442.50	58.51
442.68	16.38
442.87	107.66
443.05	46.81
443.24	0.00
443.43	107.66
443.61	128.73
443.80	42.13
443.98	70.22
444.17	9.36
444.35	49.15
444.54	70.22
444.73	56.17
444.91	79.58
445.10	77.24
445.28	0.00
445.47	18.72
445.65	0.00
445.84	95.96
446.02	28.09
446.21	77.24
446.39	32.77
446.58	51.49
446.77	9.36
446.95	77.24
447.14	77.24
447.32	11.70
447.51	16.38
447.69	32.77
447.88	72.56
448.06	0.00
448.25	0.00
448.43	35.11
448.62	86.60
448.80	72.56
448.99	9.36
449.17	9.36
449.36	0.00
449.54	63.19
449.73	65.54
449.91	74.90
450.10	0.00
450.28	49.15
450.46	60.85
450.65	35.11
450.83	95.96
451.02	105.32
451.20	30.43
451.39	16.38
451.57	56.17
451.76	81.92
451.94	51.49
452.13	0.00
452.31	37.45
452.49	28.09
452.68	0.00
452.86	7.02
453.05	53.83
453.23	42.13
453.42	7.02
453.60	9.36
453.78	18.72
453.97	0.00
454.15	39.79
454.34	37.45
454.52	35.11
454.70	0.00
454.89	4.68
455.07	0.00
455.26	42.13
455.44	35.11
455.62	46.81
455.81	0.00
455.99	21.06
456.17	128.73
456.36	42.13
456.54	84.26
456.73	65.54
456.91	28.09
457.09	23.41
457.28	81.92
457.46	16.38
457.64	0.00
457.83	35.11
458.01	58.51
458.19	79.58
458.38	0.00
458.56	56.17
458.74	35.11
458.93	70.22
459.11	30.43
459.29	11.70
459.48	49.15
459.66	51.49
459.84	70.22
460.03	56.17
460.21	56.17
460.39	58.51
460.57	42.13
460.76	35.11
460.94	67.88
461.12	14.04
461.31	0.00
461.49	70.22
461.67	51.49
461.85	0.00
462.04	7.02
462.22	86.60
462.40	49.15
462.59	84.26
462.77	0.00
462.95	37.45
463.13	0.00
463.32	35.11
463.50	16.38
463.68	28.09
463.86	21.06
464.05	0.00
464.23	84.26
464.41	28.09
464.59	63.19
464.78	79.58
464.96	46.81
465.14	0.00
465.32	0.00
465.50	49.15
465.69	74.90
465.87	0.00
466.05	95.96
466.23	0.00
466.41	18.72
466.60	0.00
466.78	39.79
466.96	32.77
467.14	25.75
467.32	30.43
467.51	42.13
467.69	23.41
467.87	28.09
468.05	0.00
468.23	0.00
468.41	65.54
468.60	0.00
468.78	28.09
468.96	58.51
469.14	11.70
469.32	63.19
469.50	79.58
469.69	39.79
469.87	28.09
470.05	42.13
470.23	11.70
470.41	86.60
470.59	72.56
470.77	0.00
470.95	14.04
471.14	79.58
471.32	18.72
471.50	25.75
471.68	39.79
471.86	0.00
472.04	0.00
472.22	9.36
472.40	88.94
472.58	79.58
472.77	93.62
472.95	25.75
473.13	95.96
473.31	72.56
473.49	58.51
473.67	23.41
473.85	0.00
474.03	39.79
474.21	53.83
474.39	28.09
474.57	30.43
474.75	21.06
474.93	46.81
475.12	0.00
475.30	39.79
475.48	74.90
475.66	30.43
475.84	72.56
476.02	0.00
476.20	46.81
476.38	16.38
476.56	70.22
476.74	0.00
476.92	0.00
477.10	49.15
477.28	11.70
477.46	21.06
477.64	0.00
477.82	21.06
478.00	53.83
478.18	32.77
478.36	72.56
478.54	95.96
478.72	23.41
478.90	51.49
479.08	105.32
479.26	2.34
479.44	95.96
479.62	42.13
479.80	100.64
479.98	93.62
480.16	63.19
480.34	56.17
480.52	0.00
480.70	56.17
480.88	72.56
481.06	16.38
481.24	14.04
481.41	39.79
481.59	0.00
481.77	117.03
481.95	21.06
482.13	14.04
482.31	25.75
482.49	14.04
482.67	95.96
482.85	60.85
483.03	53.83
483.21	56.17
483.39	77.24
483.57	84.26
483.74	16.38
483.92	0.00
484.10	67.88
484.28	18.72
484.46	44.47
484.64	49.15
484.82	105.32
485.00	21.06
485.18	39.79
485.35	21.06
485.53	58.51
485.71	95.96
485.89	79.58
486.07	0.00
486.25	0.00
486.43	0.00
486.61	14.04
486.78	18.72
486.96	65.54
487.14	51.49
487.32	37.45
487.50	77.24
487.68	16.38
487.85	42.13
488.03	9.36
488.21	65.54
488.39	51.49
488.57	32.77
488.75	39.79
488.92	60.85
489.10	0.00
489.28	28.09
489.46	86.60
489.64	65.54
489.81	70.22
489.99	77.24
490.17	79.58
490.35	44.47
490.53	65.54
490.70	95.96
490.88	28.09
491.06	124.05
491.24	58.51
491.41	65.54
491.59	79.58
491.77	25.75
491.95	0.00
492.13	39.79
492.30	0.00
492.48	0.00
492.66	7.02
492.84	9.36
493.01	46.81
493.19	18.72
493.37	102.98
493.54	21.06
493.72	93.62
493.90	86.60
494.08	86.60
494.25	0.00
494.43	11.70
494.61	81.92
494.79	0.00
494.96	11.70
495.14	46.81
495.32	0.00
495.49	11.70
495.67	35.11
495.85	91.28
496.02	35.11
496.20	149.79
496.38	16.38
496.55	58.51
496.73	98.30
496.91	95.96
497.09	9.36
497.26	49.15
497.44	4.68
497.62	147.45
497.79	79.58
497.97	0.00
498.14	0.00
498.32	0.00
498.50	86.60
498.67	63.19
498.85	58.51
499.03	93.62
499.20	39.79
499.38	84.26
499.56	79.58
499.73	74.90
499.91	0.00
500.08	18.72
500.26	72.56
500.44	39.79
500.61	39.79
500.79	28.09
500.97	25.75
501.14	72.56
501.32	105.32
501.49	77.24
501.67	100.64
501.84	81.92
502.02	70.22
502.20	11.70
502.37	18.72
502.55	53.83
502.72	63.19
502.90	77.24
503.07	0.00
503.25	70.22
503.43	42.13
503.60	7.02
503.78	74.90
503.95	126.39
504.13	39.79
504.30	11.70
504.48	32.77
504.65	25.75
504.83	37.45
505.01	44.47
505.18	110.01
505.36	35.11
505.53	49.15
505.71	0.00
505.88	32.77
506.06	18.72
506.23	39.79
506.41	51.49
506.58	79.58
506.76	25.75
506.93	0.00
507.11	21.06
507.28	14.04
507.46	58.51
507.63	11.70
507.81	53.83
507.98	79.58
508.16	53.83
508.33	0.00
508.50	0.00
508.68	126.39
508.85	4.68
509.03	46.81
509.20	114.69
509.38	25.75
509.55	23.41
509.73	51.49
509.90	18.72
510.08	0.00
510.25	44.47
510.42	65.54
510.60	51.49
510.77	21.06
510.95	65.54
511.12	16.38
511.30	14.04
511.47	32.77
511.64	81.92
511.82	0.00
511.99	51.49
512.17	100.64
512.34	79.58
512.51	0.00
512.69	70.22
512.86	72.56
513.04	0.00
513.21	0.00
513.38	32.77
513.56	53.83
513.73	18.72
513.90	0.00
514.08	0.00
514.25	105.32
514.43	0.00
514.60	100.64
514.77	42.13
514.95	30.43
515.12	23.41
515.29	67.88
515.47	28.09
515.64	0.00
515.81	79.58
515.99	14.04
516.16	0.00
516.33	39.79
516.51	63.19
516.68	39.79
516.85	42.13
517.03	25.75
517.20	18.72
517.37	11.70
517.54	37.45
517.72	65.54
517.89	37.45
518.06	0.00
518.24	44.47
518.41	30.43
518.58	23.41
518.75	84.26
518.93	0.00
519.10	72.56
519.27	67.88
519.45	51.49
519.62	35.11
519.79	0.00
519.96	9.36
520.14	7.02
520.31	0.00
520.48	18.72
520.65	152.13
520.83	72.56
521.00	9.36
521.17	30.43
521.34	0.00
521.52	0.00
521.69	51.49
521.86	18.72
522.03	46.81
522.20	32.77
522.38	58.51
522.55	95.96
522.72	32.77
522.89	0.00
523.07	0.00
523.24	65.54
523.41	110.01
523.58	44.47
523.75	91.28
523.92	28.09
524.10	70.22
524.27	72.56
524.44	95.96
524.61	86.60
524.78	51.49
524.96	35.11
525.13	9.36
525.30	35.11
525.47	0.00
525.64	25.75
525.81	65.54
525.98	88.94
526.16	37.45
526.33	18.72
526.50	18.72
526.67	0.00
526.84	0.00
527.01	0.00
527.18	0.00
527.36	79.58
527.53	0.00
527.70	7.02
527.87	121.71
528.04	93.62
528.21	25.75
528.38	63.19
528.55	35.11
528.72	131.07
528.89	37.45
529.07	74.90
529.24	53.83
529.41	16.38
529.58	35.11
529.75	14.04
529.92	0.00
530.09	0.00
530.26	28.09
530.43	0.00
530.60	7.02
530.77	0.00
530.94	25.75
531.11	35.11
531.28	60.85
531.46	65.54
531.63	42.13
531.80	35.11
531.97	9.36
532.14	39.79
532.31	98.30
532.48	74.90
532.65	46.81
532.82	53.83
532.99	37.45
533.16	25.75
533.33	14.04
533.50	51.49
533.67	114.69
533.84	51.49
534.01	58.51
534.18	7.02
534.35	107.66
534.52	74.90
534.69	88.94
534.86	93.62
535.03	74.90
535.20	49.15
535.37	65.54
535.54	56.17
535.71	0.00
535.88	105.32
536.05	51.49
536.22	32.77
536.38	37.45
536.55	0.00
536.72	25.75
536.89	56.17
537.06	56.17
537.23	77.24
537.40	11.70
537.57	74.90
537.74	67.88
537.91	79.58
538.08	32.77
538.25	86.60
538.42	81.92
538.59	0.00
538.75	53.83
538.92	42.13
539.09	0.00
539.26	88.94
539.43	74.90
539.60	121.71
539.77	234.05
539.94	142.77
540.11	161.50
540.28	51.49
540.44	63.19
540.61	21.06
540.78	25.75
540.95	102.98
541.12	77.24
541.29	81.92
541.46	70.22
541.62	91.28
541.79	0.00
541.96	42.13
542.13	0.00
542.30	98.30
542.47	21.06
542.63	124.05
542.80	49.15
542.97	56.17
543.14	105.32
543.31	53.83
543.48	100.64
543.64	2.34
543.81	72.56
543.98	0.00
544.15	39.79
544.32	7.02
544.48	39.79
544.65	88.94
544.82	84.26
544.99	11.70
545.16	14.04
545.32	21.06
545.49	0.00
545.66	79.58
545.83	0.00
546.00	77.24
546.16	39.79
546.33	56.17
546.50	21.06
546.67	0.00
546.83	25.75
547.00	63.19
547.17	0.00
547.34	56.17
547.50	65.54
547.67	37.45
547.84	30.43
548.00	11.70
548.17	32.77
548.34	16.38
548.51	42.13
548.67	39.79
548.84	53.83
549.01	11.70
549.18	28.09
549.34	84.26
549.51	46.81
549.68	79.58
549.84	49.15
550.01	86.60
550.18	0.00
550.34	37.45
550.51	74.90
550.68	32.77
550.84	58.51
551.01	119.37
551.18	42.13
551.34	14.04
551.51	91.28
551.68	70.22
551.84	0.00
552.01	70.22
552.18	98.30
552.34	49.15
552.51	56.17
552.68	63.19
552.84	21.06
553.01	44.47
553.18	0.00
553.34	30.43
553.51	18.72
553.67	65.54
553.84	18.72
554.01	53.83
554.17	44.47
554.34	39.79
554.51	79.58
554.67	42.13
554.84	14.04
555.00	16.38
555.17	67.88
555.33	14.04
555.50	30.43
555.67	18.72
555.83	18.72
556.00	42.13
556.16	81.92
556.33	93.62
556.50	65.54
556.66	4.68
556.83	56.17
556.99	14.04
557.16	91.28
557.32	9.36
557.49	39.79
557.65	42.13
557.82	28.09
557.98	42.13
558.15	51.49
558.32	126.39
558.48	35.11
558.65	98.30
558.81	39.79
558.98	11.70
559.14	93.62
559.31	21.06
559.47	37.45
559.64	23.41
559.80	46.81
559.97	49.15
560.13	100.64
560.30	49.15
560.46	42.13
560.63	0.00
560.79	0.00
560.96	56.17
561.12	0.00
561.29	21.06
561.45	56.17
561.61	49.15
561.78	30.43
561.94	51.49
562.11	37.45
562.27	25.75
562.44	74.90
562.60	37.45
562.77	25.75
562.93	25.75
563.10	18.72
563.26	44.47
563.42	23.41
563.59	49.15
563.75	7.02
563.92	0.00
564.08	110.01
564.24	72.56
564.41	30.43
564.57	56.17
564.74	65.54
564.90	0.00
565.07	49.15
565.23	9.36
565.39	28.09
565.56	0.00
565.72	0.00
565.88	23.41
566.05	0.00
566.21	14.04
566.38	81.92
566.54	42.13
566.70	128.73
566.87	0.00
567.03	49.15
567.19	44.47
567.36	35.11
567.52	30.43
567.68	28.09
567.85	16.38
568.01	74.90
568.17	44.47
568.34	81.92
568.50	95.96
568.66	14.04
568.83	65.54
568.99	9.36
569.15	56.17
569.32	60.85
569.48	18.72
569.64	0.00
569.81	0.00
569.97	0.00
570.13	72.56
570.30	32.77
570.46	35.11
570.62	25.75
570.78	9.36
570.95	74.90
571.11	35.11
571.27	0.00
571.43	2.34
571.60	72.56
571.76	18.72
571.92	14.04
572.09	37.45
572.25	9.36
572.41	44.47
572.57	102.98
572.74	0.00
572.90	0.00
573.06	53.83
573.22	49.15
573.38	7.02
573.55	107.66
573.71	46.81
573.87	11.70
574.03	72.56
574.20	161.50
574.36	51.49
574.52	0.00
574.68	32.77
574.84	58.51
575.01	110.01
575.17	98.30
575.33	65.54
575.49	0.00
575.65	23.41
575.82	98.30
575.98	79.58
576.14	67.88
576.30	105.32
576.46	23.41
576.62	42.13
576.79	35.11
576.95	67.88
577.11	0.00
577.27	2.34
577.43	0.00
577.59	0.00
577.75	60.85
577.92	35.11
578.08	67.88
578.24	44.47
578.40	60.85
578.56	65.54
578.72	0.00
578.88	49.15
579.04	105.32
579.21	30.43
579.37	100.64
579.53	65.54
579.69	72.56
579.85	39.79
580.01	56.17
580.17	14.04
580.33	81.92
580.49	39.79
580.65	79.58
580.82	65.54
580.98	51.49
581.14	102.98
581.30	46.81
581.46	100.64
581.62	65.54
581.78	70.22
581.94	124.05
582.10	65.54
582.26	86.60
582.42	98.30
582.58	117.03
582.74	65.54
582.90	84.26
583.06	98.30
583.22	16.38
583.38	72.56
583.54	32.77
583.70	105.32
583.86	60.85
584.02	14.04
584.18	60.85
584.34	156.82
584.50	327.68
584.66	2394.37
584.82	5888.79
584.98	8404.86
585.14	7417.16
585.30	4692.77
585.46	2899.92
585.62	1813.92
585.78	741.95
585.94	304.27
586.10	189.58
586.26	102.98
586.42	100.64
586.58	67.88
586.74	84.26
586.90	67.88
587.06	65.54
587.22	112.35
587.38	46.81
587.54	131.07
587.70	395.55
587.86	578.11
588.02	599.18
588.18	430.66
588.34	280.86
588.49	156.82
588.65	142.77
588.81	121.71
588.97	84.26
589.13	81.92
589.29	0.00
589.45	110.01
589.61	100.64
589.77	21.06
589.93	79.58
590.08	88.94
590.24	74.90
590.40	30.43
590.56	16.38
590.72	117.03
590.88	46.81
591.04	37.45
591.20	39.79
591.35	88.94
591.51	58.51
591.67	112.35
591.83	81.92
591.99	60.85
592.15	60.85
592.31	44.47
592.46	30.43
592.62	67.88
592.78	53.83
592.94	0.00
593.10	67.88
593.26	72.56
593.41	67.88
593.57	81.92
593.73	70.22
593.89	400.23
594.05	819.19
594.20	1130.48
594.36	915.15
594.52	650.67
594.68	388.53
594.84	241.08
594.99	236.39
595.15	91.28
595.31	128.73
595.47	39.79
595.62	53.83
595.78	138.09
595.94	102.98
596.10	49.15
596.25	65.54
596.41	102.98
596.57	56.17
596.73	88.94
596.88	58.51
597.04	205.97
597.20	273.84
597.36	238.73
597.51	215.33
597.67	175.54
597.83	131.07
597.99	77.24
598.14	0.00
598.30	53.83
598.46	107.66
598.61	58.51
598.77	58.51
598.93	42.13
599.09	4.68
599.24	0.00
599.40	11.70
599.56	70.22
599.71	63.19
599.87	74.90
600.03	67.88
600.18	91.28
600.34	0.00
600.50	25.75
600.65	16.38
600.81	28.09
600.97	51.49
601.12	37.45
601.28	25.75
601.44	49.15
601.59	42.13
601.75	49.15
601.91	74.90
602.06	60.85
602.22	49.15
602.37	220.01
602.53	126.39
602.69	224.69
602.84	252.78
603.00	198.95
603.16	222.35
603.31	154.48
603.47	42.13
603.62	84.26
603.78	0.00
603.94	23.41
604.09	35.11
604.25	46.81
604.40	37.45
604.56	0.00
604.71	53.83
604.87	58.51
605.03	77.24
605.18	21.06
605.34	81.92
605.49	21.06
605.65	30.43
605.80	18.72
605.96	0.00
606.12	77.24
606.27	74.90
606.43	51.49
606.58	39.79
606.74	58.51
606.89	367.46
607.05	690.46
607.20	966.64
607.36	674.07
607.51	531.30
607.67	301.93
607.82	220.01
607.98	196.60
608.13	145.11
608.29	63.19
608.44	81.92
608.60	42.13
608.75	16.38
608.91	117.03
609.06	608.54
609.22	1118.78
609.37	1551.78
609.53	1331.76
609.68	919.83
609.84	561.73
609.99	369.80
610.15	238.73
610.30	140.43
610.46	149.79
610.61	98.30
610.76	72.56
610.92	142.77
611.07	63.19
611.23	72.56
611.38	124.05
611.54	37.45
611.69	0.00
611.84	32.77
612.00	4.68
612.15	23.41
612.31	35.11
612.46	49.15
612.62	0.00
612.77	84.26
612.92	14.04
613.08	105.32
613.23	42.13
613.39	49.15
613.54	70.22
613.69	575.77
613.85	1528.37
614.00	2310.11
614.15	2422.45
614.31	1750.72
614.46	1142.18
614.62	702.16
614.77	409.59
614.92	163.84
615.08	138.09
615.23	95.96
615.38	102.98
615.54	86.60
615.69	149.79
615.84	346.40
616.00	493.85
616.15	695.14
616.30	416.62
616.46	351.08
616.61	266.82
616.76	304.27
616.92	220.01
617.07	53.83
617.22	35.11
617.37	18.72
617.53	9.36
617.68	51.49
617.83	14.04
617.99	114.69
618.14	30.43
618.29	39.79
618.45	16.38
618.60	124.05
618.75	74.90
618.90	74.90
619.06	72.56
619.21	58.51
619.36	77.24
619.51	39.79
619.67	56.17
619.82	21.06
619.97	77.24
620.12	93.62
620.28	65.54
620.43	60.85
620.58	44.47
620.73	42.13
620.89	67.88
621.04	58.51
621.19	259.80
621.34	386.19
621.49	447.04
621.65	397.89
621.80	327.68
621.95	198.95
622.10	170.86
622.25	98.30
622.41	51.49
622.56	58.51
622.71	7.02
622.86	21.06
623.01	39.79
623.16	42.13
623.32	49.15
623.47	14.04
623.62	81.92
623.77	42.13
623.92	95.96
624.07	21.06
624.23	51.49
624.38	84.26
624.53	60.85
624.68	30.43
624.83	63.19
624.98	0.00
625.13	14.04
625.29	30.43
625.44	18.72
625.59	46.81
625.74	58.51
625.89	58.51
626.04	217.67
626.19	732.59
626.34	1130.48
626.49	1226.44
626.65	1008.77
626.80	653.01
626.95	444.70
627.10	264.48
627.25	156.82
627.40	60.85
627.55	135.75
627.70	23.41
627.85	42.13
628.00	0.00
628.15	21.06
628.30	63.19
628.45	74.90
628.60	25.75
628.76	88.94
628.91	30.43
629.06	65.54
629.21	49.15
629.36	28.09
629.51	67.88
629.66	72.56
629.81	30.43
629.96	124.05
630.11	287.89
630.26	367.46
630.41	339.38
630.56	191.92
630.71	161.50
630.86	119.37
631.01	91.28
631.16	39.79
631.31	39.79
631.46	53.83
631.61	70.22
631.76	63.19
631.91	81.92
632.06	81.92
632.21	28.09
632.36	88.94
632.51	42.13
632.66	60.85
632.81	191.92
632.96	430.66
633.10	716.20
633.25	938.55
633.40	746.63
633.55	589.82
633.70	454.06
633.85	243.42
634.00	149.79
634.15	119.37
634.30	42.13
634.45	4.68
634.60	30.43
634.75	46.81
634.90	60.85
635.05	72.56
635.19	9.36
635.34	46.81
635.49	0.00
635.64	53.83
635.79	18.72
635.94	58.51
636.09	37.45
636.24	63.19
636.39	23.41
636.53	46.81
636.68	16.38
636.83	32.77
636.98	0.00
637.13	0.00
637.28	35.11
637.43	9.36
637.57	88.94
637.72	451.72
637.87	1039.20
638.02	1483.90
638.17	1584.54
638.32	1231.12
638.46	851.96
638.61	601.52
638.76	308.95
638.91	194.26
639.06	79.58
639.20	37.45
639.35	60.85
639.50	166.18
639.65	685.78
639.80	1476.88
639.94	2331.17
640.09	2675.23
640.24	1877.11
640.39	1394.96
640.54	931.53
640.68	554.71
640.83	297.25
640.98	135.75
641.13	72.56
641.27	84.26
641.42	67.88
641.57	84.26
641.72	74.90
641.86	79.58
642.01	21.06
642.16	53.83
642.31	70.22
642.45	105.32
642.60	51.49
642.75	7.02
642.90	93.62
643.04	0.00
643.19	0.00
643.34	98.30
643.48	9.36
643.63	91.28
643.78	9.36
643.93	46.81
644.07	0.00
644.22	0.00
644.37	86.60
644.51	0.00
644.66	88.94
644.81	72.56
644.95	39.79
645.10	0.00
645.25	74.90
645.39	60.85
645.54	84.26
645.69	56.17
645.83	23.41
645.98	37.45
646.13	46.81
646.27	133.41
646.42	30.43
646.57	53.83
646.71	0.00
646.86	53.83
647.00	0.00
647.15	9.36
647.30	0.00
647.44	44.47
647.59	70.22
647.74	0.00
647.88	42.13
648.03	32.77
648.17	16.38
648.32	32.77
648.47	0.00
648.61	7.02
648.76	9.36
648.90	0.00
649.05	56.17
649.20	25.75
649.34	28.09
649.49	39.79
649.63	72.56
649.78	46.81
649.92	35.11
650.07	210.65
650.21	671.73
650.36	1095.37
650.51	1294.32
650.65	1029.84
650.80	814.51
650.94	472.79
651.09	341.72
651.23	168.52
651.38	67.88
651.52	14.04
651.67	0.00
651.81	79.58
651.96	63.19
652.10	23.41
652.25	25.75
652.39	86.60
652.54	23.41
652.68	46.81
652.83	257.46
652.97	421.30
653.12	519.60
653.26	449.38
653.41	292.57
653.55	210.65
653.70	163.84
653.84	98.30
653.99	51.49
654.13	56.17
654.27	51.49
654.42	46.81
654.56	23.41
654.71	53.83
654.85	30.43
655.00	72.56
655.14	77.24
655.29	0.00
655.43	25.75
655.57	56.17
655.72	9.36
655.86	4.68
656.01	35.11
656.15	9.36
656.30	72.56
656.44	0.00
656.58	77.24
656.73	42.13
656.87	63.19
657.01	25.75
657.16	42.13
657.30	0.00
657.45	0.00
657.59	67.88
657.73	60.85
657.88	0.00
658.02	9.36
658.16	14.04
658.31	67.88
658.45	0.00
658.60	0.00
658.74	56.17
658.88	2.34
659.03	39.79
659.17	77.24
659.31	145.11
659.46	311.29
659.60	521.94
659.74	688.12
659.89	660.03
660.03	400.23
660.17	358.10
660.32	269.16
660.46	86.60
660.60	39.79
660.74	49.15
660.89	51.49
661.03	60.85
661.17	81.92
661.32	14.04
661.46	23.41
661.60	23.41
661.74	51.49
661.89	51.49
662.03	95.96
662.17	140.43
662.31	70.22
662.46	107.66
662.60	0.00
662.74	0.00
662.88	30.43
663.03	65.54
663.17	21.06
663.31	70.22
663.45	0.00
663.60	53.83
663.74	0.00
663.88	35.11
664.02	25.75
664.17	0.00
664.31	53.83
664.45	2.34
664.59	95.96
664.73	2.34
664.88	98.30
665.02	72.56
665.16	67.88
665.30	88.94
665.44	25.75
665.59	25.75
665.73	42.13
665.87	11.70
666.01	16.38
666.15	112.35
666.29	46.81
666.44	95.96
666.58	79.58
666.72	70.22
666.86	100.64
667.00	0.00
667.14	74.90
667.28	177.88
667.43	599.18
667.57	961.96
667.71	1188.99
667.85	947.92
667.99	699.82
668.13	454.06
668.27	252.78
668.41	224.69
668.56	168.52
668.70	77.24
668.84	53.83
668.98	63.19
669.12	81.92
669.26	53.83
669.40	30.43
669.54	18.72
669.68	18.72
669.82	14.04
669.96	25.75
670.10	0.00
670.25	23.41
670.39	63.19
670.53	63.19
670.67	91.28
670.81	63.19
670.95	7.02
671.09	58.51
671.23	238.73
671.37	472.79
671.51	655.35
671.65	667.05
671.79	535.98
671.93	404.91
672.07	248.10
672.21	205.97
672.35	107.66
672.49	44.47
672.63	56.17
672.77	21.06
672.91	60.85
673.05	16.38
673.19	79.58
673.33	25.75
673.47	72.56
673.61	70.22
673.75	110.01
673.89	32.77
674.03	2.34
674.17	0.00
674.31	39.79
674.45	42.13
674.59	16.38
674.73	60.85
674.87	56.17
675.01	60.85
675.15	119.37
675.29	49.15
675.43	0.00
675.56	23.41
675.70	0.00
675.84	0.00
675.98	44.47
676.12	16.38
676.26	0.00
676.40	0.00
676.54	37.45
676.68	25.75
676.82	74.90
676.96	0.00
677.10	60.85
677.23	107.66
677.37	18.72
677.51	0.00
677.65	74.90
677.79	30.43
677.93	42.13
678.07	72.56
678.21	16.38
678.34	72.56
678.48	93.62
678.62	49.15
678.76	18.72
678.90	77.24
679.04	18.72
679.18	44.47
679.31	53.83
679.45	0.00
679.59	16.38
679.73	11.70
679.87	81.92
680.00	67.88
680.14	9.36
680.28	138.09
680.42	56.17
680.56	0.00
680.70	21.06
680.83	95.96
680.97	88.94
681.11	46.81
681.25	0.00
681.39	0.00
681.52	11.70
681.66	114.69
681.80	30.43
681.94	4.68
682.07	16.38
682.21	37.45
682.35	0.00
682.49	0.00
682.62	51.49
682.76	28.09
682.90	9.36
683.04	74.90
683.17	32.77
683.31	42.13
683.45	93.62
683.59	60.85
683.72	16.38
683.86	0.00
684.00	18.72
684.13	16.38
684.27	0.00
684.41	49.15
684.55	70.22
684.68	2.34
684.82	25.75
684.96	0.00
685.09	37.45
685.23	4.68
685.37	0.00
685.50	117.03
685.64	58.51
685.78	30.43
685.91	14.04
686.05	86.60
686.19	39.79
686.32	88.94
686.46	25.75
686.60	86.60
686.73	21.06
686.87	0.00
687.01	0.00
687.14	0.00
687.28	51.49
687.42	53.83
687.55	56.17
687.69	25.75
687.82	53.83
687.96	84.26
688.10	11.70
688.23	0.00
688.37	0.00
688.50	32.77
688.64	23.41
688.78	37.45
688.91	0.00
689.05	0.00
689.18	0.00
689.32	56.17
689.46	25.75
689.59	46.81
689.73	42.13
689.86	0.00
690.00	35.11
690.13	79.58
690.27	0.00
690.41	0.00
690.54	72.56
690.68	11.70
690.81	49.15
690.95	0.00
691.08	65.54
691.22	60.85
691.35	9.36
691.49	11.70
691.62	35.11
691.76	46.81
691.89	60.85
692.03	37.45
692.16	32.77
692.30	16.38
692.43	86.60
692.57	208.31
692.70	348.74
692.84	540.66
692.97	500.87
693.11	330.02
693.24	252.78
693.38	297.25
693.51	198.95
693.65	65.54
693.78	65.54
693.92	35.11
694.05	93.62
694.19	51.49
694.32	2.34
694.45	77.24
694.59	42.13
694.72	0.00
694.86	74.90
694.99	4.68
695.13	0.00
695.26	51.49
695.39	23.41
695.53	0.00
695.66	0.00
695.80	91.28
695.93	60.85
696.07	30.43
696.20	70.22
696.33	58.51
696.47	42.13
696.60	39.79
696.73	51.49
696.87	84.26
697.00	21.06
697.14	0.00
697.27	0.00
697.40	25.75
697.54	72.56
697.67	0.00
697.80	49.15
697.94	11.70
698.07	53.83
698.21	30.43
698.34	2.34
698.47	46.81
698.61	56.17
698.74	51.49
698.87	9.36
699.01	49.15
699.14	67.88
699.27	77.24
699.40	58.51
699.54	74.90
699.67	72.56
699.80	0.00
699.94	28.09
700.07	0.00
700.20	65.54
700.34	110.01
700.47	67.88
700.60	32.77
700.73	7.02
700.87	25.75
701.00	56.17
701.13	23.41
701.26	67.88
701.40	32.77
701.53	30.43
701.66	0.00
701.79	79.58
701.93	84.26
702.06	114.69
702.19	100.64
702.32	77.24
702.46	138.09
702.59	0.00
702.72	95.96
702.85	400.23
702.99	718.54
703.12	854.30
703.25	1104.73
703.38	809.83
703.51	678.76
703.65	587.47
703.78	397.89
703.91	238.73
704.04	180.22
704.17	93.62
704.31	135.75
704.44	65.54
704.57	0.00
704.70	53.83
704.83	46.81
704.96	0.00
705.10	121.71
705.23	63.19
>>>>>End Processed Spectral Data<<<<<
