SpectraSuite Data File
++++++++++++++++++++++++++++++++++++
Date: Fri Oct 04 12:13:29 GMT-05:00 2013
User: price-jones
Dark Spectrum Present: No
Reference Spectrum Present: No
Number of Sampled Component Spectra: 1
Spectrometers: USB2+H05261
Integration Time (usec): 10000 (USB2+H05261)
Spectra Averaged: 1 (USB2+H05261)
Boxcar Smoothing: 0 (USB2+H05261)
Correct for Electrical Dark: No (USB2+H05261)
Strobe/Lamp Enabled: No (USB2+H05261)
Correct for Detector Non-linearity: No (USB2+H05261)
Correct for Stray Light: No (USB2+H05261)
Number of Pixels in Processed Spectrum: 2048
>>>>>Begin Processed Spectral Data<<<<<
365.73	0.00
365.92	0.00
366.12	0.00
366.32	0.00
366.52	0.00
366.72	0.00
366.91	0.00
367.11	0.00
367.31	0.00
367.51	0.00
367.70	0.00
367.90	0.00
368.10	0.00
368.30	0.00
368.49	0.00
368.69	0.00
368.89	0.00
369.09	0.00
369.28	0.00
369.48	0.00
369.68	0.00
369.87	0.00
370.07	0.00
370.27	0.00
370.47	0.00
370.66	0.00
370.86	0.00
371.06	0.00
371.25	0.00
371.45	0.00
371.65	2.34
371.84	0.00
372.04	0.00
372.24	0.00
372.44	32.77
372.63	21.06
372.83	9.36
373.03	0.00
373.22	53.83
373.42	98.30
373.62	2.34
373.81	32.77
374.01	0.00
374.21	25.75
374.40	0.00
374.60	51.49
374.79	0.00
374.99	37.45
375.19	86.60
375.38	105.32
375.58	18.72
375.78	28.09
375.97	58.51
376.17	63.19
376.37	0.00
376.56	0.00
376.76	39.79
376.95	0.00
377.15	0.00
377.35	0.00
377.54	56.17
377.74	0.00
377.93	51.49
378.13	7.02
378.33	30.43
378.52	0.00
378.72	4.68
378.91	0.00
379.11	30.43
379.31	0.00
379.50	39.79
379.70	4.68
379.89	28.09
380.09	0.00
380.28	0.00
380.48	0.00
380.68	72.56
380.87	9.36
381.07	18.72
381.26	0.00
381.46	0.00
381.65	21.06
381.85	0.00
382.04	42.13
382.24	49.15
382.43	84.26
382.63	0.00
382.83	37.45
383.02	44.47
383.22	0.00
383.41	18.72
383.61	46.81
383.80	0.00
384.00	0.00
384.19	25.75
384.39	0.00
384.58	16.38
384.78	0.00
384.97	0.00
385.17	42.13
385.36	67.88
385.56	0.00
385.75	11.70
385.95	51.49
386.14	70.22
386.34	25.75
386.53	72.56
386.72	30.43
386.92	0.00
387.11	0.00
387.31	49.15
387.50	70.22
387.70	56.17
387.89	0.00
388.09	23.41
388.28	0.00
388.48	56.17
388.67	0.00
388.86	30.43
389.06	44.47
389.25	0.00
389.45	11.70
389.64	42.13
389.84	0.00
390.03	0.00
390.22	79.58
390.42	44.47
390.61	0.00
390.81	0.00
391.00	49.15
391.19	79.58
391.39	0.00
391.58	58.51
391.78	0.00
391.97	7.02
392.16	0.00
392.36	9.36
392.55	30.43
392.75	37.45
392.94	9.36
393.13	21.06
393.33	25.75
393.52	2.34
393.71	0.00
393.91	53.83
394.10	9.36
394.29	0.00
394.49	70.22
394.68	18.72
394.88	124.05
395.07	107.66
395.26	0.00
395.46	0.00
395.65	28.09
395.84	84.26
396.04	0.00
396.23	11.70
396.42	56.17
396.62	0.00
396.81	28.09
397.00	51.49
397.19	0.00
397.39	0.00
397.58	58.51
397.77	11.70
397.97	37.45
398.16	21.06
398.35	0.00
398.55	46.81
398.74	0.00
398.93	16.38
399.12	46.81
399.32	0.00
399.51	46.81
399.70	30.43
399.90	0.00
400.09	46.81
400.28	21.06
400.47	21.06
400.67	110.01
400.86	14.04
401.05	72.56
401.24	58.51
401.44	25.75
401.63	65.54
401.82	18.72
402.01	51.49
402.21	14.04
402.40	30.43
402.59	0.00
402.78	0.00
402.97	0.00
403.17	0.00
403.36	14.04
403.55	32.77
403.74	39.79
403.93	91.28
404.13	35.11
404.32	0.00
404.51	0.00
404.70	4.68
404.89	0.00
405.09	93.62
405.28	4.68
405.47	70.22
405.66	0.00
405.85	16.38
406.05	2.34
406.24	32.77
406.43	49.15
406.62	44.47
406.81	0.00
407.00	0.00
407.20	16.38
407.39	46.81
407.58	95.96
407.77	56.17
407.96	53.83
408.15	72.56
408.34	21.06
408.54	11.70
408.73	44.47
408.92	0.00
409.11	0.00
409.30	77.24
409.49	0.00
409.68	28.09
409.87	67.88
410.07	2.34
410.26	98.30
410.45	0.00
410.64	23.41
410.83	28.09
411.02	0.00
411.21	58.51
411.40	23.41
411.59	0.00
411.78	0.00
411.98	67.88
412.17	39.79
412.36	0.00
412.55	2.34
412.74	0.00
412.93	32.77
413.12	77.24
413.31	4.68
413.50	35.11
413.69	21.06
413.88	35.11
414.07	70.22
414.26	21.06
414.45	63.19
414.64	88.94
414.83	67.88
415.02	30.43
415.22	102.98
415.41	28.09
415.60	46.81
415.79	44.47
415.98	72.56
416.17	0.00
416.36	0.00
416.55	7.02
416.74	58.51
416.93	74.90
417.12	49.15
417.31	39.79
417.50	16.38
417.69	49.15
417.88	74.90
418.07	107.66
418.26	16.38
418.45	44.47
418.64	88.94
418.83	0.00
419.02	0.00
419.21	58.51
419.39	39.79
419.58	0.00
419.77	32.77
419.96	32.77
420.15	23.41
420.34	56.17
420.53	14.04
420.72	2.34
420.91	25.75
421.10	32.77
421.29	84.26
421.48	0.00
421.67	0.00
421.86	23.41
422.05	0.00
422.24	11.70
422.43	44.47
422.61	16.38
422.80	9.36
422.99	0.00
423.18	79.58
423.37	56.17
423.56	39.79
423.75	32.77
423.94	4.68
424.13	14.04
424.32	114.69
424.50	9.36
424.69	0.00
424.88	86.60
425.07	2.34
425.26	67.88
425.45	0.00
425.64	9.36
425.83	88.94
426.01	49.15
426.20	25.75
426.39	95.96
426.58	81.92
426.77	16.38
426.96	42.13
427.15	53.83
427.33	18.72
427.52	77.24
427.71	35.11
427.90	0.00
428.09	16.38
428.28	42.13
428.46	79.58
428.65	23.41
428.84	4.68
429.03	16.38
429.22	42.13
429.40	65.54
429.59	4.68
429.78	2.34
429.97	84.26
430.16	42.13
430.34	0.00
430.53	7.02
430.72	39.79
430.91	95.96
431.10	49.15
431.28	11.70
431.47	79.58
431.66	39.79
431.85	23.41
432.03	58.51
432.22	0.00
432.41	30.43
432.60	9.36
432.79	53.83
432.97	39.79
433.16	0.00
433.35	0.00
433.54	0.00
433.72	0.00
433.91	0.00
434.10	2.34
434.28	25.75
434.47	35.11
434.66	42.13
434.85	0.00
435.03	37.45
435.22	0.00
435.41	0.00
435.59	28.09
435.78	7.02
435.97	18.72
436.16	44.47
436.34	51.49
436.53	51.49
436.72	60.85
436.90	46.81
437.09	30.43
437.28	46.81
437.46	21.06
437.65	23.41
437.84	14.04
438.02	51.49
438.21	4.68
438.40	35.11
438.58	93.62
438.77	0.00
438.96	42.13
439.14	21.06
439.33	42.13
439.52	0.00
439.70	49.15
439.89	25.75
440.08	14.04
440.26	0.00
440.45	11.70
440.63	0.00
440.82	95.96
441.01	147.45
441.19	18.72
441.38	7.02
441.57	11.70
441.75	37.45
441.94	0.00
442.12	21.06
442.31	18.72
442.50	18.72
442.68	0.00
442.87	51.49
443.05	0.00
443.24	0.00
443.43	18.72
443.61	32.77
443.80	25.75
443.98	58.51
444.17	51.49
444.35	0.00
444.54	46.81
444.73	0.00
444.91	7.02
445.10	77.24
445.28	65.54
445.47	0.00
445.65	14.04
445.84	53.83
446.02	105.32
446.21	51.49
446.39	0.00
446.58	7.02
446.77	49.15
446.95	21.06
447.14	53.83
447.32	0.00
447.51	16.38
447.69	14.04
447.88	30.43
448.06	2.34
448.25	0.00
448.43	51.49
448.62	0.00
448.80	105.32
448.99	65.54
449.17	53.83
449.36	0.00
449.54	81.92
449.73	0.00
449.91	21.06
450.10	70.22
450.28	110.01
450.46	145.11
450.65	0.00
450.83	11.70
451.02	0.00
451.20	81.92
451.39	93.62
451.57	14.04
451.76	65.54
451.94	98.30
452.13	56.17
452.31	0.00
452.49	53.83
452.68	74.90
452.86	63.19
453.05	28.09
453.23	25.75
453.42	0.00
453.60	23.41
453.78	86.60
453.97	93.62
454.15	25.75
454.34	51.49
454.52	42.13
454.70	95.96
454.89	56.17
455.07	49.15
455.26	23.41
455.44	0.00
455.62	98.30
455.81	46.81
455.99	0.00
456.17	42.13
456.36	25.75
456.54	88.94
456.73	56.17
456.91	0.00
457.09	67.88
457.28	42.13
457.46	56.17
457.64	0.00
457.83	0.00
458.01	56.17
458.19	0.00
458.38	32.77
458.56	11.70
458.74	2.34
458.93	63.19
459.11	42.13
459.29	81.92
459.48	0.00
459.66	11.70
459.84	0.00
460.03	110.01
460.21	25.75
460.39	28.09
460.57	58.51
460.76	0.00
460.94	35.11
461.12	79.58
461.31	53.83
461.49	0.00
461.67	46.81
461.85	84.26
462.04	67.88
462.22	81.92
462.40	56.17
462.59	0.00
462.77	14.04
462.95	93.62
463.13	0.00
463.32	51.49
463.50	9.36
463.68	56.17
463.86	11.70
464.05	72.56
464.23	18.72
464.41	4.68
464.59	2.34
464.78	35.11
464.96	65.54
465.14	0.00
465.32	2.34
465.50	128.73
465.69	95.96
465.87	0.00
466.05	58.51
466.23	16.38
466.41	56.17
466.60	9.36
466.78	0.00
466.96	30.43
467.14	0.00
467.32	49.15
467.51	98.30
467.69	72.56
467.87	84.26
468.05	32.77
468.23	0.00
468.41	100.64
468.60	88.94
468.78	84.26
468.96	28.09
469.14	39.79
469.32	60.85
469.50	42.13
469.69	16.38
469.87	25.75
470.05	37.45
470.23	0.00
470.41	65.54
470.59	7.02
470.77	35.11
470.95	11.70
471.14	63.19
471.32	110.01
471.50	49.15
471.68	0.00
471.86	84.26
472.04	84.26
472.22	79.58
472.40	70.22
472.58	37.45
472.77	51.49
472.95	42.13
473.13	60.85
473.31	79.58
473.49	35.11
473.67	0.00
473.85	72.56
474.03	37.45
474.21	67.88
474.39	77.24
474.57	60.85
474.75	16.38
474.93	56.17
475.12	18.72
475.30	42.13
475.48	16.38
475.66	91.28
475.84	86.60
476.02	65.54
476.20	102.98
476.38	74.90
476.56	93.62
476.74	39.79
476.92	42.13
477.10	56.17
477.28	49.15
477.46	7.02
477.64	30.43
477.82	0.00
478.00	0.00
478.18	56.17
478.36	0.00
478.54	28.09
478.72	81.92
478.90	39.79
479.08	77.24
479.26	23.41
479.44	74.90
479.62	32.77
479.80	0.00
479.98	28.09
480.16	51.49
480.34	16.38
480.52	4.68
480.70	11.70
480.88	46.81
481.06	49.15
481.24	91.28
481.41	63.19
481.59	53.83
481.77	56.17
481.95	14.04
482.13	42.13
482.31	35.11
482.49	84.26
482.67	42.13
482.85	42.13
483.03	95.96
483.21	37.45
483.39	21.06
483.57	77.24
483.74	0.00
483.92	0.00
484.10	65.54
484.28	51.49
484.46	98.30
484.64	112.35
484.82	39.79
485.00	44.47
485.18	11.70
485.35	98.30
485.53	100.64
485.71	126.39
485.89	39.79
486.07	35.11
486.25	67.88
486.43	0.00
486.61	46.81
486.78	0.00
486.96	25.75
487.14	35.11
487.32	74.90
487.50	72.56
487.68	0.00
487.85	39.79
488.03	37.45
488.21	39.79
488.39	42.13
488.57	49.15
488.75	11.70
488.92	35.11
489.10	25.75
489.28	42.13
489.46	65.54
489.64	0.00
489.81	67.88
489.99	0.00
490.17	39.79
490.35	63.19
490.53	23.41
490.70	16.38
490.88	7.02
491.06	4.68
491.24	58.51
491.41	46.81
491.59	65.54
491.77	11.70
491.95	9.36
492.13	25.75
492.30	25.75
492.48	0.00
492.66	79.58
492.84	58.51
493.01	63.19
493.19	14.04
493.37	72.56
493.54	11.70
493.72	42.13
493.90	16.38
494.08	32.77
494.25	0.00
494.43	58.51
494.61	42.13
494.79	138.09
494.96	35.11
495.14	21.06
495.32	42.13
495.49	74.90
495.67	32.77
495.85	49.15
496.02	23.41
496.20	0.00
496.38	0.00
496.55	110.01
496.73	114.69
496.91	102.98
497.09	58.51
497.26	56.17
497.44	0.00
497.62	65.54
497.79	0.00
497.97	0.00
498.14	49.15
498.32	37.45
498.50	0.00
498.67	46.81
498.85	56.17
499.03	63.19
499.20	42.13
499.38	0.00
499.56	0.00
499.73	79.58
499.91	35.11
500.08	72.56
500.26	65.54
500.44	70.22
500.61	0.00
500.79	72.56
500.97	0.00
501.14	39.79
501.32	79.58
501.49	25.75
501.67	91.28
501.84	18.72
502.02	0.00
502.20	46.81
502.37	46.81
502.55	0.00
502.72	46.81
502.90	70.22
503.07	65.54
503.25	49.15
503.43	63.19
503.60	65.54
503.78	0.00
503.95	56.17
504.13	37.45
504.30	53.83
504.48	112.35
504.65	4.68
504.83	58.51
505.01	0.00
505.18	39.79
505.36	37.45
505.53	95.96
505.71	44.47
505.88	93.62
506.06	25.75
506.23	32.77
506.41	32.77
506.58	126.39
506.76	42.13
506.93	25.75
507.11	79.58
507.28	39.79
507.46	58.51
507.63	37.45
507.81	51.49
507.98	35.11
508.16	7.02
508.33	60.85
508.50	30.43
508.68	49.15
508.85	37.45
509.03	72.56
509.20	16.38
509.38	65.54
509.55	23.41
509.73	67.88
509.90	133.41
510.08	30.43
510.25	2.34
510.42	14.04
510.60	72.56
510.77	124.05
510.95	100.64
511.12	105.32
511.30	58.51
511.47	163.84
511.64	63.19
511.82	2.34
511.99	79.58
512.17	0.00
512.34	21.06
512.51	49.15
512.69	39.79
512.86	0.00
513.04	46.81
513.21	65.54
513.38	72.56
513.56	14.04
513.73	72.56
513.90	37.45
514.08	79.58
514.25	32.77
514.43	16.38
514.60	86.60
514.77	14.04
514.95	39.79
515.12	51.49
515.29	60.85
515.47	14.04
515.64	49.15
515.81	18.72
515.99	21.06
516.16	16.38
516.33	93.62
516.51	0.00
516.68	32.77
516.85	86.60
517.03	58.51
517.20	2.34
517.37	0.00
517.54	42.13
517.72	63.19
517.89	53.83
518.06	0.00
518.24	63.19
518.41	49.15
518.58	9.36
518.75	16.38
518.93	32.77
519.10	67.88
519.27	91.28
519.45	0.00
519.62	46.81
519.79	79.58
519.96	88.94
520.14	100.64
520.31	0.00
520.48	51.49
520.65	25.75
520.83	53.83
521.00	98.30
521.17	93.62
521.34	0.00
521.52	42.13
521.69	0.00
521.86	56.17
522.03	25.75
522.20	53.83
522.38	128.73
522.55	46.81
522.72	25.75
522.89	42.13
523.07	0.00
523.24	81.92
523.41	58.51
523.58	0.00
523.75	102.98
523.92	18.72
524.10	35.11
524.27	128.73
524.44	72.56
524.61	100.64
524.78	2.34
524.96	25.75
525.13	100.64
525.30	63.19
525.47	72.56
525.64	51.49
525.81	72.56
525.98	98.30
526.16	35.11
526.33	0.00
526.50	44.47
526.67	16.38
526.84	42.13
527.01	0.00
527.18	49.15
527.36	42.13
527.53	2.34
527.70	2.34
527.87	23.41
528.04	37.45
528.21	30.43
528.38	11.70
528.55	32.77
528.72	32.77
528.89	25.75
529.07	51.49
529.24	95.96
529.41	49.15
529.58	42.13
529.75	79.58
529.92	9.36
530.09	88.94
530.26	51.49
530.43	28.09
530.60	95.96
530.77	63.19
530.94	100.64
531.11	79.58
531.28	37.45
531.46	21.06
531.63	51.49
531.80	91.28
531.97	49.15
532.14	0.00
532.31	28.09
532.48	25.75
532.65	44.47
532.82	98.30
532.99	98.30
533.16	0.00
533.33	77.24
533.50	32.77
533.67	72.56
533.84	21.06
534.01	105.32
534.18	46.81
534.35	70.22
534.52	56.17
534.69	25.75
534.86	42.13
535.03	0.00
535.20	51.49
535.37	74.90
535.54	53.83
535.71	0.00
535.88	18.72
536.05	28.09
536.22	63.19
536.38	35.11
536.55	51.49
536.72	60.85
536.89	21.06
537.06	0.00
537.23	117.03
537.40	42.13
537.57	16.38
537.74	86.60
537.91	4.68
538.08	0.00
538.25	16.38
538.42	74.90
538.59	18.72
538.75	42.13
538.92	65.54
539.09	42.13
539.26	9.36
539.43	117.03
539.60	98.30
539.77	86.60
539.94	86.60
540.11	21.06
540.28	28.09
540.44	28.09
540.61	14.04
540.78	65.54
540.95	7.02
541.12	0.00
541.29	46.81
541.46	88.94
541.62	16.38
541.79	0.00
541.96	0.00
542.13	11.70
542.30	16.38
542.47	18.72
542.63	65.54
542.80	28.09
542.97	16.38
543.14	30.43
543.31	63.19
543.48	21.06
543.64	56.17
543.81	110.01
543.98	53.83
544.15	16.38
544.32	16.38
544.48	86.60
544.65	0.00
544.82	42.13
544.99	37.45
545.16	102.98
545.32	21.06
545.49	46.81
545.66	72.56
545.83	11.70
546.00	86.60
546.16	79.58
546.33	84.26
546.50	16.38
546.67	51.49
546.83	49.15
547.00	30.43
547.17	0.00
547.34	23.41
547.50	107.66
547.67	32.77
547.84	32.77
548.00	32.77
548.17	18.72
548.34	39.79
548.51	0.00
548.67	56.17
548.84	0.00
549.01	23.41
549.18	0.00
549.34	28.09
549.51	11.70
549.68	72.56
549.84	86.60
550.01	37.45
550.18	145.11
550.34	42.13
550.51	65.54
550.68	65.54
550.84	156.82
551.01	0.00
551.18	28.09
551.34	51.49
551.51	18.72
551.68	0.00
551.84	2.34
552.01	28.09
552.18	46.81
552.34	58.51
552.51	49.15
552.68	53.83
552.84	44.47
553.01	105.32
553.18	58.51
553.34	28.09
553.51	65.54
553.67	107.66
553.84	0.00
554.01	58.51
554.17	4.68
554.34	4.68
554.51	4.68
554.67	0.00
554.84	18.72
555.00	35.11
555.17	60.85
555.33	25.75
555.50	37.45
555.67	44.47
555.83	14.04
556.00	2.34
556.16	74.90
556.33	39.79
556.50	9.36
556.66	32.77
556.83	32.77
556.99	4.68
557.16	49.15
557.32	25.75
557.49	0.00
557.65	0.00
557.82	35.11
557.98	72.56
558.15	16.38
558.32	117.03
558.48	11.70
558.65	16.38
558.81	95.96
558.98	0.00
559.14	51.49
559.31	2.34
559.47	77.24
559.64	0.00
559.80	39.79
559.97	65.54
560.13	56.17
560.30	7.02
560.46	84.26
560.63	25.75
560.79	0.00
560.96	60.85
561.12	65.54
561.29	56.17
561.45	25.75
561.61	7.02
561.78	88.94
561.94	145.11
562.11	23.41
562.27	53.83
562.44	0.00
562.60	0.00
562.77	32.77
562.93	88.94
563.10	46.81
563.26	44.47
563.42	0.00
563.59	56.17
563.75	44.47
563.92	95.96
564.08	56.17
564.24	23.41
564.41	74.90
564.57	35.11
564.74	74.90
564.90	175.54
565.07	51.49
565.23	44.47
565.39	23.41
565.56	60.85
565.72	67.88
565.88	4.68
566.05	0.00
566.21	0.00
566.38	21.06
566.54	107.66
566.70	0.00
566.87	9.36
567.03	0.00
567.19	79.58
567.36	95.96
567.52	44.47
567.68	30.43
567.85	0.00
568.01	72.56
568.17	79.58
568.34	56.17
568.50	67.88
568.66	112.35
568.83	65.54
568.99	100.64
569.15	49.15
569.32	14.04
569.48	0.00
569.64	42.13
569.81	30.43
569.97	49.15
570.13	37.45
570.30	0.00
570.46	18.72
570.62	49.15
570.78	65.54
570.95	39.79
571.11	32.77
571.27	88.94
571.43	0.00
571.60	65.54
571.76	37.45
571.92	86.60
572.09	42.13
572.25	39.79
572.41	0.00
572.57	163.84
572.74	58.51
572.90	72.56
573.06	9.36
573.22	39.79
573.38	60.85
573.55	30.43
573.71	91.28
573.87	93.62
574.03	39.79
574.20	51.49
574.36	74.90
574.52	67.88
574.68	18.72
574.84	14.04
575.01	58.51
575.17	18.72
575.33	49.15
575.49	16.38
575.65	70.22
575.82	60.85
575.98	65.54
576.14	56.17
576.30	51.49
576.46	28.09
576.62	35.11
576.79	60.85
576.95	16.38
577.11	46.81
577.27	0.00
577.43	102.98
577.59	37.45
577.75	70.22
577.92	84.26
578.08	60.85
578.24	49.15
578.40	72.56
578.56	42.13
578.72	46.81
578.88	28.09
579.04	65.54
579.21	39.79
579.37	18.72
579.53	0.00
579.69	58.51
579.85	30.43
580.01	93.62
580.17	114.69
580.33	4.68
580.49	70.22
580.65	70.22
580.82	25.75
580.98	100.64
581.14	7.02
581.30	23.41
581.46	86.60
581.62	84.26
581.78	30.43
581.94	88.94
582.10	16.38
582.26	18.72
582.42	35.11
582.58	28.09
582.74	49.15
582.90	112.35
583.06	102.98
583.22	56.17
583.38	72.56
583.54	51.49
583.70	25.75
583.86	2.34
584.02	70.22
584.18	98.30
584.34	25.75
584.50	353.42
584.66	1664.12
584.82	3604.42
584.98	4926.83
585.14	4114.66
585.30	2661.19
585.46	1732.00
585.62	1074.31
585.78	503.22
585.94	187.24
586.10	110.01
586.26	77.24
586.42	70.22
586.58	95.96
586.74	131.07
586.90	0.00
587.06	28.09
587.22	102.98
587.38	117.03
587.54	95.96
587.70	271.50
587.86	367.46
588.02	365.12
588.18	250.44
588.34	215.33
588.49	119.37
588.65	114.69
588.81	44.47
588.97	18.72
589.13	65.54
589.29	11.70
589.45	4.68
589.61	72.56
589.77	63.19
589.93	16.38
590.08	79.58
590.24	84.26
590.40	46.81
590.56	0.00
590.72	84.26
590.88	102.98
591.04	105.32
591.20	63.19
591.35	44.47
591.51	32.77
591.67	30.43
591.83	114.69
591.99	67.88
592.15	74.90
592.31	63.19
592.46	42.13
592.62	35.11
592.78	0.00
592.94	28.09
593.10	32.77
593.26	0.00
593.41	63.19
593.57	37.45
593.73	28.09
593.89	231.71
594.05	568.75
594.20	624.92
594.36	540.66
594.52	407.25
594.68	201.29
594.84	182.56
594.99	72.56
595.15	51.49
595.31	51.49
595.47	39.79
595.62	79.58
595.78	9.36
595.94	42.13
596.10	117.03
596.25	98.30
596.41	88.94
596.57	77.24
596.73	58.51
596.88	74.90
597.04	112.35
597.20	131.07
597.36	177.88
597.51	147.45
597.67	131.07
597.83	39.79
597.99	16.38
598.14	51.49
598.30	42.13
598.46	126.39
598.61	77.24
598.77	46.81
598.93	42.13
599.09	18.72
599.24	95.96
599.40	72.56
599.56	79.58
599.71	44.47
599.87	32.77
600.03	49.15
600.18	28.09
600.34	58.51
600.50	86.60
600.65	35.11
600.81	49.15
600.97	0.00
601.12	0.00
601.28	77.24
601.44	72.56
601.59	46.81
601.75	0.00
601.91	72.56
602.06	63.19
602.22	86.60
602.37	70.22
602.53	126.39
602.69	227.03
602.84	152.13
603.00	42.13
603.16	142.77
603.31	63.19
603.47	98.30
603.62	42.13
603.78	16.38
603.94	0.00
604.09	0.00
604.25	0.00
604.40	72.56
604.56	79.58
604.71	44.47
604.87	7.02
605.03	16.38
605.18	65.54
605.34	81.92
605.49	32.77
605.65	25.75
605.80	4.68
605.96	0.00
606.12	16.38
606.27	39.79
606.43	105.32
606.58	32.77
606.74	95.96
606.89	287.89
607.05	407.25
607.20	566.41
607.36	442.36
607.51	327.68
607.67	304.27
607.82	152.13
607.98	102.98
608.13	72.56
608.29	11.70
608.44	37.45
608.60	0.00
608.75	84.26
608.91	119.37
609.06	407.25
609.22	786.42
609.37	875.36
609.53	786.42
609.68	514.92
609.84	418.96
609.99	318.31
610.15	98.30
610.30	56.17
610.46	28.09
610.61	28.09
610.76	0.00
610.92	0.00
611.07	39.79
611.23	16.38
611.38	100.64
611.54	23.41
611.69	49.15
611.84	11.70
612.00	7.02
612.15	0.00
612.31	81.92
612.46	4.68
612.62	23.41
612.77	28.09
612.92	65.54
613.08	112.35
613.23	49.15
613.39	30.43
613.54	119.37
613.69	402.57
613.85	1048.56
614.00	1308.36
614.15	1352.83
614.31	1018.13
614.46	674.07
614.62	512.58
614.77	374.49
614.92	170.86
615.08	147.45
615.23	74.90
615.38	63.19
615.54	124.05
615.69	79.58
615.84	287.89
616.00	365.12
616.15	407.25
616.30	306.61
616.46	173.20
616.61	142.77
616.76	102.98
616.92	67.88
617.07	79.58
617.22	65.54
617.37	16.38
617.53	28.09
617.68	91.28
617.83	2.34
617.99	70.22
618.14	37.45
618.29	42.13
618.45	42.13
618.60	11.70
618.75	11.70
618.90	67.88
619.06	30.43
619.21	56.17
619.36	135.75
619.51	51.49
619.67	32.77
619.82	44.47
619.97	11.70
620.12	51.49
620.28	0.00
620.43	67.88
620.58	65.54
620.73	46.81
620.89	42.13
621.04	42.13
621.19	98.30
621.34	241.08
621.49	264.48
621.65	189.58
621.80	140.43
621.95	100.64
622.10	35.11
622.25	93.62
622.41	53.83
622.56	37.45
622.71	0.00
622.86	63.19
623.01	28.09
623.16	74.90
623.32	44.47
623.47	60.85
623.62	39.79
623.77	21.06
623.92	56.17
624.07	98.30
624.23	0.00
624.38	58.51
624.53	128.73
624.68	53.83
624.83	0.00
624.98	100.64
625.13	60.85
625.29	67.88
625.44	0.00
625.59	0.00
625.74	42.13
625.89	79.58
626.04	159.16
626.19	482.15
626.34	716.20
626.49	716.20
626.65	587.47
626.80	468.11
626.95	287.89
627.10	95.96
627.25	159.16
627.40	67.88
627.55	81.92
627.70	93.62
627.85	35.11
628.00	23.41
628.15	95.96
628.30	53.83
628.45	28.09
628.60	95.96
628.76	65.54
628.91	16.38
629.06	39.79
629.21	53.83
629.36	23.41
629.51	0.00
629.66	2.34
629.81	56.17
629.96	166.18
630.11	264.48
630.26	231.71
630.41	285.55
630.56	138.09
630.71	86.60
630.86	124.05
631.01	56.17
631.16	0.00
631.31	88.94
631.46	28.09
631.61	63.19
631.76	23.41
631.91	65.54
632.06	93.62
632.21	2.34
632.36	67.88
632.51	72.56
632.66	42.13
632.81	131.07
632.96	339.38
633.10	510.24
633.25	479.81
633.40	458.74
633.55	355.76
633.70	208.31
633.85	100.64
634.00	84.26
634.15	140.43
634.30	0.00
634.45	0.00
634.60	65.54
634.75	0.00
634.90	51.49
635.05	58.51
635.19	14.04
635.34	46.81
635.49	65.54
635.64	58.51
635.79	84.26
635.94	37.45
636.09	60.85
636.24	0.00
636.39	91.28
636.53	95.96
636.68	58.51
636.83	93.62
636.98	35.11
637.13	14.04
637.28	58.51
637.43	88.94
637.57	0.00
637.72	292.57
637.87	528.96
638.02	898.77
638.17	954.94
638.32	725.57
638.46	524.28
638.61	355.76
638.76	201.29
638.91	84.26
639.06	128.73
639.20	16.38
639.35	42.13
639.50	30.43
639.65	404.91
639.80	1029.84
639.94	1303.68
640.09	1423.05
640.24	1008.77
640.39	763.01
640.54	510.24
640.68	383.85
640.83	220.01
640.98	110.01
641.13	42.13
641.27	46.81
641.42	53.83
641.57	0.00
641.72	56.17
641.86	60.85
642.01	14.04
642.16	30.43
642.31	7.02
642.45	44.47
642.60	53.83
642.75	95.96
642.90	70.22
643.04	35.11
643.19	16.38
643.34	42.13
643.48	74.90
643.63	79.58
643.78	11.70
643.93	0.00
644.07	37.45
644.22	0.00
644.37	93.62
644.51	39.79
644.66	56.17
644.81	0.00
644.95	30.43
645.10	53.83
645.25	112.35
645.39	56.17
645.54	91.28
645.69	105.32
645.83	35.11
645.98	0.00
646.13	46.81
646.27	37.45
646.42	0.00
646.57	98.30
646.71	14.04
646.86	93.62
647.00	0.00
647.15	35.11
647.30	18.72
647.44	84.26
647.59	23.41
647.74	35.11
647.88	44.47
648.03	23.41
648.17	23.41
648.32	74.90
648.47	58.51
648.61	39.79
648.76	2.34
648.90	88.94
649.05	39.79
649.20	28.09
649.34	28.09
649.49	18.72
649.63	56.17
649.78	65.54
649.92	91.28
650.07	156.82
650.21	395.55
650.36	727.91
650.51	814.51
650.65	613.22
650.80	521.94
650.94	318.31
651.09	180.22
651.23	110.01
651.38	86.60
651.52	0.00
651.67	105.32
651.81	65.54
651.96	110.01
652.10	0.00
652.25	23.41
652.39	86.60
652.54	70.22
652.68	77.24
652.83	177.88
652.97	210.65
653.12	259.80
653.26	322.99
653.41	241.08
653.55	138.09
653.70	70.22
653.84	95.96
653.99	63.19
654.13	53.83
654.27	7.02
654.42	0.00
654.56	4.68
654.71	60.85
654.85	100.64
655.00	44.47
655.14	35.11
655.29	65.54
655.43	0.00
655.57	32.77
655.72	51.49
655.86	39.79
656.01	0.00
656.15	0.00
656.30	53.83
656.44	67.88
656.58	0.00
656.73	0.00
656.87	53.83
657.01	0.00
657.16	77.24
657.30	77.24
657.45	70.22
657.59	0.00
657.73	46.81
657.88	25.75
658.02	65.54
658.16	9.36
658.31	70.22
658.45	7.02
658.60	84.26
658.74	88.94
658.88	67.88
659.03	30.43
659.17	110.01
659.31	0.00
659.46	201.29
659.60	334.70
659.74	355.76
659.89	327.68
660.03	292.57
660.17	224.69
660.32	86.60
660.46	58.51
660.60	18.72
660.74	74.90
660.89	149.79
661.03	16.38
661.17	53.83
661.32	46.81
661.46	58.51
661.60	11.70
661.74	0.00
661.89	35.11
662.03	53.83
662.17	53.83
662.31	35.11
662.46	35.11
662.60	4.68
662.74	56.17
662.88	67.88
663.03	77.24
663.17	18.72
663.31	0.00
663.45	4.68
663.60	0.00
663.74	23.41
663.88	65.54
664.02	88.94
664.17	58.51
664.31	105.32
664.45	67.88
664.59	32.77
664.73	37.45
664.88	37.45
665.02	21.06
665.16	91.28
665.30	37.45
665.44	18.72
665.59	11.70
665.73	58.51
665.87	70.22
666.01	32.77
666.15	0.00
666.29	9.36
666.44	0.00
666.58	44.47
666.72	79.58
666.86	114.69
667.00	72.56
667.14	53.83
667.28	93.62
667.43	341.72
667.57	554.71
667.71	744.29
667.85	592.16
667.99	486.83
668.13	278.52
668.27	173.20
668.41	117.03
668.56	72.56
668.70	35.11
668.84	0.00
668.98	25.75
669.12	39.79
669.26	98.30
669.40	91.28
669.54	93.62
669.68	0.00
669.82	35.11
669.96	91.28
670.10	37.45
670.25	44.47
670.39	30.43
670.53	65.54
670.67	18.72
670.81	77.24
670.95	60.85
671.09	18.72
671.23	154.48
671.37	306.61
671.51	374.49
671.65	397.89
671.79	311.29
671.93	287.89
672.07	163.84
672.21	67.88
672.35	84.26
672.49	67.88
672.63	107.66
672.77	49.15
672.91	72.56
673.05	49.15
673.19	44.47
673.33	28.09
673.47	42.13
673.61	56.17
673.75	39.79
673.89	51.49
674.03	0.00
674.17	21.06
674.31	16.38
674.45	56.17
674.59	72.56
674.73	9.36
674.87	0.00
675.01	46.81
675.15	28.09
675.29	0.00
675.43	21.06
675.56	42.13
675.70	53.83
675.84	25.75
675.98	105.32
676.12	21.06
676.26	7.02
676.40	63.19
676.54	77.24
676.68	4.68
676.82	7.02
676.96	11.70
677.10	86.60
677.23	23.41
677.37	0.00
677.51	35.11
677.65	56.17
677.79	56.17
677.93	14.04
678.07	81.92
678.21	32.77
678.34	28.09
678.48	44.47
678.62	77.24
678.76	42.13
678.90	14.04
679.04	21.06
679.18	42.13
679.31	0.00
679.45	0.00
679.59	11.70
679.73	65.54
679.87	63.19
680.00	14.04
680.14	4.68
680.28	42.13
680.42	0.00
680.56	18.72
680.70	9.36
680.83	28.09
680.97	58.51
681.11	25.75
681.25	53.83
681.39	16.38
681.52	72.56
681.66	2.34
681.80	21.06
681.94	74.90
682.07	14.04
682.21	0.00
682.35	0.00
682.49	28.09
682.62	25.75
682.76	0.00
682.90	16.38
683.04	32.77
683.17	39.79
683.31	2.34
683.45	14.04
683.59	11.70
683.72	4.68
683.86	0.00
684.00	0.00
684.13	81.92
684.27	70.22
684.41	4.68
684.55	58.51
684.68	16.38
684.82	0.00
684.96	16.38
685.09	37.45
685.23	98.30
685.37	74.90
685.50	32.77
685.64	4.68
685.78	0.00
685.91	60.85
686.05	9.36
686.19	49.15
686.32	4.68
686.46	0.00
686.60	93.62
686.73	81.92
686.87	0.00
687.01	60.85
687.14	42.13
687.28	2.34
687.42	63.19
687.55	39.79
687.69	84.26
687.82	39.79
687.96	7.02
688.10	102.98
688.23	93.62
688.37	42.13
688.50	16.38
688.64	0.00
688.78	9.36
688.91	0.00
689.05	65.54
689.18	0.00
689.32	4.68
689.46	56.17
689.59	74.90
689.73	0.00
689.86	0.00
690.00	86.60
690.13	7.02
690.27	0.00
690.41	0.00
690.54	98.30
690.68	58.51
690.81	0.00
690.95	51.49
691.08	18.72
691.22	23.41
691.35	2.34
691.49	56.17
691.62	16.38
691.76	126.39
691.89	86.60
692.03	74.90
692.16	21.06
692.30	11.70
692.43	0.00
692.57	182.56
692.70	177.88
692.84	365.12
692.97	280.86
693.11	220.01
693.24	154.48
693.38	145.11
693.51	63.19
693.65	72.56
693.78	77.24
693.92	46.81
694.05	39.79
694.19	37.45
694.32	25.75
694.45	25.75
694.59	58.51
694.72	65.54
694.86	21.06
694.99	0.00
695.13	84.26
695.26	30.43
695.39	49.15
695.53	9.36
695.66	32.77
695.80	88.94
695.93	86.60
696.07	49.15
696.20	77.24
696.33	114.69
696.47	58.51
696.60	7.02
696.73	56.17
696.87	63.19
697.00	32.77
697.14	28.09
697.27	100.64
697.40	0.00
697.54	30.43
697.67	0.00
697.80	32.77
697.94	0.00
698.07	39.79
698.21	0.00
698.34	0.00
698.47	25.75
698.61	2.34
698.74	56.17
698.87	0.00
699.01	7.02
699.14	70.22
699.27	79.58
699.40	0.00
699.54	49.15
699.67	56.17
699.80	0.00
699.94	42.13
700.07	46.81
700.20	30.43
700.34	0.00
700.47	42.13
700.60	51.49
700.73	11.70
700.87	81.92
701.00	86.60
701.13	30.43
701.26	30.43
701.40	16.38
701.53	0.00
701.66	46.81
701.79	51.49
701.93	81.92
702.06	84.26
702.19	28.09
702.32	18.72
702.46	88.94
702.59	46.81
702.72	51.49
702.85	290.23
702.99	400.23
703.12	582.79
703.25	599.18
703.38	545.34
703.51	353.42
703.65	351.08
703.78	220.01
703.91	117.03
704.04	166.18
704.17	124.05
704.31	39.79
704.44	49.15
704.57	58.51
704.70	0.00
704.83	77.24
704.96	88.94
705.10	30.43
705.23	30.43
>>>>>End Processed Spectral Data<<<<<
