SpectraSuite Data File
++++++++++++++++++++++++++++++++++++
Date: Fri Oct 04 12:13:37 GMT-05:00 2013
User: price-jones
Dark Spectrum Present: No
Reference Spectrum Present: No
Number of Sampled Component Spectra: 1
Spectrometers: USB2+H05261
Integration Time (usec): 10000 (USB2+H05261)
Spectra Averaged: 1 (USB2+H05261)
Boxcar Smoothing: 0 (USB2+H05261)
Correct for Electrical Dark: No (USB2+H05261)
Strobe/Lamp Enabled: No (USB2+H05261)
Correct for Detector Non-linearity: No (USB2+H05261)
Correct for Stray Light: No (USB2+H05261)
Number of Pixels in Processed Spectrum: 2048
>>>>>Begin Processed Spectral Data<<<<<
365.73	67.88
365.92	67.88
366.12	67.88
366.32	0.00
366.52	0.00
366.72	0.00
366.91	0.00
367.11	0.00
367.31	0.00
367.51	0.00
367.70	0.00
367.90	0.00
368.10	0.00
368.30	0.00
368.49	0.00
368.69	0.00
368.89	0.00
369.09	0.00
369.28	0.00
369.48	0.00
369.68	0.00
369.87	0.00
370.07	0.00
370.27	0.00
370.47	0.00
370.66	0.00
370.86	0.00
371.06	0.00
371.25	0.00
371.45	0.00
371.65	28.09
371.84	0.00
372.04	4.68
372.24	0.00
372.44	4.68
372.63	37.45
372.83	0.00
373.03	37.45
373.22	25.75
373.42	0.00
373.62	0.00
373.81	0.00
374.01	88.94
374.21	35.11
374.40	0.00
374.60	28.09
374.79	28.09
374.99	60.85
375.19	39.79
375.38	25.75
375.58	18.72
375.78	53.83
375.97	44.47
376.17	58.51
376.37	42.13
376.56	7.02
376.76	30.43
376.95	35.11
377.15	88.94
377.35	88.94
377.54	28.09
377.74	9.36
377.93	77.24
378.13	98.30
378.33	0.00
378.52	11.70
378.72	77.24
378.91	88.94
379.11	11.70
379.31	7.02
379.50	49.15
379.70	18.72
379.89	53.83
380.09	0.00
380.28	42.13
380.48	39.79
380.68	0.00
380.87	0.00
381.07	67.88
381.26	0.00
381.46	0.00
381.65	9.36
381.85	98.30
382.04	0.00
382.24	56.17
382.43	4.68
382.63	0.00
382.83	16.38
383.02	21.06
383.22	35.11
383.41	7.02
383.61	51.49
383.80	14.04
384.00	105.32
384.19	21.06
384.39	72.56
384.58	53.83
384.78	0.00
384.97	42.13
385.17	14.04
385.36	46.81
385.56	0.00
385.75	2.34
385.95	0.00
386.14	11.70
386.34	39.79
386.53	9.36
386.72	60.85
386.92	4.68
387.11	49.15
387.31	60.85
387.50	77.24
387.70	56.17
387.89	0.00
388.09	58.51
388.28	28.09
388.48	37.45
388.67	46.81
388.86	0.00
389.06	0.00
389.25	0.00
389.45	32.77
389.64	4.68
389.84	35.11
390.03	28.09
390.22	0.00
390.42	0.00
390.61	60.85
390.81	70.22
391.00	35.11
391.19	0.00
391.39	23.41
391.58	32.77
391.78	11.70
391.97	25.75
392.16	0.00
392.36	0.00
392.55	14.04
392.75	16.38
392.94	0.00
393.13	25.75
393.33	0.00
393.52	9.36
393.71	2.34
393.91	2.34
394.10	100.64
394.29	95.96
394.49	0.00
394.68	53.83
394.88	0.00
395.07	0.00
395.26	32.77
395.46	49.15
395.65	0.00
395.84	4.68
396.04	0.00
396.23	58.51
396.42	0.00
396.62	30.43
396.81	81.92
397.00	37.45
397.19	0.00
397.39	2.34
397.58	16.38
397.77	37.45
397.97	58.51
398.16	49.15
398.35	9.36
398.55	9.36
398.74	7.02
398.93	51.49
399.12	35.11
399.32	0.00
399.51	63.19
399.70	0.00
399.90	114.69
400.09	28.09
400.28	32.77
400.47	88.94
400.67	63.19
400.86	0.00
401.05	46.81
401.24	42.13
401.44	39.79
401.63	58.51
401.82	32.77
402.01	32.77
402.21	0.00
402.40	46.81
402.59	0.00
402.78	9.36
402.97	25.75
403.17	18.72
403.36	58.51
403.55	32.77
403.74	0.00
403.93	21.06
404.13	81.92
404.32	39.79
404.51	11.70
404.70	2.34
404.89	110.01
405.09	4.68
405.28	46.81
405.47	58.51
405.66	0.00
405.85	63.19
406.05	65.54
406.24	46.81
406.43	0.00
406.62	42.13
406.81	58.51
407.00	49.15
407.20	58.51
407.39	21.06
407.58	42.13
407.77	21.06
407.96	35.11
408.15	117.03
408.34	0.00
408.54	60.85
408.73	7.02
408.92	0.00
409.11	18.72
409.30	86.60
409.49	49.15
409.68	37.45
409.87	0.00
410.07	0.00
410.26	0.00
410.45	70.22
410.64	35.11
410.83	0.00
411.02	53.83
411.21	18.72
411.40	124.05
411.59	88.94
411.78	63.19
411.98	35.11
412.17	0.00
412.36	46.81
412.55	25.75
412.74	42.13
412.93	0.00
413.12	0.00
413.31	0.00
413.50	23.41
413.69	37.45
413.88	28.09
414.07	53.83
414.26	37.45
414.45	81.92
414.64	0.00
414.83	70.22
415.02	9.36
415.22	46.81
415.41	84.26
415.60	88.94
415.79	63.19
415.98	0.00
416.17	0.00
416.36	32.77
416.55	53.83
416.74	42.13
416.93	86.60
417.12	32.77
417.31	119.37
417.50	35.11
417.69	72.56
417.88	46.81
418.07	18.72
418.26	93.62
418.45	21.06
418.64	95.96
418.83	37.45
419.02	65.54
419.21	42.13
419.39	25.75
419.58	72.56
419.77	0.00
419.96	37.45
420.15	0.00
420.34	30.43
420.53	25.75
420.72	51.49
420.91	79.58
421.10	84.26
421.29	79.58
421.48	67.88
421.67	35.11
421.86	0.00
422.05	0.00
422.24	28.09
422.43	7.02
422.61	0.00
422.80	11.70
422.99	30.43
423.18	2.34
423.37	53.83
423.56	51.49
423.75	107.66
423.94	25.75
424.13	39.79
424.32	23.41
424.50	0.00
424.69	93.62
424.88	46.81
425.07	56.17
425.26	30.43
425.45	107.66
425.64	25.75
425.83	18.72
426.01	84.26
426.20	67.88
426.39	0.00
426.58	0.00
426.77	11.70
426.96	30.43
427.15	18.72
427.33	114.69
427.52	74.90
427.71	4.68
427.90	25.75
428.09	30.43
428.28	98.30
428.46	9.36
428.65	53.83
428.84	9.36
429.03	0.00
429.22	18.72
429.40	46.81
429.59	86.60
429.78	53.83
429.97	110.01
430.16	49.15
430.34	63.19
430.53	86.60
430.72	49.15
430.91	9.36
431.10	0.00
431.28	25.75
431.47	21.06
431.66	46.81
431.85	70.22
432.03	0.00
432.22	58.51
432.41	51.49
432.60	14.04
432.79	91.28
432.97	0.00
433.16	32.77
433.35	0.00
433.54	25.75
433.72	37.45
433.91	7.02
434.10	32.77
434.28	11.70
434.47	39.79
434.66	56.17
434.85	28.09
435.03	95.96
435.22	0.00
435.41	77.24
435.59	30.43
435.78	28.09
435.97	42.13
436.16	124.05
436.34	72.56
436.53	65.54
436.72	7.02
436.90	14.04
437.09	51.49
437.28	56.17
437.46	58.51
437.65	79.58
437.84	35.11
438.02	77.24
438.21	74.90
438.40	42.13
438.58	88.94
438.77	63.19
438.96	154.48
439.14	79.58
439.33	2.34
439.52	42.13
439.70	2.34
439.89	39.79
440.08	56.17
440.26	53.83
440.45	44.47
440.63	32.77
440.82	121.71
441.01	51.49
441.19	53.83
441.38	70.22
441.57	0.00
441.75	124.05
441.94	53.83
442.12	65.54
442.31	46.81
442.50	65.54
442.68	81.92
442.87	28.09
443.05	0.00
443.24	0.00
443.43	32.77
443.61	126.39
443.80	39.79
443.98	81.92
444.17	56.17
444.35	42.13
444.54	9.36
444.73	4.68
444.91	121.71
445.10	35.11
445.28	42.13
445.47	63.19
445.65	81.92
445.84	98.30
446.02	79.58
446.21	44.47
446.39	105.32
446.58	14.04
446.77	88.94
446.95	11.70
447.14	56.17
447.32	79.58
447.51	37.45
447.69	117.03
447.88	0.00
448.06	0.00
448.25	49.15
448.43	44.47
448.62	49.15
448.80	81.92
448.99	16.38
449.17	138.09
449.36	51.49
449.54	39.79
449.73	100.64
449.91	100.64
450.10	88.94
450.28	37.45
450.46	77.24
450.65	107.66
450.83	39.79
451.02	42.13
451.20	74.90
451.39	72.56
451.57	0.00
451.76	25.75
451.94	0.00
452.13	60.85
452.31	21.06
452.49	91.28
452.68	11.70
452.86	51.49
453.05	46.81
453.23	25.75
453.42	51.49
453.60	18.72
453.78	105.32
453.97	98.30
454.15	46.81
454.34	21.06
454.52	72.56
454.70	53.83
454.89	56.17
455.07	72.56
455.26	102.98
455.44	95.96
455.62	102.98
455.81	53.83
455.99	72.56
456.17	100.64
456.36	39.79
456.54	0.00
456.73	119.37
456.91	32.77
457.09	95.96
457.28	58.51
457.46	37.45
457.64	28.09
457.83	0.00
458.01	37.45
458.19	7.02
458.38	23.41
458.56	23.41
458.74	53.83
458.93	42.13
459.11	51.49
459.29	44.47
459.48	46.81
459.66	0.00
459.84	60.85
460.03	79.58
460.21	70.22
460.39	95.96
460.57	4.68
460.76	21.06
460.94	49.15
461.12	91.28
461.31	114.69
461.49	44.47
461.67	16.38
461.85	53.83
462.04	58.51
462.22	117.03
462.40	0.00
462.59	18.72
462.77	86.60
462.95	56.17
463.13	135.75
463.32	65.54
463.50	14.04
463.68	21.06
463.86	39.79
464.05	30.43
464.23	51.49
464.41	49.15
464.59	95.96
464.78	56.17
464.96	60.85
465.14	63.19
465.32	74.90
465.50	0.00
465.69	93.62
465.87	98.30
466.05	53.83
466.23	88.94
466.41	81.92
466.60	35.11
466.78	14.04
466.96	49.15
467.14	81.92
467.32	60.85
467.51	65.54
467.69	70.22
467.87	56.17
468.05	9.36
468.23	44.47
468.41	18.72
468.60	84.26
468.78	28.09
468.96	28.09
469.14	42.13
469.32	86.60
469.50	88.94
469.69	9.36
469.87	32.77
470.05	23.41
470.23	77.24
470.41	37.45
470.59	16.38
470.77	74.90
470.95	58.51
471.14	65.54
471.32	56.17
471.50	49.15
471.68	28.09
471.86	63.19
472.04	84.26
472.22	23.41
472.40	0.00
472.58	84.26
472.77	79.58
472.95	56.17
473.13	81.92
473.31	46.81
473.49	114.69
473.67	39.79
473.85	53.83
474.03	98.30
474.21	32.77
474.39	93.62
474.57	37.45
474.75	4.68
474.93	74.90
475.12	14.04
475.30	88.94
475.48	112.35
475.66	70.22
475.84	74.90
476.02	77.24
476.20	0.00
476.38	56.17
476.56	72.56
476.74	51.49
476.92	77.24
477.10	126.39
477.28	79.58
477.46	35.11
477.64	149.79
477.82	65.54
478.00	95.96
478.18	30.43
478.36	91.28
478.54	105.32
478.72	95.96
478.90	51.49
479.08	53.83
479.26	42.13
479.44	124.05
479.62	95.96
479.80	88.94
479.98	126.39
480.16	51.49
480.34	63.19
480.52	133.41
480.70	30.43
480.88	37.45
481.06	77.24
481.24	86.60
481.41	18.72
481.59	105.32
481.77	7.02
481.95	0.00
482.13	49.15
482.31	30.43
482.49	107.66
482.67	91.28
482.85	126.39
483.03	63.19
483.21	72.56
483.39	93.62
483.57	91.28
483.74	23.41
483.92	49.15
484.10	58.51
484.28	14.04
484.46	72.56
484.64	53.83
484.82	42.13
485.00	72.56
485.18	23.41
485.35	42.13
485.53	74.90
485.71	56.17
485.89	114.69
486.07	81.92
486.25	135.75
486.43	102.98
486.61	117.03
486.78	72.56
486.96	65.54
487.14	110.01
487.32	93.62
487.50	35.11
487.68	46.81
487.85	95.96
488.03	107.66
488.21	67.88
488.39	93.62
488.57	72.56
488.75	46.81
488.92	117.03
489.10	65.54
489.28	88.94
489.46	95.96
489.64	112.35
489.81	84.26
489.99	60.85
490.17	32.77
490.35	105.32
490.53	70.22
490.70	72.56
490.88	44.47
491.06	58.51
491.24	86.60
491.41	14.04
491.59	23.41
491.77	72.56
491.95	95.96
492.13	65.54
492.30	79.58
492.48	81.92
492.66	91.28
492.84	112.35
493.01	138.09
493.19	98.30
493.37	23.41
493.54	37.45
493.72	53.83
493.90	98.30
494.08	60.85
494.25	49.15
494.43	21.06
494.61	117.03
494.79	110.01
494.96	70.22
495.14	100.64
495.32	105.32
495.49	77.24
495.67	102.98
495.85	124.05
496.02	53.83
496.20	56.17
496.38	37.45
496.55	56.17
496.73	60.85
496.91	91.28
497.09	51.49
497.26	28.09
497.44	46.81
497.62	168.52
497.79	79.58
497.97	0.00
498.14	86.60
498.32	86.60
498.50	53.83
498.67	107.66
498.85	121.71
499.03	30.43
499.20	60.85
499.38	51.49
499.56	74.90
499.73	72.56
499.91	79.58
500.08	37.45
500.26	95.96
500.44	102.98
500.61	28.09
500.79	93.62
500.97	117.03
501.14	86.60
501.32	60.85
501.49	102.98
501.67	95.96
501.84	112.35
502.02	102.98
502.20	88.94
502.37	72.56
502.55	51.49
502.72	88.94
502.90	67.88
503.07	135.75
503.25	56.17
503.43	60.85
503.60	67.88
503.78	56.17
503.95	0.00
504.13	81.92
504.30	93.62
504.48	53.83
504.65	25.75
504.83	0.00
505.01	105.32
505.18	86.60
505.36	63.19
505.53	105.32
505.71	72.56
505.88	53.83
506.06	131.07
506.23	102.98
506.41	117.03
506.58	39.79
506.76	117.03
506.93	65.54
507.11	112.35
507.28	191.92
507.46	60.85
507.63	173.20
507.81	86.60
507.98	79.58
508.16	77.24
508.33	98.30
508.50	112.35
508.68	67.88
508.85	88.94
509.03	117.03
509.20	72.56
509.38	39.79
509.55	124.05
509.73	79.58
509.90	53.83
510.08	84.26
510.25	39.79
510.42	25.75
510.60	58.51
510.77	95.96
510.95	79.58
511.12	53.83
511.30	93.62
511.47	95.96
511.64	124.05
511.82	112.35
511.99	77.24
512.17	70.22
512.34	51.49
512.51	121.71
512.69	37.45
512.86	4.68
513.04	11.70
513.21	110.01
513.38	32.77
513.56	42.13
513.73	49.15
513.90	11.70
514.08	84.26
514.25	51.49
514.43	21.06
514.60	98.30
514.77	159.16
514.95	93.62
515.12	49.15
515.29	187.24
515.47	100.64
515.64	112.35
515.81	60.85
515.99	107.66
516.16	56.17
516.33	46.81
516.51	63.19
516.68	70.22
516.85	25.75
517.03	102.98
517.20	100.64
517.37	53.83
517.54	4.68
517.72	0.00
517.89	37.45
518.06	124.05
518.24	44.47
518.41	39.79
518.58	56.17
518.75	51.49
518.93	21.06
519.10	74.90
519.27	65.54
519.45	30.43
519.62	131.07
519.79	100.64
519.96	88.94
520.14	117.03
520.31	0.00
520.48	18.72
520.65	67.88
520.83	149.79
521.00	30.43
521.17	11.70
521.34	60.85
521.52	58.51
521.69	105.32
521.86	93.62
522.03	149.79
522.20	72.56
522.38	98.30
522.55	63.19
522.72	135.75
522.89	86.60
523.07	107.66
523.24	86.60
523.41	53.83
523.58	91.28
523.75	63.19
523.92	56.17
524.10	53.83
524.27	30.43
524.44	84.26
524.61	51.49
524.78	84.26
524.96	138.09
525.13	42.13
525.30	102.98
525.47	21.06
525.64	46.81
525.81	65.54
525.98	72.56
526.16	39.79
526.33	39.79
526.50	79.58
526.67	72.56
526.84	74.90
527.01	46.81
527.18	72.56
527.36	95.96
527.53	60.85
527.70	74.90
527.87	112.35
528.04	23.41
528.21	21.06
528.38	93.62
528.55	100.64
528.72	74.90
528.89	135.75
529.07	81.92
529.24	105.32
529.41	95.96
529.58	44.47
529.75	145.11
529.92	102.98
530.09	107.66
530.26	98.30
530.43	56.17
530.60	77.24
530.77	81.92
530.94	95.96
531.11	112.35
531.28	74.90
531.46	79.58
531.63	114.69
531.80	98.30
531.97	147.45
532.14	152.13
532.31	112.35
532.48	102.98
532.65	124.05
532.82	147.45
532.99	105.32
533.16	105.32
533.33	58.51
533.50	107.66
533.67	56.17
533.84	63.19
534.01	51.49
534.18	56.17
534.35	60.85
534.52	107.66
534.69	49.15
534.86	117.03
535.03	93.62
535.20	107.66
535.37	74.90
535.54	18.72
535.71	74.90
535.88	93.62
536.05	35.11
536.22	140.43
536.38	112.35
536.55	124.05
536.72	42.13
536.89	37.45
537.06	65.54
537.23	32.77
537.40	112.35
537.57	140.43
537.74	119.37
537.91	23.41
538.08	72.56
538.25	39.79
538.42	100.64
538.59	79.58
538.75	105.32
538.92	60.85
539.09	58.51
539.26	72.56
539.43	95.96
539.60	23.41
539.77	28.09
539.94	58.51
540.11	95.96
540.28	138.09
540.44	105.32
540.61	77.24
540.78	37.45
540.95	86.60
541.12	65.54
541.29	16.38
541.46	107.66
541.62	138.09
541.79	98.30
541.96	102.98
542.13	79.58
542.30	51.49
542.47	84.26
542.63	35.11
542.80	70.22
542.97	42.13
543.14	39.79
543.31	112.35
543.48	18.72
543.64	117.03
543.81	114.69
543.98	105.32
544.15	110.01
544.32	100.64
544.48	119.37
544.65	133.41
544.82	23.41
544.99	18.72
545.16	112.35
545.32	98.30
545.49	65.54
545.66	119.37
545.83	77.24
546.00	67.88
546.16	98.30
546.33	124.05
546.50	138.09
546.67	135.75
546.83	81.92
547.00	35.11
547.17	14.04
547.34	147.45
547.50	112.35
547.67	67.88
547.84	124.05
548.00	88.94
548.17	93.62
548.34	65.54
548.51	98.30
548.67	74.90
548.84	147.45
549.01	84.26
549.18	114.69
549.34	135.75
549.51	81.92
549.68	28.09
549.84	53.83
550.01	88.94
550.18	86.60
550.34	74.90
550.51	77.24
550.68	182.56
550.84	70.22
551.01	63.19
551.18	124.05
551.34	140.43
551.51	84.26
551.68	124.05
551.84	147.45
552.01	107.66
552.18	88.94
552.34	117.03
552.51	149.79
552.68	70.22
552.84	63.19
553.01	102.98
553.18	98.30
553.34	91.28
553.51	114.69
553.67	74.90
553.84	105.32
554.01	112.35
554.17	112.35
554.34	95.96
554.51	124.05
554.67	131.07
554.84	65.54
555.00	86.60
555.17	86.60
555.33	117.03
555.50	107.66
555.67	119.37
555.83	128.73
556.00	79.58
556.16	74.90
556.33	49.15
556.50	49.15
556.66	37.45
556.83	100.64
556.99	86.60
557.16	102.98
557.32	81.92
557.49	72.56
557.65	74.90
557.82	70.22
557.98	124.05
558.15	35.11
558.32	100.64
558.48	105.32
558.65	37.45
558.81	81.92
558.98	88.94
559.14	88.94
559.31	37.45
559.47	159.16
559.64	105.32
559.80	14.04
559.97	58.51
560.13	0.00
560.30	91.28
560.46	77.24
560.63	105.32
560.79	79.58
560.96	102.98
561.12	126.39
561.29	72.56
561.45	93.62
561.61	53.83
561.78	93.62
561.94	112.35
562.11	70.22
562.27	154.48
562.44	30.43
562.60	21.06
562.77	65.54
562.93	145.11
563.10	88.94
563.26	100.64
563.42	77.24
563.59	32.77
563.75	63.19
563.92	65.54
564.08	42.13
564.24	14.04
564.41	86.60
564.57	46.81
564.74	91.28
564.90	117.03
565.07	16.38
565.23	53.83
565.39	135.75
565.56	102.98
565.72	56.17
565.88	74.90
566.05	65.54
566.21	65.54
566.38	58.51
566.54	56.17
566.70	63.19
566.87	0.00
567.03	126.39
567.19	84.26
567.36	28.09
567.52	60.85
567.68	100.64
567.85	107.66
568.01	93.62
568.17	72.56
568.34	93.62
568.50	126.39
568.66	18.72
568.83	37.45
568.99	102.98
569.15	49.15
569.32	117.03
569.48	70.22
569.64	121.71
569.81	60.85
569.97	86.60
570.13	77.24
570.30	79.58
570.46	170.86
570.62	93.62
570.78	88.94
570.95	159.16
571.11	7.02
571.27	105.32
571.43	30.43
571.60	70.22
571.76	65.54
571.92	0.00
572.09	25.75
572.25	98.30
572.41	81.92
572.57	84.26
572.74	46.81
572.90	7.02
573.06	100.64
573.22	72.56
573.38	147.45
573.55	70.22
573.71	46.81
573.87	4.68
574.03	84.26
574.20	86.60
574.36	37.45
574.52	140.43
574.68	51.49
574.84	74.90
575.01	105.32
575.17	53.83
575.33	72.56
575.49	100.64
575.65	42.13
575.82	51.49
575.98	72.56
576.14	53.83
576.30	16.38
576.46	58.51
576.62	56.17
576.79	128.73
576.95	126.39
577.11	25.75
577.27	79.58
577.43	63.19
577.59	74.90
577.75	0.00
577.92	84.26
578.08	0.00
578.24	60.85
578.40	35.11
578.56	72.56
578.72	53.83
578.88	107.66
579.04	74.90
579.21	39.79
579.37	110.01
579.53	46.81
579.69	46.81
579.85	11.70
580.01	91.28
580.17	124.05
580.33	79.58
580.49	42.13
580.65	93.62
580.82	84.26
580.98	95.96
581.14	49.15
581.30	107.66
581.46	9.36
581.62	35.11
581.78	93.62
581.94	98.30
582.10	70.22
582.26	65.54
582.42	60.85
582.58	65.54
582.74	65.54
582.90	74.90
583.06	112.35
583.22	53.83
583.38	128.73
583.54	156.82
583.70	67.88
583.86	86.60
584.02	86.60
584.18	49.15
584.34	46.81
584.50	114.69
584.66	44.47
584.82	58.51
584.98	25.75
585.14	95.96
585.30	72.56
585.46	79.58
585.62	58.51
585.78	81.92
585.94	39.79
586.10	53.83
586.26	81.92
586.42	91.28
586.58	126.39
586.74	117.03
586.90	35.11
587.06	133.41
587.22	121.71
587.38	21.06
587.54	81.92
587.70	46.81
587.86	142.77
588.02	88.94
588.18	30.43
588.34	51.49
588.49	70.22
588.65	145.11
588.81	0.00
588.97	58.51
589.13	81.92
589.29	84.26
589.45	145.11
589.61	77.24
589.77	51.49
589.93	58.51
590.08	32.77
590.24	58.51
590.40	79.58
590.56	16.38
590.72	14.04
590.88	124.05
591.04	63.19
591.20	70.22
591.35	88.94
591.51	110.01
591.67	81.92
591.83	42.13
591.99	56.17
592.15	135.75
592.31	74.90
592.46	46.81
592.62	112.35
592.78	81.92
592.94	53.83
593.10	65.54
593.26	124.05
593.41	70.22
593.57	9.36
593.73	0.00
593.89	25.75
594.05	91.28
594.20	121.71
594.36	114.69
594.52	77.24
594.68	74.90
594.84	107.66
594.99	131.07
595.15	77.24
595.31	58.51
595.47	53.83
595.62	84.26
595.78	72.56
595.94	60.85
596.10	110.01
596.25	81.92
596.41	65.54
596.57	91.28
596.73	79.58
596.88	58.51
597.04	32.77
597.20	14.04
597.36	86.60
597.51	37.45
597.67	128.73
597.83	100.64
597.99	46.81
598.14	53.83
598.30	35.11
598.46	58.51
598.61	77.24
598.77	74.90
598.93	84.26
599.09	60.85
599.24	56.17
599.40	79.58
599.56	95.96
599.71	4.68
599.87	91.28
600.03	56.17
600.18	18.72
600.34	117.03
600.50	9.36
600.65	93.62
600.81	30.43
600.97	63.19
601.12	70.22
601.28	37.45
601.44	23.41
601.59	72.56
601.75	16.38
601.91	44.47
602.06	49.15
602.22	91.28
602.37	58.51
602.53	79.58
602.69	65.54
602.84	102.98
603.00	117.03
603.16	0.00
603.31	58.51
603.47	53.83
603.62	63.19
603.78	79.58
603.94	93.62
604.09	67.88
604.25	51.49
604.40	86.60
604.56	0.00
604.71	102.98
604.87	0.00
605.03	77.24
605.18	91.28
605.34	84.26
605.49	56.17
605.65	58.51
605.80	0.00
605.96	32.77
606.12	0.00
606.27	60.85
606.43	23.41
606.58	67.88
606.74	84.26
606.89	63.19
607.05	58.51
607.20	23.41
607.36	58.51
607.51	67.88
607.67	60.85
607.82	16.38
607.98	105.32
608.13	72.56
608.29	67.88
608.44	77.24
608.60	42.13
608.75	67.88
608.91	88.94
609.06	95.96
609.22	32.77
609.37	79.58
609.53	35.11
609.68	72.56
609.84	42.13
609.99	70.22
610.15	58.51
610.30	65.54
610.46	79.58
610.61	18.72
610.76	32.77
610.92	119.37
611.07	65.54
611.23	53.83
611.38	51.49
611.54	0.00
611.69	37.45
611.84	95.96
612.00	28.09
612.15	0.00
612.31	81.92
612.46	56.17
612.62	7.02
612.77	100.64
612.92	117.03
613.08	86.60
613.23	42.13
613.39	81.92
613.54	18.72
613.69	65.54
613.85	72.56
614.00	70.22
614.15	72.56
614.31	86.60
614.46	102.98
614.62	95.96
614.77	112.35
614.92	98.30
615.08	86.60
615.23	9.36
615.38	86.60
615.54	18.72
615.69	56.17
615.84	39.79
616.00	102.98
616.15	42.13
616.30	79.58
616.46	79.58
616.61	63.19
616.76	63.19
616.92	56.17
617.07	39.79
617.22	100.64
617.37	42.13
617.53	23.41
617.68	93.62
617.83	70.22
617.99	56.17
618.14	21.06
618.29	102.98
618.45	98.30
618.60	25.75
618.75	11.70
618.90	32.77
619.06	98.30
619.21	93.62
619.36	65.54
619.51	46.81
619.67	42.13
619.82	84.26
619.97	51.49
620.12	14.04
620.28	58.51
620.43	51.49
620.58	0.00
620.73	91.28
620.89	0.00
621.04	44.47
621.19	77.24
621.34	53.83
621.49	35.11
621.65	161.50
621.80	147.45
621.95	30.43
622.10	110.01
622.25	32.77
622.41	72.56
622.56	60.85
622.71	49.15
622.86	56.17
623.01	105.32
623.16	58.51
623.32	91.28
623.47	77.24
623.62	60.85
623.77	70.22
623.92	42.13
624.07	37.45
624.23	110.01
624.38	77.24
624.53	86.60
624.68	88.94
624.83	86.60
624.98	37.45
625.13	93.62
625.29	23.41
625.44	93.62
625.59	63.19
625.74	39.79
625.89	128.73
626.04	46.81
626.19	23.41
626.34	0.00
626.49	53.83
626.65	11.70
626.80	58.51
626.95	70.22
627.10	46.81
627.25	35.11
627.40	37.45
627.55	0.00
627.70	32.77
627.85	23.41
628.00	46.81
628.15	72.56
628.30	18.72
628.45	0.00
628.60	0.00
628.76	65.54
628.91	128.73
629.06	65.54
629.21	95.96
629.36	37.45
629.51	72.56
629.66	86.60
629.81	42.13
629.96	28.09
630.11	86.60
630.26	32.77
630.41	107.66
630.56	14.04
630.71	51.49
630.86	93.62
631.01	81.92
631.16	0.00
631.31	9.36
631.46	30.43
631.61	107.66
631.76	44.47
631.91	77.24
632.06	58.51
632.21	0.00
632.36	100.64
632.51	63.19
632.66	63.19
632.81	56.17
632.96	49.15
633.10	95.96
633.25	11.70
633.40	37.45
633.55	42.13
633.70	74.90
633.85	65.54
634.00	93.62
634.15	46.81
634.30	117.03
634.45	147.45
634.60	86.60
634.75	0.00
634.90	30.43
635.05	2.34
635.19	35.11
635.34	95.96
635.49	51.49
635.64	18.72
635.79	124.05
635.94	102.98
636.09	95.96
636.24	128.73
636.39	0.00
636.53	74.90
636.68	42.13
636.83	51.49
636.98	91.28
637.13	72.56
637.28	65.54
637.43	72.56
637.57	100.64
637.72	72.56
637.87	56.17
638.02	65.54
638.17	70.22
638.32	105.32
638.46	37.45
638.61	53.83
638.76	28.09
638.91	98.30
639.06	53.83
639.20	149.79
639.35	44.47
639.50	0.00
639.65	93.62
639.80	0.00
639.94	112.35
640.09	77.24
640.24	21.06
640.39	88.94
640.54	105.32
640.68	7.02
640.83	107.66
640.98	67.88
641.13	53.83
641.27	131.07
641.42	107.66
641.57	63.19
641.72	72.56
641.86	0.00
642.01	79.58
642.16	110.01
642.31	70.22
642.45	79.58
642.60	102.98
642.75	63.19
642.90	23.41
643.04	46.81
643.19	147.45
643.34	42.13
643.48	74.90
643.63	42.13
643.78	102.98
643.93	28.09
644.07	63.19
644.22	60.85
644.37	44.47
644.51	74.90
644.66	56.17
644.81	65.54
644.95	16.38
645.10	14.04
645.25	25.75
645.39	28.09
645.54	79.58
645.69	74.90
645.83	56.17
645.98	9.36
646.13	21.06
646.27	0.00
646.42	58.51
646.57	70.22
646.71	35.11
646.86	65.54
647.00	58.51
647.15	74.90
647.30	0.00
647.44	14.04
647.59	42.13
647.74	74.90
647.88	39.79
648.03	46.81
648.17	112.35
648.32	0.00
648.47	81.92
648.61	37.45
648.76	28.09
648.90	56.17
649.05	93.62
649.20	39.79
649.34	110.01
649.49	86.60
649.63	51.49
649.78	102.98
649.92	23.41
650.07	35.11
650.21	93.62
650.36	11.70
650.51	39.79
650.65	32.77
650.80	46.81
650.94	18.72
651.09	46.81
651.23	58.51
651.38	60.85
651.52	51.49
651.67	46.81
651.81	53.83
651.96	65.54
652.10	67.88
652.25	0.00
652.39	0.00
652.54	51.49
652.68	93.62
652.83	35.11
652.97	9.36
653.12	21.06
653.26	95.96
653.41	86.60
653.55	98.30
653.70	72.56
653.84	102.98
653.99	42.13
654.13	86.60
654.27	58.51
654.42	16.38
654.56	53.83
654.71	67.88
654.85	65.54
655.00	98.30
655.14	49.15
655.29	67.88
655.43	9.36
655.57	9.36
655.72	65.54
655.86	56.17
656.01	23.41
656.15	0.00
656.30	58.51
656.44	0.00
656.58	9.36
656.73	70.22
656.87	39.79
657.01	18.72
657.16	39.79
657.30	0.00
657.45	32.77
657.59	79.58
657.73	30.43
657.88	56.17
658.02	114.69
658.16	100.64
658.31	35.11
658.45	0.00
658.60	119.37
658.74	44.47
658.88	56.17
659.03	114.69
659.17	107.66
659.31	11.70
659.46	100.64
659.60	0.00
659.74	74.90
659.89	74.90
660.03	58.51
660.17	42.13
660.32	0.00
660.46	4.68
660.60	88.94
660.74	39.79
660.89	0.00
661.03	79.58
661.17	42.13
661.32	16.38
661.46	44.47
661.60	0.00
661.74	72.56
661.89	72.56
662.03	74.90
662.17	9.36
662.31	2.34
662.46	77.24
662.60	126.39
662.74	0.00
662.88	0.00
663.03	147.45
663.17	37.45
663.31	16.38
663.45	4.68
663.60	124.05
663.74	0.00
663.88	65.54
664.02	21.06
664.17	35.11
664.31	23.41
664.45	51.49
664.59	16.38
664.73	81.92
664.88	117.03
665.02	21.06
665.16	67.88
665.30	112.35
665.44	32.77
665.59	112.35
665.73	105.32
665.87	46.81
666.01	86.60
666.15	53.83
666.29	74.90
666.44	60.85
666.58	149.79
666.72	35.11
666.86	16.38
667.00	81.92
667.14	21.06
667.28	79.58
667.43	63.19
667.57	105.32
667.71	56.17
667.85	28.09
667.99	25.75
668.13	102.98
668.27	91.28
668.41	37.45
668.56	32.77
668.70	21.06
668.84	79.58
668.98	67.88
669.12	18.72
669.26	9.36
669.40	74.90
669.54	44.47
669.68	16.38
669.82	51.49
669.96	39.79
670.10	60.85
670.25	32.77
670.39	70.22
670.53	49.15
670.67	63.19
670.81	81.92
670.95	0.00
671.09	21.06
671.23	63.19
671.37	72.56
671.51	16.38
671.65	0.00
671.79	46.81
671.93	105.32
672.07	30.43
672.21	16.38
672.35	77.24
672.49	74.90
672.63	70.22
672.77	42.13
672.91	30.43
673.05	23.41
673.19	86.60
673.33	58.51
673.47	117.03
673.61	32.77
673.75	51.49
673.89	102.98
674.03	0.00
674.17	0.00
674.31	42.13
674.45	0.00
674.59	0.00
674.73	49.15
674.87	42.13
675.01	105.32
675.15	107.66
675.29	74.90
675.43	0.00
675.56	0.00
675.70	2.34
675.84	63.19
675.98	42.13
676.12	49.15
676.26	0.00
676.40	102.98
676.54	37.45
676.68	30.43
676.82	49.15
676.96	58.51
677.10	77.24
677.23	16.38
677.37	18.72
677.51	58.51
677.65	39.79
677.79	93.62
677.93	35.11
678.07	11.70
678.21	37.45
678.34	32.77
678.48	25.75
678.62	0.00
678.76	21.06
678.90	72.56
679.04	65.54
679.18	121.71
679.31	107.66
679.45	0.00
679.59	67.88
679.73	30.43
679.87	0.00
680.00	42.13
680.14	0.00
680.28	72.56
680.42	58.51
680.56	46.81
680.70	37.45
680.83	131.07
680.97	88.94
681.11	74.90
681.25	7.02
681.39	0.00
681.52	25.75
681.66	23.41
681.80	2.34
681.94	56.17
682.07	0.00
682.21	0.00
682.35	37.45
682.49	42.13
682.62	0.00
682.76	100.64
682.90	37.45
683.04	91.28
683.17	16.38
683.31	37.45
683.45	37.45
683.59	44.47
683.72	37.45
683.86	51.49
684.00	25.75
684.13	14.04
684.27	63.19
684.41	74.90
684.55	51.49
684.68	14.04
684.82	28.09
684.96	25.75
685.09	11.70
685.23	67.88
685.37	63.19
685.50	107.66
685.64	46.81
685.78	44.47
685.91	23.41
686.05	53.83
686.19	21.06
686.32	51.49
686.46	84.26
686.60	88.94
686.73	63.19
686.87	72.56
687.01	0.00
687.14	46.81
687.28	79.58
687.42	88.94
687.55	37.45
687.69	28.09
687.82	133.41
687.96	51.49
688.10	81.92
688.23	70.22
688.37	53.83
688.50	9.36
688.64	2.34
688.78	72.56
688.91	77.24
689.05	25.75
689.18	18.72
689.32	100.64
689.46	93.62
689.59	65.54
689.73	88.94
689.86	0.00
690.00	21.06
690.13	4.68
690.27	107.66
690.41	51.49
690.54	9.36
690.68	56.17
690.81	23.41
690.95	0.00
691.08	37.45
691.22	14.04
691.35	58.51
691.49	28.09
691.62	81.92
691.76	88.94
691.89	133.41
692.03	93.62
692.16	32.77
692.30	30.43
692.43	9.36
692.57	32.77
692.70	105.32
692.84	51.49
692.97	23.41
693.11	65.54
693.24	9.36
693.38	0.00
693.51	21.06
693.65	67.88
693.78	30.43
693.92	18.72
694.05	0.00
694.19	44.47
694.32	32.77
694.45	14.04
694.59	30.43
694.72	74.90
694.86	58.51
694.99	0.00
695.13	4.68
695.26	88.94
695.39	70.22
695.53	56.17
695.66	58.51
695.80	23.41
695.93	81.92
696.07	39.79
696.20	0.00
696.33	32.77
696.47	86.60
696.60	0.00
696.73	39.79
696.87	39.79
697.00	35.11
697.14	107.66
697.27	14.04
697.40	0.00
697.54	32.77
697.67	11.70
697.80	49.15
697.94	95.96
698.07	32.77
698.21	16.38
698.34	28.09
698.47	0.00
698.61	7.02
698.74	44.47
698.87	98.30
699.01	77.24
699.14	39.79
699.27	2.34
699.40	67.88
699.54	0.00
699.67	77.24
699.80	81.92
699.94	0.00
700.07	70.22
700.20	7.02
700.34	21.06
700.47	28.09
700.60	84.26
700.73	95.96
700.87	42.13
701.00	4.68
701.13	53.83
701.26	72.56
701.40	9.36
701.53	37.45
701.66	16.38
701.79	23.41
701.93	0.00
702.06	0.00
702.19	53.83
702.32	0.00
702.46	14.04
702.59	95.96
702.72	46.81
702.85	4.68
702.99	53.83
703.12	2.34
703.25	2.34
703.38	110.01
703.51	25.75
703.65	63.19
703.78	46.81
703.91	0.00
704.04	0.00
704.17	0.00
704.31	18.72
704.44	14.04
704.57	51.49
704.70	112.35
704.83	39.79
704.96	142.77
705.10	77.24
705.23	70.22
>>>>>End Processed Spectral Data<<<<<
