SpectraSuite Data File
++++++++++++++++++++++++++++++++++++
Date: Fri Oct 04 12:13:26 GMT-05:00 2013
User: price-jones
Dark Spectrum Present: No
Reference Spectrum Present: No
Number of Sampled Component Spectra: 1
Spectrometers: USB2+H05261
Integration Time (usec): 10000 (USB2+H05261)
Spectra Averaged: 1 (USB2+H05261)
Boxcar Smoothing: 0 (USB2+H05261)
Correct for Electrical Dark: No (USB2+H05261)
Strobe/Lamp Enabled: No (USB2+H05261)
Correct for Detector Non-linearity: No (USB2+H05261)
Correct for Stray Light: No (USB2+H05261)
Number of Pixels in Processed Spectrum: 2048
>>>>>Begin Processed Spectral Data<<<<<
365.73	0.00
365.92	0.00
366.12	0.00
366.32	0.00
366.52	0.00
366.72	0.00
366.91	0.00
367.11	0.00
367.31	0.00
367.51	0.00
367.70	0.00
367.90	0.00
368.10	0.00
368.30	0.00
368.49	0.00
368.69	0.00
368.89	0.00
369.09	0.00
369.28	0.00
369.48	0.00
369.68	0.00
369.87	0.00
370.07	0.00
370.27	0.00
370.47	0.00
370.66	0.00
370.86	0.00
371.06	0.00
371.25	42.13
371.45	0.00
371.65	60.85
371.84	0.00
372.04	0.00
372.24	0.00
372.44	0.00
372.63	18.72
372.83	0.00
373.03	0.00
373.22	0.00
373.42	0.00
373.62	7.02
373.81	23.41
374.01	79.58
374.21	0.00
374.40	46.81
374.60	56.17
374.79	0.00
374.99	44.47
375.19	0.00
375.38	65.54
375.58	7.02
375.78	65.54
375.97	0.00
376.17	37.45
376.37	2.34
376.56	21.06
376.76	23.41
376.95	65.54
377.15	53.83
377.35	0.00
377.54	4.68
377.74	0.00
377.93	0.00
378.13	30.43
378.33	79.58
378.52	84.26
378.72	42.13
378.91	4.68
379.11	18.72
379.31	88.94
379.50	77.24
379.70	35.11
379.89	0.00
380.09	23.41
380.28	16.38
380.48	9.36
380.68	28.09
380.87	16.38
381.07	7.02
381.26	0.00
381.46	0.00
381.65	0.00
381.85	0.00
382.04	35.11
382.24	51.49
382.43	7.02
382.63	79.58
382.83	25.75
383.02	16.38
383.22	9.36
383.41	56.17
383.61	39.79
383.80	14.04
384.00	65.54
384.19	9.36
384.39	0.00
384.58	21.06
384.78	0.00
384.97	21.06
385.17	0.00
385.36	0.00
385.56	32.77
385.75	37.45
385.95	42.13
386.14	0.00
386.34	95.96
386.53	35.11
386.72	16.38
386.92	16.38
387.11	35.11
387.31	28.09
387.50	0.00
387.70	37.45
387.89	11.70
388.09	14.04
388.28	21.06
388.48	0.00
388.67	14.04
388.86	4.68
389.06	51.49
389.25	32.77
389.45	9.36
389.64	0.00
389.84	37.45
390.03	16.38
390.22	0.00
390.42	35.11
390.61	11.70
390.81	0.00
391.00	21.06
391.19	0.00
391.39	18.72
391.58	42.13
391.78	25.75
391.97	53.83
392.16	79.58
392.36	0.00
392.55	30.43
392.75	7.02
392.94	0.00
393.13	79.58
393.33	0.00
393.52	0.00
393.71	51.49
393.91	0.00
394.10	63.19
394.29	56.17
394.49	30.43
394.68	53.83
394.88	39.79
395.07	42.13
395.26	14.04
395.46	23.41
395.65	14.04
395.84	44.47
396.04	32.77
396.23	81.92
396.42	25.75
396.62	0.00
396.81	60.85
397.00	0.00
397.19	30.43
397.39	37.45
397.58	0.00
397.77	0.00
397.97	67.88
398.16	84.26
398.35	60.85
398.55	0.00
398.74	0.00
398.93	35.11
399.12	23.41
399.32	0.00
399.51	0.00
399.70	81.92
399.90	7.02
400.09	70.22
400.28	4.68
400.47	46.81
400.67	70.22
400.86	63.19
401.05	0.00
401.24	0.00
401.44	84.26
401.63	0.00
401.82	0.00
402.01	0.00
402.21	44.47
402.40	7.02
402.59	16.38
402.78	7.02
402.97	49.15
403.17	0.00
403.36	58.51
403.55	95.96
403.74	72.56
403.93	42.13
404.13	0.00
404.32	37.45
404.51	81.92
404.70	88.94
404.89	67.88
405.09	21.06
405.28	42.13
405.47	102.98
405.66	30.43
405.85	79.58
406.05	37.45
406.24	16.38
406.43	0.00
406.62	77.24
406.81	0.00
407.00	63.19
407.20	42.13
407.39	44.47
407.58	60.85
407.77	0.00
407.96	0.00
408.15	51.49
408.34	63.19
408.54	56.17
408.73	86.60
408.92	23.41
409.11	30.43
409.30	7.02
409.49	0.00
409.68	65.54
409.87	53.83
410.07	11.70
410.26	39.79
410.45	39.79
410.64	35.11
410.83	0.00
411.02	0.00
411.21	0.00
411.40	0.00
411.59	23.41
411.78	51.49
411.98	70.22
412.17	74.90
412.36	70.22
412.55	25.75
412.74	93.62
412.93	91.28
413.12	23.41
413.31	79.58
413.50	79.58
413.69	42.13
413.88	7.02
414.07	46.81
414.26	7.02
414.45	23.41
414.64	91.28
414.83	58.51
415.02	18.72
415.22	0.00
415.41	0.00
415.60	11.70
415.79	28.09
415.98	56.17
416.17	0.00
416.36	37.45
416.55	0.00
416.74	58.51
416.93	11.70
417.12	21.06
417.31	117.03
417.50	93.62
417.69	0.00
417.88	9.36
418.07	9.36
418.26	0.00
418.45	0.00
418.64	37.45
418.83	35.11
419.02	49.15
419.21	39.79
419.39	21.06
419.58	16.38
419.77	0.00
419.96	9.36
420.15	0.00
420.34	0.00
420.53	0.00
420.72	11.70
420.91	16.38
421.10	21.06
421.29	0.00
421.48	7.02
421.67	60.85
421.86	65.54
422.05	11.70
422.24	35.11
422.43	67.88
422.61	23.41
422.80	49.15
422.99	0.00
423.18	23.41
423.37	49.15
423.56	72.56
423.75	51.49
423.94	37.45
424.13	84.26
424.32	0.00
424.50	81.92
424.69	14.04
424.88	4.68
425.07	30.43
425.26	28.09
425.45	53.83
425.64	88.94
425.83	110.01
426.01	30.43
426.20	72.56
426.39	0.00
426.58	56.17
426.77	60.85
426.96	11.70
427.15	35.11
427.33	32.77
427.52	86.60
427.71	32.77
427.90	95.96
428.09	9.36
428.28	60.85
428.46	74.90
428.65	49.15
428.84	67.88
429.03	0.00
429.22	42.13
429.40	37.45
429.59	0.00
429.78	32.77
429.97	0.00
430.16	0.00
430.34	18.72
430.53	7.02
430.72	56.17
430.91	0.00
431.10	0.00
431.28	16.38
431.47	51.49
431.66	63.19
431.85	86.60
432.03	23.41
432.22	21.06
432.41	74.90
432.60	67.88
432.79	79.58
432.97	67.88
433.16	46.81
433.35	74.90
433.54	35.11
433.72	0.00
433.91	28.09
434.10	9.36
434.28	0.00
434.47	23.41
434.66	72.56
434.85	25.75
435.03	42.13
435.22	18.72
435.41	42.13
435.59	49.15
435.78	0.00
435.97	56.17
436.16	0.00
436.34	23.41
436.53	46.81
436.72	42.13
436.90	9.36
437.09	0.00
437.28	0.00
437.46	9.36
437.65	21.06
437.84	51.49
438.02	42.13
438.21	102.98
438.40	0.00
438.58	0.00
438.77	77.24
438.96	70.22
439.14	51.49
439.33	124.05
439.52	65.54
439.70	4.68
439.89	37.45
440.08	14.04
440.26	42.13
440.45	0.00
440.63	44.47
440.82	0.00
441.01	0.00
441.19	42.13
441.38	25.75
441.57	74.90
441.75	46.81
441.94	11.70
442.12	18.72
442.31	0.00
442.50	0.00
442.68	25.75
442.87	4.68
443.05	0.00
443.24	58.51
443.43	35.11
443.61	95.96
443.80	0.00
443.98	14.04
444.17	0.00
444.35	9.36
444.54	42.13
444.73	4.68
444.91	53.83
445.10	86.60
445.28	32.77
445.47	7.02
445.65	0.00
445.84	0.00
446.02	81.92
446.21	35.11
446.39	56.17
446.58	77.24
446.77	23.41
446.95	0.00
447.14	37.45
447.32	14.04
447.51	98.30
447.69	86.60
447.88	0.00
448.06	58.51
448.25	18.72
448.43	30.43
448.62	30.43
448.80	39.79
448.99	28.09
449.17	23.41
449.36	0.00
449.54	0.00
449.73	35.11
449.91	42.13
450.10	16.38
450.28	74.90
450.46	72.56
450.65	95.96
450.83	0.00
451.02	0.00
451.20	44.47
451.39	63.19
451.57	44.47
451.76	60.85
451.94	28.09
452.13	32.77
452.31	65.54
452.49	86.60
452.68	0.00
452.86	4.68
453.05	21.06
453.23	0.00
453.42	51.49
453.60	56.17
453.78	46.81
453.97	28.09
454.15	39.79
454.34	53.83
454.52	2.34
454.70	70.22
454.89	7.02
455.07	0.00
455.26	46.81
455.44	49.15
455.62	11.70
455.81	53.83
455.99	60.85
456.17	42.13
456.36	0.00
456.54	0.00
456.73	84.26
456.91	23.41
457.09	74.90
457.28	14.04
457.46	0.00
457.64	102.98
457.83	0.00
458.01	0.00
458.19	72.56
458.38	74.90
458.56	63.19
458.74	51.49
458.93	53.83
459.11	56.17
459.29	147.45
459.48	9.36
459.66	63.19
459.84	79.58
460.03	46.81
460.21	30.43
460.39	0.00
460.57	74.90
460.76	37.45
460.94	65.54
461.12	49.15
461.31	18.72
461.49	60.85
461.67	0.00
461.85	37.45
462.04	0.00
462.22	107.66
462.40	65.54
462.59	100.64
462.77	56.17
462.95	16.38
463.13	60.85
463.32	2.34
463.50	32.77
463.68	11.70
463.86	70.22
464.05	0.00
464.23	72.56
464.41	79.58
464.59	81.92
464.78	0.00
464.96	107.66
465.14	93.62
465.32	0.00
465.50	56.17
465.69	46.81
465.87	0.00
466.05	11.70
466.23	16.38
466.41	49.15
466.60	77.24
466.78	28.09
466.96	16.38
467.14	11.70
467.32	67.88
467.51	28.09
467.69	51.49
467.87	72.56
468.05	46.81
468.23	23.41
468.41	0.00
468.60	74.90
468.78	7.02
468.96	79.58
469.14	23.41
469.32	67.88
469.50	44.47
469.69	0.00
469.87	35.11
470.05	0.00
470.23	0.00
470.41	86.60
470.59	138.09
470.77	30.43
470.95	88.94
471.14	0.00
471.32	0.00
471.50	16.38
471.68	7.02
471.86	53.83
472.04	77.24
472.22	0.00
472.40	28.09
472.58	14.04
472.77	42.13
472.95	23.41
473.13	37.45
473.31	37.45
473.49	23.41
473.67	0.00
473.85	100.64
474.03	16.38
474.21	58.51
474.39	4.68
474.57	32.77
474.75	86.60
474.93	79.58
475.12	65.54
475.30	49.15
475.48	70.22
475.66	42.13
475.84	0.00
476.02	44.47
476.20	37.45
476.38	53.83
476.56	14.04
476.74	14.04
476.92	9.36
477.10	14.04
477.28	30.43
477.46	0.00
477.64	63.19
477.82	2.34
478.00	53.83
478.18	18.72
478.36	25.75
478.54	7.02
478.72	51.49
478.90	0.00
479.08	42.13
479.26	11.70
479.44	23.41
479.62	91.28
479.80	98.30
479.98	77.24
480.16	46.81
480.34	0.00
480.52	23.41
480.70	0.00
480.88	81.92
481.06	67.88
481.24	70.22
481.41	60.85
481.59	11.70
481.77	7.02
481.95	58.51
482.13	28.09
482.31	39.79
482.49	35.11
482.67	7.02
482.85	72.56
483.03	0.00
483.21	49.15
483.39	11.70
483.57	56.17
483.74	42.13
483.92	30.43
484.10	42.13
484.28	46.81
484.46	0.00
484.64	0.00
484.82	46.81
485.00	44.47
485.18	44.47
485.35	30.43
485.53	39.79
485.71	53.83
485.89	58.51
486.07	0.00
486.25	81.92
486.43	30.43
486.61	25.75
486.78	86.60
486.96	44.47
487.14	0.00
487.32	51.49
487.50	11.70
487.68	0.00
487.85	51.49
488.03	95.96
488.21	46.81
488.39	56.17
488.57	32.77
488.75	0.00
488.92	0.00
489.10	86.60
489.28	23.41
489.46	35.11
489.64	23.41
489.81	42.13
489.99	30.43
490.17	0.00
490.35	18.72
490.53	11.70
490.70	0.00
490.88	21.06
491.06	42.13
491.24	72.56
491.41	81.92
491.59	124.05
491.77	35.11
491.95	0.00
492.13	11.70
492.30	0.00
492.48	70.22
492.66	46.81
492.84	0.00
493.01	14.04
493.19	37.45
493.37	88.94
493.54	60.85
493.72	58.51
493.90	84.26
494.08	0.00
494.25	23.41
494.43	2.34
494.61	9.36
494.79	58.51
494.96	7.02
495.14	53.83
495.32	9.36
495.49	0.00
495.67	65.54
495.85	63.19
496.02	35.11
496.20	77.24
496.38	9.36
496.55	35.11
496.73	14.04
496.91	37.45
497.09	46.81
497.26	51.49
497.44	0.00
497.62	56.17
497.79	30.43
497.97	18.72
498.14	37.45
498.32	72.56
498.50	63.19
498.67	46.81
498.85	37.45
499.03	42.13
499.20	9.36
499.38	56.17
499.56	58.51
499.73	49.15
499.91	0.00
500.08	65.54
500.26	46.81
500.44	30.43
500.61	53.83
500.79	88.94
500.97	42.13
501.14	81.92
501.32	21.06
501.49	9.36
501.67	114.69
501.84	91.28
502.02	42.13
502.20	60.85
502.37	16.38
502.55	0.00
502.72	32.77
502.90	53.83
503.07	0.00
503.25	51.49
503.43	18.72
503.60	114.69
503.78	53.83
503.95	0.00
504.13	9.36
504.30	128.73
504.48	0.00
504.65	53.83
504.83	37.45
505.01	79.58
505.18	79.58
505.36	0.00
505.53	0.00
505.71	56.17
505.88	16.38
506.06	98.30
506.23	2.34
506.41	21.06
506.58	23.41
506.76	58.51
506.93	0.00
507.11	67.88
507.28	16.38
507.46	25.75
507.63	30.43
507.81	56.17
507.98	11.70
508.16	0.00
508.33	58.51
508.50	9.36
508.68	86.60
508.85	49.15
509.03	81.92
509.20	21.06
509.38	98.30
509.55	32.77
509.73	0.00
509.90	14.04
510.08	0.00
510.25	63.19
510.42	63.19
510.60	51.49
510.77	58.51
510.95	9.36
511.12	32.77
511.30	102.98
511.47	81.92
511.64	53.83
511.82	100.64
511.99	32.77
512.17	77.24
512.34	46.81
512.51	28.09
512.69	0.00
512.86	14.04
513.04	23.41
513.21	51.49
513.38	4.68
513.56	46.81
513.73	23.41
513.90	49.15
514.08	11.70
514.25	124.05
514.43	0.00
514.60	56.17
514.77	42.13
514.95	21.06
515.12	60.85
515.29	77.24
515.47	58.51
515.64	67.88
515.81	107.66
515.99	32.77
516.16	32.77
516.33	28.09
516.51	0.00
516.68	0.00
516.85	37.45
517.03	0.00
517.20	28.09
517.37	32.77
517.54	102.98
517.72	58.51
517.89	44.47
518.06	65.54
518.24	7.02
518.41	14.04
518.58	0.00
518.75	18.72
518.93	23.41
519.10	60.85
519.27	0.00
519.45	77.24
519.62	46.81
519.79	63.19
519.96	53.83
520.14	51.49
520.31	44.47
520.48	0.00
520.65	53.83
520.83	49.15
521.00	65.54
521.17	0.00
521.34	32.77
521.52	32.77
521.69	0.00
521.86	30.43
522.03	7.02
522.20	60.85
522.38	0.00
522.55	60.85
522.72	23.41
522.89	28.09
523.07	0.00
523.24	0.00
523.41	14.04
523.58	0.00
523.75	18.72
523.92	63.19
524.10	39.79
524.27	35.11
524.44	39.79
524.61	86.60
524.78	84.26
524.96	58.51
525.13	16.38
525.30	42.13
525.47	37.45
525.64	0.00
525.81	105.32
525.98	0.00
526.16	51.49
526.33	51.49
526.50	0.00
526.67	16.38
526.84	14.04
527.01	135.75
527.18	56.17
527.36	65.54
527.53	49.15
527.70	91.28
527.87	84.26
528.04	28.09
528.21	0.00
528.38	0.00
528.55	35.11
528.72	117.03
528.89	42.13
529.07	21.06
529.24	149.79
529.41	60.85
529.58	0.00
529.75	0.00
529.92	9.36
530.09	53.83
530.26	14.04
530.43	37.45
530.60	0.00
530.77	4.68
530.94	72.56
531.11	32.77
531.28	9.36
531.46	4.68
531.63	93.62
531.80	23.41
531.97	124.05
532.14	0.00
532.31	72.56
532.48	42.13
532.65	58.51
532.82	0.00
532.99	35.11
533.16	53.83
533.33	46.81
533.50	35.11
533.67	14.04
533.84	0.00
534.01	0.00
534.18	42.13
534.35	51.49
534.52	84.26
534.69	63.19
534.86	95.96
535.03	74.90
535.20	56.17
535.37	37.45
535.54	81.92
535.71	23.41
535.88	2.34
536.05	142.77
536.22	138.09
536.38	53.83
536.55	37.45
536.72	7.02
536.89	11.70
537.06	37.45
537.23	16.38
537.40	14.04
537.57	37.45
537.74	65.54
537.91	0.00
538.08	11.70
538.25	30.43
538.42	107.66
538.59	44.47
538.75	84.26
538.92	35.11
539.09	42.13
539.26	63.19
539.43	117.03
539.60	0.00
539.77	25.75
539.94	0.00
540.11	65.54
540.28	56.17
540.44	39.79
540.61	0.00
540.78	11.70
540.95	100.64
541.12	77.24
541.29	44.47
541.46	21.06
541.62	119.37
541.79	7.02
541.96	35.11
542.13	95.96
542.30	46.81
542.47	0.00
542.63	58.51
542.80	79.58
542.97	72.56
543.14	60.85
543.31	49.15
543.48	14.04
543.64	46.81
543.81	0.00
543.98	37.45
544.15	53.83
544.32	72.56
544.48	107.66
544.65	14.04
544.82	81.92
544.99	39.79
545.16	60.85
545.32	37.45
545.49	18.72
545.66	37.45
545.83	23.41
546.00	63.19
546.16	16.38
546.33	37.45
546.50	42.13
546.67	0.00
546.83	14.04
547.00	105.32
547.17	2.34
547.34	21.06
547.50	23.41
547.67	9.36
547.84	0.00
548.00	0.00
548.17	0.00
548.34	0.00
548.51	67.88
548.67	21.06
548.84	86.60
549.01	51.49
549.18	32.77
549.34	9.36
549.51	0.00
549.68	16.38
549.84	37.45
550.01	18.72
550.18	42.13
550.34	44.47
550.51	9.36
550.68	46.81
550.84	37.45
551.01	56.17
551.18	28.09
551.34	110.01
551.51	9.36
551.68	0.00
551.84	0.00
552.01	121.71
552.18	32.77
552.34	107.66
552.51	175.54
552.68	23.41
552.84	42.13
553.01	53.83
553.18	9.36
553.34	23.41
553.51	32.77
553.67	11.70
553.84	0.00
554.01	0.00
554.17	51.49
554.34	25.75
554.51	0.00
554.67	2.34
554.84	74.90
555.00	112.35
555.17	93.62
555.33	7.02
555.50	32.77
555.67	70.22
555.83	53.83
556.00	0.00
556.16	70.22
556.33	53.83
556.50	84.26
556.66	81.92
556.83	46.81
556.99	49.15
557.16	95.96
557.32	42.13
557.49	0.00
557.65	65.54
557.82	35.11
557.98	0.00
558.15	56.17
558.32	28.09
558.48	67.88
558.65	0.00
558.81	79.58
558.98	37.45
559.14	14.04
559.31	91.28
559.47	0.00
559.64	42.13
559.80	51.49
559.97	0.00
560.13	91.28
560.30	0.00
560.46	25.75
560.63	65.54
560.79	4.68
560.96	65.54
561.12	51.49
561.29	25.75
561.45	58.51
561.61	7.02
561.78	0.00
561.94	46.81
562.11	0.00
562.27	35.11
562.44	91.28
562.60	0.00
562.77	74.90
562.93	42.13
563.10	16.38
563.26	14.04
563.42	77.24
563.59	21.06
563.75	98.30
563.92	51.49
564.08	42.13
564.24	32.77
564.41	28.09
564.57	53.83
564.74	2.34
564.90	70.22
565.07	11.70
565.23	102.98
565.39	121.71
565.56	0.00
565.72	56.17
565.88	67.88
566.05	39.79
566.21	32.77
566.38	2.34
566.54	0.00
566.70	0.00
566.87	25.75
567.03	56.17
567.19	14.04
567.36	14.04
567.52	39.79
567.68	58.51
567.85	32.77
568.01	51.49
568.17	39.79
568.34	84.26
568.50	65.54
568.66	11.70
568.83	2.34
568.99	7.02
569.15	16.38
569.32	25.75
569.48	58.51
569.64	4.68
569.81	21.06
569.97	56.17
570.13	16.38
570.30	0.00
570.46	91.28
570.62	53.83
570.78	30.43
570.95	65.54
571.11	9.36
571.27	32.77
571.43	0.00
571.60	23.41
571.76	37.45
571.92	42.13
572.09	11.70
572.25	28.09
572.41	39.79
572.57	119.37
572.74	9.36
572.90	58.51
573.06	28.09
573.22	21.06
573.38	14.04
573.55	0.00
573.71	58.51
573.87	112.35
574.03	32.77
574.20	79.58
574.36	49.15
574.52	23.41
574.68	77.24
574.84	0.00
575.01	44.47
575.17	18.72
575.33	65.54
575.49	0.00
575.65	0.00
575.82	0.00
575.98	23.41
576.14	65.54
576.30	7.02
576.46	14.04
576.62	0.00
576.79	46.81
576.95	84.26
577.11	25.75
577.27	16.38
577.43	79.58
577.59	0.00
577.75	0.00
577.92	32.77
578.08	25.75
578.24	16.38
578.40	100.64
578.56	28.09
578.72	35.11
578.88	42.13
579.04	28.09
579.21	42.13
579.37	44.47
579.53	49.15
579.69	124.05
579.85	37.45
580.01	79.58
580.17	51.49
580.33	98.30
580.49	105.32
580.65	14.04
580.82	65.54
580.98	58.51
581.14	14.04
581.30	63.19
581.46	7.02
581.62	107.66
581.78	88.94
581.94	110.01
582.10	0.00
582.26	56.17
582.42	25.75
582.58	70.22
582.74	70.22
582.90	0.00
583.06	18.72
583.22	63.19
583.38	79.58
583.54	81.92
583.70	84.26
583.86	77.24
584.02	74.90
584.18	53.83
584.34	88.94
584.50	86.60
584.66	105.32
584.82	102.98
584.98	154.48
585.14	175.54
585.30	60.85
585.46	105.32
585.62	112.35
585.78	72.56
585.94	51.49
586.10	0.00
586.26	28.09
586.42	98.30
586.58	0.00
586.74	0.00
586.90	77.24
587.06	0.00
587.22	0.00
587.38	77.24
587.54	44.47
587.70	65.54
587.86	86.60
588.02	51.49
588.18	4.68
588.34	2.34
588.49	32.77
588.65	117.03
588.81	0.00
588.97	28.09
589.13	0.00
589.29	0.00
589.45	63.19
589.61	4.68
589.77	79.58
589.93	39.79
590.08	51.49
590.24	117.03
590.40	86.60
590.56	86.60
590.72	105.32
590.88	58.51
591.04	0.00
591.20	2.34
591.35	35.11
591.51	0.00
591.67	16.38
591.83	77.24
591.99	25.75
592.15	65.54
592.31	4.68
592.46	28.09
592.62	30.43
592.78	25.75
592.94	23.41
593.10	56.17
593.26	0.00
593.41	18.72
593.57	105.32
593.73	18.72
593.89	46.81
594.05	53.83
594.20	67.88
594.36	72.56
594.52	77.24
594.68	46.81
594.84	0.00
594.99	37.45
595.15	28.09
595.31	37.45
595.47	60.85
595.62	63.19
595.78	42.13
595.94	0.00
596.10	0.00
596.25	46.81
596.41	9.36
596.57	9.36
596.73	91.28
596.88	18.72
597.04	4.68
597.20	70.22
597.36	70.22
597.51	30.43
597.67	126.39
597.83	65.54
597.99	0.00
598.14	44.47
598.30	39.79
598.46	91.28
598.61	42.13
598.77	53.83
598.93	32.77
599.09	72.56
599.24	65.54
599.40	49.15
599.56	0.00
599.71	0.00
599.87	30.43
600.03	58.51
600.18	63.19
600.34	16.38
600.50	63.19
600.65	35.11
600.81	0.00
600.97	67.88
601.12	117.03
601.28	88.94
601.44	0.00
601.59	14.04
601.75	0.00
601.91	23.41
602.06	32.77
602.22	0.00
602.37	42.13
602.53	0.00
602.69	60.85
602.84	25.75
603.00	4.68
603.16	58.51
603.31	65.54
603.47	121.71
603.62	88.94
603.78	7.02
603.94	39.79
604.09	11.70
604.25	0.00
604.40	74.90
604.56	30.43
604.71	0.00
604.87	37.45
605.03	53.83
605.18	107.66
605.34	0.00
605.49	37.45
605.65	18.72
605.80	58.51
605.96	74.90
606.12	35.11
606.27	0.00
606.43	11.70
606.58	60.85
606.74	70.22
606.89	107.66
607.05	32.77
607.20	42.13
607.36	0.00
607.51	14.04
607.67	0.00
607.82	0.00
607.98	32.77
608.13	58.51
608.29	60.85
608.44	32.77
608.60	30.43
608.75	37.45
608.91	37.45
609.06	30.43
609.22	32.77
609.37	46.81
609.53	14.04
609.68	28.09
609.84	21.06
609.99	35.11
610.15	37.45
610.30	0.00
610.46	53.83
610.61	0.00
610.76	23.41
610.92	56.17
611.07	60.85
611.23	46.81
611.38	16.38
611.54	23.41
611.69	0.00
611.84	0.00
612.00	67.88
612.15	0.00
612.31	0.00
612.46	65.54
612.62	28.09
612.77	98.30
612.92	18.72
613.08	107.66
613.23	98.30
613.39	46.81
613.54	0.00
613.69	0.00
613.85	37.45
614.00	58.51
614.15	56.17
614.31	124.05
614.46	0.00
614.62	37.45
614.77	77.24
614.92	51.49
615.08	56.17
615.23	4.68
615.38	0.00
615.54	0.00
615.69	79.58
615.84	46.81
616.00	30.43
616.15	100.64
616.30	2.34
616.46	58.51
616.61	37.45
616.76	7.02
616.92	14.04
617.07	35.11
617.22	0.00
617.37	49.15
617.53	23.41
617.68	60.85
617.83	58.51
617.99	35.11
618.14	14.04
618.29	51.49
618.45	21.06
618.60	35.11
618.75	72.56
618.90	81.92
619.06	70.22
619.21	77.24
619.36	23.41
619.51	86.60
619.67	70.22
619.82	74.90
619.97	56.17
620.12	37.45
620.28	23.41
620.43	0.00
620.58	58.51
620.73	18.72
620.89	60.85
621.04	18.72
621.19	98.30
621.34	119.37
621.49	84.26
621.65	30.43
621.80	42.13
621.95	65.54
622.10	70.22
622.25	77.24
622.41	37.45
622.56	46.81
622.71	23.41
622.86	0.00
623.01	0.00
623.16	7.02
623.32	81.92
623.47	84.26
623.62	28.09
623.77	67.88
623.92	0.00
624.07	46.81
624.23	67.88
624.38	39.79
624.53	23.41
624.68	124.05
624.83	56.17
624.98	0.00
625.13	93.62
625.29	79.58
625.44	37.45
625.59	114.69
625.74	32.77
625.89	51.49
626.04	14.04
626.19	44.47
626.34	51.49
626.49	88.94
626.65	0.00
626.80	56.17
626.95	0.00
627.10	25.75
627.25	0.00
627.40	77.24
627.55	58.51
627.70	51.49
627.85	42.13
628.00	0.00
628.15	11.70
628.30	67.88
628.45	60.85
628.60	51.49
628.76	77.24
628.91	23.41
629.06	42.13
629.21	2.34
629.36	49.15
629.51	44.47
629.66	58.51
629.81	18.72
629.96	0.00
630.11	77.24
630.26	28.09
630.41	63.19
630.56	60.85
630.71	117.03
630.86	72.56
631.01	0.00
631.16	84.26
631.31	0.00
631.46	67.88
631.61	30.43
631.76	0.00
631.91	100.64
632.06	58.51
632.21	0.00
632.36	28.09
632.51	0.00
632.66	0.00
632.81	53.83
632.96	18.72
633.10	56.17
633.25	93.62
633.40	65.54
633.55	39.79
633.70	42.13
633.85	14.04
634.00	53.83
634.15	0.00
634.30	105.32
634.45	56.17
634.60	9.36
634.75	32.77
634.90	84.26
635.05	18.72
635.19	30.43
635.34	53.83
635.49	53.83
635.64	58.51
635.79	0.00
635.94	7.02
636.09	23.41
636.24	49.15
636.39	46.81
636.53	72.56
636.68	114.69
636.83	63.19
636.98	28.09
637.13	74.90
637.28	30.43
637.43	84.26
637.57	56.17
637.72	0.00
637.87	105.32
638.02	37.45
638.17	95.96
638.32	28.09
638.46	39.79
638.61	51.49
638.76	67.88
638.91	16.38
639.06	37.45
639.20	0.00
639.35	0.00
639.50	84.26
639.65	7.02
639.80	35.11
639.94	81.92
640.09	28.09
640.24	84.26
640.39	23.41
640.54	63.19
640.68	65.54
640.83	56.17
640.98	60.85
641.13	84.26
641.27	0.00
641.42	42.13
641.57	67.88
641.72	18.72
641.86	77.24
642.01	21.06
642.16	0.00
642.31	21.06
642.45	39.79
642.60	0.00
642.75	81.92
642.90	49.15
643.04	44.47
643.19	0.00
643.34	11.70
643.48	14.04
643.63	32.77
643.78	88.94
643.93	28.09
644.07	39.79
644.22	56.17
644.37	56.17
644.51	93.62
644.66	25.75
644.81	81.92
644.95	107.66
645.10	9.36
645.25	0.00
645.39	23.41
645.54	18.72
645.69	4.68
645.83	46.81
645.98	51.49
646.13	4.68
646.27	4.68
646.42	37.45
646.57	46.81
646.71	114.69
646.86	49.15
647.00	51.49
647.15	98.30
647.30	65.54
647.44	18.72
647.59	65.54
647.74	32.77
647.88	0.00
648.03	4.68
648.17	21.06
648.32	0.00
648.47	0.00
648.61	2.34
648.76	0.00
648.90	81.92
649.05	7.02
649.20	102.98
649.34	53.83
649.49	95.96
649.63	60.85
649.78	72.56
649.92	70.22
650.07	30.43
650.21	42.13
650.36	70.22
650.51	74.90
650.65	63.19
650.80	100.64
650.94	70.22
651.09	98.30
651.23	9.36
651.38	11.70
651.52	16.38
651.67	35.11
651.81	0.00
651.96	9.36
652.10	53.83
652.25	44.47
652.39	140.43
652.54	4.68
652.68	0.00
652.83	37.45
652.97	70.22
653.12	0.00
653.26	35.11
653.41	28.09
653.55	46.81
653.70	16.38
653.84	11.70
653.99	28.09
654.13	42.13
654.27	7.02
654.42	0.00
654.56	0.00
654.71	60.85
654.85	58.51
655.00	98.30
655.14	81.92
655.29	23.41
655.43	63.19
655.57	35.11
655.72	0.00
655.86	16.38
656.01	18.72
656.15	49.15
656.30	0.00
656.44	21.06
656.58	0.00
656.73	42.13
656.87	77.24
657.01	18.72
657.16	70.22
657.30	37.45
657.45	18.72
657.59	42.13
657.73	46.81
657.88	0.00
658.02	58.51
658.16	67.88
658.31	58.51
658.45	44.47
658.60	30.43
658.74	28.09
658.88	112.35
659.03	39.79
659.17	65.54
659.31	23.41
659.46	28.09
659.60	9.36
659.74	88.94
659.89	18.72
660.03	0.00
660.17	32.77
660.32	32.77
660.46	9.36
660.60	0.00
660.74	39.79
660.89	86.60
661.03	126.39
661.17	51.49
661.32	0.00
661.46	9.36
661.60	30.43
661.74	37.45
661.89	0.00
662.03	58.51
662.17	32.77
662.31	0.00
662.46	0.00
662.60	30.43
662.74	28.09
662.88	0.00
663.03	0.00
663.17	0.00
663.31	44.47
663.45	14.04
663.60	65.54
663.74	35.11
663.88	23.41
664.02	51.49
664.17	0.00
664.31	70.22
664.45	11.70
664.59	0.00
664.73	28.09
664.88	51.49
665.02	42.13
665.16	77.24
665.30	63.19
665.44	53.83
665.59	23.41
665.73	0.00
665.87	28.09
666.01	9.36
666.15	0.00
666.29	95.96
666.44	35.11
666.58	0.00
666.72	2.34
666.86	23.41
667.00	25.75
667.14	21.06
667.28	21.06
667.43	37.45
667.57	70.22
667.71	23.41
667.85	88.94
667.99	42.13
668.13	46.81
668.27	30.43
668.41	25.75
668.56	2.34
668.70	14.04
668.84	49.15
668.98	11.70
669.12	0.00
669.26	23.41
669.40	95.96
669.54	77.24
669.68	51.49
669.82	110.01
669.96	91.28
670.10	21.06
670.25	14.04
670.39	84.26
670.53	30.43
670.67	0.00
670.81	88.94
670.95	51.49
671.09	81.92
671.23	4.68
671.37	42.13
671.51	58.51
671.65	16.38
671.79	35.11
671.93	11.70
672.07	0.00
672.21	51.49
672.35	70.22
672.49	28.09
672.63	30.43
672.77	0.00
672.91	35.11
673.05	28.09
673.19	18.72
673.33	84.26
673.47	72.56
673.61	16.38
673.75	46.81
673.89	53.83
674.03	23.41
674.17	58.51
674.31	44.47
674.45	88.94
674.59	51.49
674.73	25.75
674.87	30.43
675.01	32.77
675.15	39.79
675.29	32.77
675.43	67.88
675.56	0.00
675.70	0.00
675.84	0.00
675.98	4.68
676.12	0.00
676.26	53.83
676.40	46.81
676.54	0.00
676.68	51.49
676.82	14.04
676.96	35.11
677.10	42.13
677.23	84.26
677.37	65.54
677.51	81.92
677.65	58.51
677.79	28.09
677.93	0.00
678.07	25.75
678.21	42.13
678.34	23.41
678.48	4.68
678.62	30.43
678.76	30.43
678.90	0.00
679.04	0.00
679.18	93.62
679.31	65.54
679.45	51.49
679.59	86.60
679.73	0.00
679.87	11.70
680.00	56.17
680.14	11.70
680.28	56.17
680.42	74.90
680.56	42.13
680.70	63.19
680.83	11.70
680.97	0.00
681.11	44.47
681.25	25.75
681.39	14.04
681.52	0.00
681.66	44.47
681.80	42.13
681.94	0.00
682.07	53.83
682.21	98.30
682.35	0.00
682.49	0.00
682.62	98.30
682.76	39.79
682.90	44.47
683.04	0.00
683.17	35.11
683.31	53.83
683.45	49.15
683.59	18.72
683.72	79.58
683.86	32.77
684.00	0.00
684.13	0.00
684.27	25.75
684.41	0.00
684.55	44.47
684.68	0.00
684.82	32.77
684.96	25.75
685.09	56.17
685.23	0.00
685.37	67.88
685.50	51.49
685.64	49.15
685.78	32.77
685.91	18.72
686.05	42.13
686.19	53.83
686.32	32.77
686.46	49.15
686.60	81.92
686.73	44.47
686.87	44.47
687.01	46.81
687.14	131.07
687.28	67.88
687.42	21.06
687.55	51.49
687.69	102.98
687.82	30.43
687.96	21.06
688.10	58.51
688.23	0.00
688.37	30.43
688.50	7.02
688.64	23.41
688.78	0.00
688.91	0.00
689.05	2.34
689.18	39.79
689.32	37.45
689.46	0.00
689.59	53.83
689.73	79.58
689.86	25.75
690.00	11.70
690.13	51.49
690.27	9.36
690.41	7.02
690.54	46.81
690.68	53.83
690.81	0.00
690.95	49.15
691.08	18.72
691.22	74.90
691.35	0.00
691.49	7.02
691.62	23.41
691.76	51.49
691.89	60.85
692.03	81.92
692.16	28.09
692.30	0.00
692.43	9.36
692.57	58.51
692.70	0.00
692.84	91.28
692.97	16.38
693.11	0.00
693.24	0.00
693.38	0.00
693.51	42.13
693.65	42.13
693.78	72.56
693.92	88.94
694.05	42.13
694.19	35.11
694.32	16.38
694.45	0.00
694.59	11.70
694.72	65.54
694.86	42.13
694.99	16.38
695.13	9.36
695.26	42.13
695.39	39.79
695.53	4.68
695.66	63.19
695.80	81.92
695.93	72.56
696.07	30.43
696.20	65.54
696.33	42.13
696.47	9.36
696.60	67.88
696.73	84.26
696.87	0.00
697.00	32.77
697.14	7.02
697.27	46.81
697.40	0.00
697.54	0.00
697.67	37.45
697.80	58.51
697.94	28.09
698.07	0.00
698.21	100.64
698.34	65.54
698.47	18.72
698.61	0.00
698.74	72.56
698.87	9.36
699.01	39.79
699.14	65.54
699.27	49.15
699.40	0.00
699.54	42.13
699.67	7.02
699.80	79.58
699.94	9.36
700.07	53.83
700.20	11.70
700.34	49.15
700.47	4.68
700.60	0.00
700.73	100.64
700.87	28.09
701.00	60.85
701.13	0.00
701.26	14.04
701.40	32.77
701.53	60.85
701.66	14.04
701.79	46.81
701.93	14.04
702.06	4.68
702.19	25.75
702.32	91.28
702.46	63.19
702.59	72.56
702.72	60.85
702.85	74.90
702.99	4.68
703.12	65.54
703.25	0.00
703.38	56.17
703.51	56.17
703.65	67.88
703.78	74.90
703.91	18.72
704.04	56.17
704.17	37.45
704.31	28.09
704.44	35.11
704.57	0.00
704.70	42.13
704.83	0.00
704.96	0.00
705.10	4.68
705.23	53.83
>>>>>End Processed Spectral Data<<<<<
