SpectraSuite Data File
++++++++++++++++++++++++++++++++++++
Date: Fri Oct 04 12:13:40 GMT-05:00 2013
User: price-jones
Dark Spectrum Present: No
Reference Spectrum Present: No
Number of Sampled Component Spectra: 1
Spectrometers: USB2+H05261
Integration Time (usec): 10000 (USB2+H05261)
Spectra Averaged: 1 (USB2+H05261)
Boxcar Smoothing: 0 (USB2+H05261)
Correct for Electrical Dark: No (USB2+H05261)
Strobe/Lamp Enabled: No (USB2+H05261)
Correct for Detector Non-linearity: No (USB2+H05261)
Correct for Stray Light: No (USB2+H05261)
Number of Pixels in Processed Spectrum: 2048
>>>>>Begin Processed Spectral Data<<<<<
365.73	46.81
365.92	46.81
366.12	46.81
366.32	0.00
366.52	0.00
366.72	0.00
366.91	0.00
367.11	0.00
367.31	0.00
367.51	0.00
367.70	0.00
367.90	0.00
368.10	0.00
368.30	0.00
368.49	0.00
368.69	0.00
368.89	0.00
369.09	0.00
369.28	0.00
369.48	0.00
369.68	0.00
369.87	0.00
370.07	0.00
370.27	0.00
370.47	11.70
370.66	0.00
370.86	0.00
371.06	0.00
371.25	0.00
371.45	0.00
371.65	21.06
371.84	0.00
372.04	0.00
372.24	0.00
372.44	0.00
372.63	0.00
372.83	7.02
373.03	7.02
373.22	128.73
373.42	39.79
373.62	107.66
373.81	39.79
374.01	18.72
374.21	72.56
374.40	74.90
374.60	79.58
374.79	70.22
374.99	9.36
375.19	65.54
375.38	0.00
375.58	63.19
375.78	35.11
375.97	0.00
376.17	70.22
376.37	91.28
376.56	98.30
376.76	0.00
376.95	16.38
377.15	21.06
377.35	0.00
377.54	37.45
377.74	7.02
377.93	0.00
378.13	58.51
378.33	0.00
378.52	0.00
378.72	0.00
378.91	65.54
379.11	0.00
379.31	0.00
379.50	53.83
379.70	0.00
379.89	0.00
380.09	0.00
380.28	23.41
380.48	44.47
380.68	23.41
380.87	16.38
381.07	0.00
381.26	42.13
381.46	77.24
381.65	0.00
381.85	79.58
382.04	30.43
382.24	0.00
382.43	0.00
382.63	70.22
382.83	16.38
383.02	44.47
383.22	14.04
383.41	0.00
383.61	0.00
383.80	0.00
384.00	0.00
384.19	67.88
384.39	79.58
384.58	30.43
384.78	16.38
384.97	53.83
385.17	9.36
385.36	0.00
385.56	0.00
385.75	0.00
385.95	9.36
386.14	39.79
386.34	23.41
386.53	0.00
386.72	16.38
386.92	56.17
387.11	51.49
387.31	0.00
387.50	37.45
387.70	11.70
387.89	21.06
388.09	51.49
388.28	4.68
388.48	0.00
388.67	0.00
388.86	14.04
389.06	16.38
389.25	63.19
389.45	25.75
389.64	77.24
389.84	0.00
390.03	0.00
390.22	14.04
390.42	0.00
390.61	58.51
390.81	0.00
391.00	14.04
391.19	56.17
391.39	21.06
391.58	35.11
391.78	46.81
391.97	67.88
392.16	0.00
392.36	28.09
392.55	18.72
392.75	58.51
392.94	46.81
393.13	23.41
393.33	0.00
393.52	0.00
393.71	49.15
393.91	14.04
394.10	25.75
394.29	14.04
394.49	32.77
394.68	72.56
394.88	30.43
395.07	2.34
395.26	14.04
395.46	0.00
395.65	21.06
395.84	28.09
396.04	65.54
396.23	46.81
396.42	14.04
396.62	0.00
396.81	4.68
397.00	0.00
397.19	25.75
397.39	0.00
397.58	0.00
397.77	0.00
397.97	32.77
398.16	93.62
398.35	9.36
398.55	0.00
398.74	0.00
398.93	0.00
399.12	21.06
399.32	0.00
399.51	42.13
399.70	60.85
399.90	0.00
400.09	56.17
400.28	0.00
400.47	14.04
400.67	46.81
400.86	28.09
401.05	0.00
401.24	63.19
401.44	95.96
401.63	39.79
401.82	0.00
402.01	0.00
402.21	0.00
402.40	0.00
402.59	110.01
402.78	16.38
402.97	37.45
403.17	60.85
403.36	0.00
403.55	70.22
403.74	37.45
403.93	7.02
404.13	0.00
404.32	2.34
404.51	0.00
404.70	49.15
404.89	0.00
405.09	65.54
405.28	44.47
405.47	28.09
405.66	0.00
405.85	25.75
406.05	77.24
406.24	74.90
406.43	44.47
406.62	39.79
406.81	65.54
407.00	25.75
407.20	0.00
407.39	23.41
407.58	49.15
407.77	0.00
407.96	53.83
408.15	32.77
408.34	70.22
408.54	39.79
408.73	18.72
408.92	0.00
409.11	51.49
409.30	4.68
409.49	28.09
409.68	21.06
409.87	39.79
410.07	21.06
410.26	49.15
410.45	32.77
410.64	53.83
410.83	28.09
411.02	37.45
411.21	49.15
411.40	0.00
411.59	70.22
411.78	0.00
411.98	0.00
412.17	25.75
412.36	49.15
412.55	0.00
412.74	18.72
412.93	35.11
413.12	16.38
413.31	4.68
413.50	79.58
413.69	131.07
413.88	0.00
414.07	28.09
414.26	84.26
414.45	0.00
414.64	25.75
414.83	65.54
415.02	72.56
415.22	11.70
415.41	86.60
415.60	44.47
415.79	39.79
415.98	56.17
416.17	65.54
416.36	46.81
416.55	18.72
416.74	74.90
416.93	0.00
417.12	79.58
417.31	58.51
417.50	0.00
417.69	81.92
417.88	25.75
418.07	70.22
418.26	0.00
418.45	23.41
418.64	28.09
418.83	21.06
419.02	65.54
419.21	2.34
419.39	21.06
419.58	110.01
419.77	23.41
419.96	79.58
420.15	86.60
420.34	105.32
420.53	18.72
420.72	18.72
420.91	56.17
421.10	39.79
421.29	11.70
421.48	0.00
421.67	32.77
421.86	9.36
422.05	46.81
422.24	11.70
422.43	79.58
422.61	0.00
422.80	28.09
422.99	72.56
423.18	23.41
423.37	72.56
423.56	56.17
423.75	23.41
423.94	35.11
424.13	42.13
424.32	65.54
424.50	16.38
424.69	98.30
424.88	11.70
425.07	4.68
425.26	35.11
425.45	16.38
425.64	25.75
425.83	53.83
426.01	117.03
426.20	53.83
426.39	7.02
426.58	58.51
426.77	9.36
426.96	44.47
427.15	91.28
427.33	4.68
427.52	16.38
427.71	140.43
427.90	39.79
428.09	21.06
428.28	77.24
428.46	102.98
428.65	9.36
428.84	58.51
429.03	58.51
429.22	35.11
429.40	95.96
429.59	105.32
429.78	98.30
429.97	0.00
430.16	53.83
430.34	0.00
430.53	51.49
430.72	44.47
430.91	138.09
431.10	25.75
431.28	110.01
431.47	0.00
431.66	49.15
431.85	9.36
432.03	23.41
432.22	95.96
432.41	72.56
432.60	0.00
432.79	53.83
432.97	86.60
433.16	28.09
433.35	70.22
433.54	51.49
433.72	37.45
433.91	70.22
434.10	0.00
434.28	32.77
434.47	0.00
434.66	51.49
434.85	100.64
435.03	23.41
435.22	117.03
435.41	0.00
435.59	84.26
435.78	30.43
435.97	145.11
436.16	53.83
436.34	0.00
436.53	51.49
436.72	37.45
436.90	23.41
437.09	74.90
437.28	23.41
437.46	81.92
437.65	2.34
437.84	32.77
438.02	32.77
438.21	44.47
438.40	121.71
438.58	46.81
438.77	30.43
438.96	32.77
439.14	25.75
439.33	60.85
439.52	7.02
439.70	28.09
439.89	67.88
440.08	107.66
440.26	49.15
440.45	0.00
440.63	95.96
440.82	37.45
441.01	63.19
441.19	21.06
441.38	91.28
441.57	28.09
441.75	32.77
441.94	81.92
442.12	58.51
442.31	39.79
442.50	32.77
442.68	56.17
442.87	77.24
443.05	86.60
443.24	86.60
443.43	30.43
443.61	95.96
443.80	86.60
443.98	46.81
444.17	51.49
444.35	60.85
444.54	84.26
444.73	0.00
444.91	23.41
445.10	42.13
445.28	81.92
445.47	67.88
445.65	77.24
445.84	51.49
446.02	49.15
446.21	28.09
446.39	67.88
446.58	18.72
446.77	14.04
446.95	126.39
447.14	32.77
447.32	65.54
447.51	161.50
447.69	0.00
447.88	60.85
448.06	39.79
448.25	63.19
448.43	93.62
448.62	44.47
448.80	72.56
448.99	30.43
449.17	30.43
449.36	25.75
449.54	91.28
449.73	56.17
449.91	18.72
450.10	70.22
450.28	88.94
450.46	30.43
450.65	9.36
450.83	65.54
451.02	11.70
451.20	0.00
451.39	77.24
451.57	110.01
451.76	46.81
451.94	28.09
452.13	74.90
452.31	131.07
452.49	98.30
452.68	42.13
452.86	21.06
453.05	86.60
453.23	9.36
453.42	0.00
453.60	65.54
453.78	49.15
453.97	98.30
454.15	51.49
454.34	77.24
454.52	9.36
454.70	42.13
454.89	72.56
455.07	67.88
455.26	77.24
455.44	91.28
455.62	53.83
455.81	60.85
455.99	77.24
456.17	84.26
456.36	23.41
456.54	39.79
456.73	77.24
456.91	67.88
457.09	0.00
457.28	44.47
457.46	0.00
457.64	77.24
457.83	67.88
458.01	56.17
458.19	53.83
458.38	4.68
458.56	98.30
458.74	70.22
458.93	133.41
459.11	51.49
459.29	63.19
459.48	114.69
459.66	93.62
459.84	21.06
460.03	28.09
460.21	70.22
460.39	42.13
460.57	9.36
460.76	0.00
460.94	0.00
461.12	70.22
461.31	93.62
461.49	51.49
461.67	98.30
461.85	35.11
462.04	77.24
462.22	145.11
462.40	67.88
462.59	77.24
462.77	131.07
462.95	156.82
463.13	63.19
463.32	53.83
463.50	53.83
463.68	56.17
463.86	51.49
464.05	63.19
464.23	88.94
464.41	46.81
464.59	107.66
464.78	11.70
464.96	0.00
465.14	60.85
465.32	28.09
465.50	21.06
465.69	0.00
465.87	93.62
466.05	30.43
466.23	51.49
466.41	100.64
466.60	128.73
466.78	65.54
466.96	72.56
467.14	0.00
467.32	4.68
467.51	112.35
467.69	11.70
467.87	0.00
468.05	0.00
468.23	100.64
468.41	67.88
468.60	100.64
468.78	86.60
468.96	25.75
469.14	7.02
469.32	32.77
469.50	119.37
469.69	23.41
469.87	0.00
470.05	53.83
470.23	58.51
470.41	81.92
470.59	58.51
470.77	88.94
470.95	74.90
471.14	79.58
471.32	46.81
471.50	105.32
471.68	44.47
471.86	70.22
472.04	32.77
472.22	23.41
472.40	49.15
472.58	63.19
472.77	53.83
472.95	65.54
473.13	44.47
473.31	70.22
473.49	0.00
473.67	11.70
473.85	4.68
474.03	39.79
474.21	110.01
474.39	25.75
474.57	65.54
474.75	93.62
474.93	39.79
475.12	32.77
475.30	0.00
475.48	63.19
475.66	11.70
475.84	77.24
476.02	58.51
476.20	58.51
476.38	35.11
476.56	0.00
476.74	53.83
476.92	72.56
477.10	56.17
477.28	14.04
477.46	42.13
477.64	126.39
477.82	67.88
478.00	60.85
478.18	7.02
478.36	79.58
478.54	37.45
478.72	126.39
478.90	84.26
479.08	30.43
479.26	65.54
479.44	46.81
479.62	28.09
479.80	138.09
479.98	117.03
480.16	51.49
480.34	18.72
480.52	112.35
480.70	86.60
480.88	147.45
481.06	0.00
481.24	79.58
481.41	25.75
481.59	44.47
481.77	37.45
481.95	107.66
482.13	0.00
482.31	112.35
482.49	51.49
482.67	53.83
482.85	0.00
483.03	44.47
483.21	65.54
483.39	142.77
483.57	37.45
483.74	30.43
483.92	25.75
484.10	30.43
484.28	107.66
484.46	98.30
484.64	128.73
484.82	21.06
485.00	67.88
485.18	72.56
485.35	35.11
485.53	117.03
485.71	0.00
485.89	77.24
486.07	0.00
486.25	30.43
486.43	53.83
486.61	60.85
486.78	86.60
486.96	30.43
487.14	93.62
487.32	23.41
487.50	117.03
487.68	16.38
487.85	119.37
488.03	135.75
488.21	163.84
488.39	117.03
488.57	84.26
488.75	63.19
488.92	168.52
489.10	63.19
489.28	46.81
489.46	58.51
489.64	74.90
489.81	70.22
489.99	95.96
490.17	124.05
490.35	77.24
490.53	42.13
490.70	79.58
490.88	112.35
491.06	88.94
491.24	65.54
491.41	102.98
491.59	95.96
491.77	70.22
491.95	42.13
492.13	98.30
492.30	37.45
492.48	51.49
492.66	58.51
492.84	30.43
493.01	9.36
493.19	88.94
493.37	84.26
493.54	63.19
493.72	63.19
493.90	65.54
494.08	84.26
494.25	91.28
494.43	88.94
494.61	88.94
494.79	53.83
494.96	79.58
495.14	121.71
495.32	86.60
495.49	35.11
495.67	21.06
495.85	21.06
496.02	72.56
496.20	14.04
496.38	107.66
496.55	56.17
496.73	142.77
496.91	0.00
497.09	88.94
497.26	70.22
497.44	98.30
497.62	32.77
497.79	86.60
497.97	58.51
498.14	0.00
498.32	140.43
498.50	65.54
498.67	126.39
498.85	91.28
499.03	105.32
499.20	128.73
499.38	98.30
499.56	46.81
499.73	42.13
499.91	63.19
500.08	42.13
500.26	138.09
500.44	44.47
500.61	65.54
500.79	70.22
500.97	79.58
501.14	32.77
501.32	42.13
501.49	98.30
501.67	74.90
501.84	35.11
502.02	58.51
502.20	95.96
502.37	30.43
502.55	65.54
502.72	14.04
502.90	63.19
503.07	72.56
503.25	117.03
503.43	100.64
503.60	112.35
503.78	100.64
503.95	25.75
504.13	0.00
504.30	72.56
504.48	14.04
504.65	105.32
504.83	95.96
505.01	117.03
505.18	100.64
505.36	154.48
505.53	138.09
505.71	114.69
505.88	147.45
506.06	39.79
506.23	74.90
506.41	100.64
506.58	117.03
506.76	110.01
506.93	60.85
507.11	23.41
507.28	35.11
507.46	79.58
507.63	161.50
507.81	138.09
507.98	110.01
508.16	88.94
508.33	145.11
508.50	110.01
508.68	138.09
508.85	77.24
509.03	142.77
509.20	93.62
509.38	70.22
509.55	98.30
509.73	86.60
509.90	56.17
510.08	37.45
510.25	16.38
510.42	56.17
510.60	60.85
510.77	93.62
510.95	46.81
511.12	63.19
511.30	0.00
511.47	124.05
511.64	156.82
511.82	16.38
511.99	21.06
512.17	53.83
512.34	23.41
512.51	79.58
512.69	81.92
512.86	102.98
513.04	30.43
513.21	105.32
513.38	11.70
513.56	74.90
513.73	163.84
513.90	56.17
514.08	95.96
514.25	70.22
514.43	44.47
514.60	98.30
514.77	114.69
514.95	100.64
515.12	77.24
515.29	117.03
515.47	112.35
515.64	79.58
515.81	25.75
515.99	95.96
516.16	42.13
516.33	16.38
516.51	100.64
516.68	14.04
516.85	0.00
517.03	112.35
517.20	39.79
517.37	142.77
517.54	124.05
517.72	7.02
517.89	35.11
518.06	53.83
518.24	60.85
518.41	128.73
518.58	135.75
518.75	51.49
518.93	58.51
519.10	84.26
519.27	107.66
519.45	81.92
519.62	124.05
519.79	67.88
519.96	65.54
520.14	86.60
520.31	114.69
520.48	142.77
520.65	35.11
520.83	77.24
521.00	121.71
521.17	100.64
521.34	16.38
521.52	63.19
521.69	72.56
521.86	44.47
522.03	46.81
522.20	175.54
522.38	79.58
522.55	135.75
522.72	28.09
522.89	131.07
523.07	112.35
523.24	91.28
523.41	0.00
523.58	81.92
523.75	91.28
523.92	51.49
524.10	93.62
524.27	81.92
524.44	9.36
524.61	112.35
524.78	114.69
524.96	42.13
525.13	110.01
525.30	67.88
525.47	100.64
525.64	86.60
525.81	58.51
525.98	23.41
526.16	95.96
526.33	46.81
526.50	100.64
526.67	56.17
526.84	198.95
527.01	133.41
527.18	81.92
527.36	95.96
527.53	84.26
527.70	77.24
527.87	119.37
528.04	112.35
528.21	156.82
528.38	60.85
528.55	119.37
528.72	133.41
528.89	119.37
529.07	102.98
529.24	117.03
529.41	58.51
529.58	35.11
529.75	159.16
529.92	18.72
530.09	81.92
530.26	32.77
530.43	42.13
530.60	39.79
530.77	117.03
530.94	65.54
531.11	114.69
531.28	91.28
531.46	105.32
531.63	53.83
531.80	65.54
531.97	65.54
532.14	156.82
532.31	91.28
532.48	74.90
532.65	58.51
532.82	86.60
532.99	53.83
533.16	60.85
533.33	91.28
533.50	79.58
533.67	121.71
533.84	91.28
534.01	112.35
534.18	98.30
534.35	166.18
534.52	105.32
534.69	58.51
534.86	42.13
535.03	107.66
535.20	28.09
535.37	44.47
535.54	142.77
535.71	39.79
535.88	30.43
536.05	74.90
536.22	2.34
536.38	60.85
536.55	42.13
536.72	128.73
536.89	65.54
537.06	65.54
537.23	91.28
537.40	72.56
537.57	147.45
537.74	81.92
537.91	49.15
538.08	86.60
538.25	135.75
538.42	138.09
538.59	95.96
538.75	65.54
538.92	32.77
539.09	107.66
539.26	37.45
539.43	42.13
539.60	53.83
539.77	147.45
539.94	121.71
540.11	49.15
540.28	88.94
540.44	117.03
540.61	128.73
540.78	65.54
540.95	95.96
541.12	86.60
541.29	126.39
541.46	81.92
541.62	21.06
541.79	102.98
541.96	23.41
542.13	91.28
542.30	72.56
542.47	81.92
542.63	42.13
542.80	81.92
542.97	117.03
543.14	77.24
543.31	44.47
543.48	77.24
543.64	18.72
543.81	124.05
543.98	60.85
544.15	88.94
544.32	44.47
544.48	81.92
544.65	107.66
544.82	110.01
544.99	152.13
545.16	107.66
545.32	112.35
545.49	84.26
545.66	49.15
545.83	63.19
546.00	63.19
546.16	0.00
546.33	65.54
546.50	159.16
546.67	168.52
546.83	112.35
547.00	215.33
547.17	72.56
547.34	107.66
547.50	84.26
547.67	95.96
547.84	56.17
548.00	74.90
548.17	25.75
548.34	65.54
548.51	60.85
548.67	79.58
548.84	79.58
549.01	114.69
549.18	156.82
549.34	65.54
549.51	124.05
549.68	86.60
549.84	21.06
550.01	126.39
550.18	110.01
550.34	88.94
550.51	30.43
550.68	63.19
550.84	110.01
551.01	56.17
551.18	51.49
551.34	58.51
551.51	23.41
551.68	14.04
551.84	23.41
552.01	79.58
552.18	77.24
552.34	107.66
552.51	128.73
552.68	79.58
552.84	0.00
553.01	56.17
553.18	42.13
553.34	70.22
553.51	58.51
553.67	142.77
553.84	74.90
554.01	91.28
554.17	16.38
554.34	63.19
554.51	93.62
554.67	9.36
554.84	140.43
555.00	11.70
555.17	100.64
555.33	95.96
555.50	95.96
555.67	154.48
555.83	81.92
556.00	53.83
556.16	126.39
556.33	46.81
556.50	18.72
556.66	67.88
556.83	46.81
556.99	0.00
557.16	102.98
557.32	121.71
557.49	72.56
557.65	184.90
557.82	112.35
557.98	110.01
558.15	39.79
558.32	100.64
558.48	126.39
558.65	65.54
558.81	117.03
558.98	65.54
559.14	91.28
559.31	79.58
559.47	107.66
559.64	93.62
559.80	100.64
559.97	110.01
560.13	142.77
560.30	102.98
560.46	114.69
560.63	70.22
560.79	37.45
560.96	91.28
561.12	77.24
561.29	77.24
561.45	91.28
561.61	102.98
561.78	126.39
561.94	44.47
562.11	189.58
562.27	145.11
562.44	102.98
562.60	67.88
562.77	63.19
562.93	93.62
563.10	28.09
563.26	65.54
563.42	112.35
563.59	77.24
563.75	86.60
563.92	30.43
564.08	44.47
564.24	98.30
564.41	63.19
564.57	51.49
564.74	60.85
564.90	56.17
565.07	79.58
565.23	44.47
565.39	58.51
565.56	145.11
565.72	35.11
565.88	98.30
566.05	135.75
566.21	131.07
566.38	35.11
566.54	60.85
566.70	91.28
566.87	51.49
567.03	86.60
567.19	58.51
567.36	72.56
567.52	21.06
567.68	138.09
567.85	102.98
568.01	28.09
568.17	100.64
568.34	58.51
568.50	131.07
568.66	93.62
568.83	53.83
568.99	56.17
569.15	93.62
569.32	93.62
569.48	9.36
569.64	117.03
569.81	88.94
569.97	77.24
570.13	100.64
570.30	72.56
570.46	88.94
570.62	98.30
570.78	88.94
570.95	9.36
571.11	42.13
571.27	23.41
571.43	79.58
571.60	79.58
571.76	114.69
571.92	53.83
572.09	37.45
572.25	77.24
572.41	18.72
572.57	21.06
572.74	131.07
572.90	65.54
573.06	98.30
573.22	65.54
573.38	100.64
573.55	145.11
573.71	131.07
573.87	79.58
574.03	86.60
574.20	107.66
574.36	117.03
574.52	23.41
574.68	95.96
574.84	72.56
575.01	102.98
575.17	84.26
575.33	74.90
575.49	81.92
575.65	42.13
575.82	67.88
575.98	100.64
576.14	67.88
576.30	35.11
576.46	49.15
576.62	79.58
576.79	91.28
576.95	124.05
577.11	114.69
577.27	58.51
577.43	117.03
577.59	91.28
577.75	121.71
577.92	46.81
578.08	77.24
578.24	126.39
578.40	98.30
578.56	49.15
578.72	126.39
578.88	81.92
579.04	56.17
579.21	105.32
579.37	42.13
579.53	100.64
579.69	93.62
579.85	138.09
580.01	0.00
580.17	107.66
580.33	49.15
580.49	135.75
580.65	107.66
580.82	91.28
580.98	70.22
581.14	112.35
581.30	28.09
581.46	95.96
581.62	110.01
581.78	81.92
581.94	35.11
582.10	110.01
582.26	28.09
582.42	42.13
582.58	56.17
582.74	67.88
582.90	51.49
583.06	53.83
583.22	119.37
583.38	114.69
583.54	60.85
583.70	21.06
583.86	25.75
584.02	88.94
584.18	67.88
584.34	95.96
584.50	81.92
584.66	77.24
584.82	49.15
584.98	105.32
585.14	107.66
585.30	58.51
585.46	65.54
585.62	72.56
585.78	86.60
585.94	70.22
586.10	53.83
586.26	79.58
586.42	49.15
586.58	88.94
586.74	35.11
586.90	28.09
587.06	93.62
587.22	56.17
587.38	51.49
587.54	93.62
587.70	51.49
587.86	100.64
588.02	0.00
588.18	124.05
588.34	63.19
588.49	4.68
588.65	49.15
588.81	30.43
588.97	30.43
589.13	23.41
589.29	23.41
589.45	23.41
589.61	98.30
589.77	168.52
589.93	124.05
590.08	28.09
590.24	67.88
590.40	86.60
590.56	37.45
590.72	37.45
590.88	65.54
591.04	133.41
591.20	37.45
591.35	100.64
591.51	44.47
591.67	53.83
591.83	102.98
591.99	117.03
592.15	49.15
592.31	81.92
592.46	49.15
592.62	49.15
592.78	142.77
592.94	81.92
593.10	14.04
593.26	100.64
593.41	4.68
593.57	39.79
593.73	56.17
593.89	140.43
594.05	18.72
594.20	86.60
594.36	25.75
594.52	77.24
594.68	124.05
594.84	128.73
594.99	98.30
595.15	95.96
595.31	124.05
595.47	51.49
595.62	77.24
595.78	70.22
595.94	63.19
596.10	93.62
596.25	60.85
596.41	142.77
596.57	0.00
596.73	74.90
596.88	53.83
597.04	63.19
597.20	107.66
597.36	107.66
597.51	65.54
597.67	84.26
597.83	119.37
597.99	100.64
598.14	11.70
598.30	39.79
598.46	84.26
598.61	110.01
598.77	14.04
598.93	65.54
599.09	21.06
599.24	35.11
599.40	121.71
599.56	51.49
599.71	35.11
599.87	156.82
600.03	39.79
600.18	60.85
600.34	124.05
600.50	60.85
600.65	46.81
600.81	44.47
600.97	70.22
601.12	53.83
601.28	117.03
601.44	105.32
601.59	121.71
601.75	107.66
601.91	84.26
602.06	63.19
602.22	65.54
602.37	74.90
602.53	147.45
602.69	88.94
602.84	39.79
603.00	119.37
603.16	25.75
603.31	14.04
603.47	128.73
603.62	44.47
603.78	100.64
603.94	53.83
604.09	46.81
604.25	86.60
604.40	119.37
604.56	46.81
604.71	70.22
604.87	58.51
605.03	32.77
605.18	67.88
605.34	126.39
605.49	0.00
605.65	53.83
605.80	70.22
605.96	131.07
606.12	100.64
606.27	44.47
606.43	51.49
606.58	60.85
606.74	25.75
606.89	4.68
607.05	79.58
607.20	114.69
607.36	70.22
607.51	56.17
607.67	88.94
607.82	84.26
607.98	30.43
608.13	51.49
608.29	93.62
608.44	63.19
608.60	56.17
608.75	93.62
608.91	11.70
609.06	95.96
609.22	74.90
609.37	105.32
609.53	110.01
609.68	67.88
609.84	46.81
609.99	74.90
610.15	30.43
610.30	100.64
610.46	72.56
610.61	81.92
610.76	9.36
610.92	39.79
611.07	102.98
611.23	74.90
611.38	138.09
611.54	131.07
611.69	100.64
611.84	74.90
612.00	56.17
612.15	72.56
612.31	56.17
612.46	44.47
612.62	84.26
612.77	9.36
612.92	42.13
613.08	49.15
613.23	67.88
613.39	18.72
613.54	107.66
613.69	74.90
613.85	42.13
614.00	79.58
614.15	46.81
614.31	131.07
614.46	56.17
614.62	30.43
614.77	51.49
614.92	81.92
615.08	86.60
615.23	93.62
615.38	147.45
615.54	28.09
615.69	81.92
615.84	114.69
616.00	0.00
616.15	79.58
616.30	152.13
616.46	79.58
616.61	77.24
616.76	142.77
616.92	4.68
617.07	56.17
617.22	23.41
617.37	70.22
617.53	32.77
617.68	81.92
617.83	46.81
617.99	84.26
618.14	28.09
618.29	77.24
618.45	91.28
618.60	9.36
618.75	79.58
618.90	37.45
619.06	205.97
619.21	32.77
619.36	100.64
619.51	121.71
619.67	70.22
619.82	79.58
619.97	74.90
620.12	105.32
620.28	126.39
620.43	30.43
620.58	105.32
620.73	2.34
620.89	30.43
621.04	105.32
621.19	53.83
621.34	37.45
621.49	86.60
621.65	67.88
621.80	72.56
621.95	91.28
622.10	39.79
622.25	30.43
622.41	112.35
622.56	49.15
622.71	51.49
622.86	49.15
623.01	56.17
623.16	70.22
623.32	60.85
623.47	84.26
623.62	32.77
623.77	72.56
623.92	88.94
624.07	23.41
624.23	11.70
624.38	0.00
624.53	72.56
624.68	88.94
624.83	98.30
624.98	102.98
625.13	53.83
625.29	11.70
625.44	39.79
625.59	44.47
625.74	138.09
625.89	112.35
626.04	23.41
626.19	65.54
626.34	18.72
626.49	18.72
626.65	44.47
626.80	79.58
626.95	91.28
627.10	42.13
627.25	0.00
627.40	107.66
627.55	58.51
627.70	18.72
627.85	4.68
628.00	16.38
628.15	98.30
628.30	0.00
628.45	0.00
628.60	84.26
628.76	49.15
628.91	67.88
629.06	98.30
629.21	107.66
629.36	11.70
629.51	117.03
629.66	110.01
629.81	63.19
629.96	98.30
630.11	74.90
630.26	25.75
630.41	110.01
630.56	88.94
630.71	51.49
630.86	72.56
631.01	128.73
631.16	74.90
631.31	39.79
631.46	98.30
631.61	70.22
631.76	121.71
631.91	53.83
632.06	114.69
632.21	46.81
632.36	58.51
632.51	7.02
632.66	88.94
632.81	39.79
632.96	14.04
633.10	100.64
633.25	65.54
633.40	74.90
633.55	35.11
633.70	25.75
633.85	107.66
634.00	84.26
634.15	0.00
634.30	58.51
634.45	60.85
634.60	74.90
634.75	42.13
634.90	91.28
635.05	72.56
635.19	0.00
635.34	91.28
635.49	0.00
635.64	21.06
635.79	0.00
635.94	74.90
636.09	53.83
636.24	56.17
636.39	28.09
636.53	42.13
636.68	23.41
636.83	32.77
636.98	67.88
637.13	65.54
637.28	65.54
637.43	9.36
637.57	35.11
637.72	63.19
637.87	93.62
638.02	70.22
638.17	42.13
638.32	63.19
638.46	56.17
638.61	91.28
638.76	88.94
638.91	147.45
639.06	25.75
639.20	84.26
639.35	98.30
639.50	14.04
639.65	74.90
639.80	14.04
639.94	117.03
640.09	56.17
640.24	128.73
640.39	98.30
640.54	63.19
640.68	114.69
640.83	51.49
640.98	9.36
641.13	32.77
641.27	84.26
641.42	35.11
641.57	16.38
641.72	37.45
641.86	9.36
642.01	30.43
642.16	21.06
642.31	67.88
642.45	25.75
642.60	16.38
642.75	42.13
642.90	18.72
643.04	102.98
643.19	91.28
643.34	84.26
643.48	51.49
643.63	77.24
643.78	91.28
643.93	32.77
644.07	53.83
644.22	88.94
644.37	74.90
644.51	70.22
644.66	37.45
644.81	84.26
644.95	35.11
645.10	39.79
645.25	67.88
645.39	65.54
645.54	25.75
645.69	100.64
645.83	53.83
645.98	51.49
646.13	60.85
646.27	32.77
646.42	49.15
646.57	42.13
646.71	0.00
646.86	46.81
647.00	9.36
647.15	4.68
647.30	9.36
647.44	70.22
647.59	35.11
647.74	128.73
647.88	44.47
648.03	4.68
648.17	35.11
648.32	0.00
648.47	44.47
648.61	56.17
648.76	37.45
648.90	23.41
649.05	128.73
649.20	74.90
649.34	72.56
649.49	21.06
649.63	93.62
649.78	70.22
649.92	128.73
650.07	74.90
650.21	63.19
650.36	32.77
650.51	35.11
650.65	46.81
650.80	28.09
650.94	2.34
651.09	21.06
651.23	46.81
651.38	0.00
651.52	77.24
651.67	58.51
651.81	77.24
651.96	126.39
652.10	117.03
652.25	49.15
652.39	21.06
652.54	23.41
652.68	114.69
652.83	28.09
652.97	58.51
653.12	51.49
653.26	49.15
653.41	77.24
653.55	28.09
653.70	25.75
653.84	0.00
653.99	53.83
654.13	39.79
654.27	53.83
654.42	124.05
654.56	35.11
654.71	60.85
654.85	2.34
655.00	79.58
655.14	37.45
655.29	39.79
655.43	14.04
655.57	100.64
655.72	16.38
655.86	16.38
656.01	100.64
656.15	0.00
656.30	133.41
656.44	18.72
656.58	63.19
656.73	72.56
656.87	84.26
657.01	81.92
657.16	56.17
657.30	98.30
657.45	56.17
657.59	53.83
657.73	126.39
657.88	18.72
658.02	16.38
658.16	44.47
658.31	11.70
658.45	142.77
658.60	11.70
658.74	28.09
658.88	93.62
659.03	32.77
659.17	2.34
659.31	39.79
659.46	39.79
659.60	51.49
659.74	32.77
659.89	18.72
660.03	95.96
660.17	100.64
660.32	107.66
660.46	117.03
660.60	63.19
660.74	65.54
660.89	0.00
661.03	72.56
661.17	119.37
661.32	77.24
661.46	74.90
661.60	49.15
661.74	9.36
661.89	84.26
662.03	91.28
662.17	74.90
662.31	44.47
662.46	32.77
662.60	39.79
662.74	9.36
662.88	25.75
663.03	37.45
663.17	72.56
663.31	72.56
663.45	21.06
663.60	49.15
663.74	46.81
663.88	133.41
664.02	44.47
664.17	0.00
664.31	0.00
664.45	60.85
664.59	53.83
664.73	21.06
664.88	18.72
665.02	25.75
665.16	30.43
665.30	63.19
665.44	7.02
665.59	18.72
665.73	91.28
665.87	112.35
666.01	49.15
666.15	102.98
666.29	79.58
666.44	18.72
666.58	84.26
666.72	4.68
666.86	21.06
667.00	95.96
667.14	16.38
667.28	63.19
667.43	18.72
667.57	63.19
667.71	46.81
667.85	21.06
667.99	81.92
668.13	112.35
668.27	77.24
668.41	39.79
668.56	4.68
668.70	53.83
668.84	42.13
668.98	37.45
669.12	32.77
669.26	46.81
669.40	65.54
669.54	84.26
669.68	42.13
669.82	16.38
669.96	23.41
670.10	25.75
670.25	51.49
670.39	9.36
670.53	0.00
670.67	67.88
670.81	39.79
670.95	32.77
671.09	84.26
671.23	14.04
671.37	25.75
671.51	37.45
671.65	67.88
671.79	135.75
671.93	37.45
672.07	74.90
672.21	53.83
672.35	0.00
672.49	32.77
672.63	30.43
672.77	49.15
672.91	35.11
673.05	30.43
673.19	86.60
673.33	0.00
673.47	37.45
673.61	74.90
673.75	35.11
673.89	0.00
674.03	25.75
674.17	28.09
674.31	60.85
674.45	65.54
674.59	60.85
674.73	91.28
674.87	18.72
675.01	14.04
675.15	28.09
675.29	30.43
675.43	0.00
675.56	32.77
675.70	46.81
675.84	30.43
675.98	0.00
676.12	65.54
676.26	9.36
676.40	37.45
676.54	65.54
676.68	37.45
676.82	32.77
676.96	44.47
677.10	18.72
677.23	0.00
677.37	86.60
677.51	49.15
677.65	42.13
677.79	51.49
677.93	9.36
678.07	53.83
678.21	0.00
678.34	25.75
678.48	86.60
678.62	21.06
678.76	70.22
678.90	79.58
679.04	0.00
679.18	46.81
679.31	56.17
679.45	21.06
679.59	28.09
679.73	44.47
679.87	0.00
680.00	23.41
680.14	42.13
680.28	100.64
680.42	39.79
680.56	51.49
680.70	39.79
680.83	56.17
680.97	72.56
681.11	0.00
681.25	79.58
681.39	67.88
681.52	102.98
681.66	7.02
681.80	98.30
681.94	114.69
682.07	65.54
682.21	0.00
682.35	107.66
682.49	86.60
682.62	79.58
682.76	84.26
682.90	35.11
683.04	30.43
683.17	0.00
683.31	0.00
683.45	53.83
683.59	63.19
683.72	9.36
683.86	65.54
684.00	42.13
684.13	0.00
684.27	9.36
684.41	56.17
684.55	0.00
684.68	0.00
684.82	60.85
684.96	72.56
685.09	14.04
685.23	7.02
685.37	0.00
685.50	49.15
685.64	37.45
685.78	28.09
685.91	88.94
686.05	9.36
686.19	93.62
686.32	18.72
686.46	86.60
686.60	0.00
686.73	28.09
686.87	44.47
687.01	4.68
687.14	46.81
687.28	0.00
687.42	0.00
687.55	44.47
687.69	32.77
687.82	0.00
687.96	102.98
688.10	0.00
688.23	63.19
688.37	46.81
688.50	79.58
688.64	9.36
688.78	0.00
688.91	0.00
689.05	35.11
689.18	81.92
689.32	0.00
689.46	0.00
689.59	74.90
689.73	37.45
689.86	0.00
690.00	0.00
690.13	100.64
690.27	51.49
690.41	58.51
690.54	81.92
690.68	46.81
690.81	0.00
690.95	79.58
691.08	49.15
691.22	39.79
691.35	0.00
691.49	63.19
691.62	67.88
691.76	49.15
691.89	67.88
692.03	79.58
692.16	91.28
692.30	2.34
692.43	138.09
692.57	0.00
692.70	21.06
692.84	91.28
692.97	51.49
693.11	35.11
693.24	51.49
693.38	56.17
693.51	88.94
693.65	74.90
693.78	4.68
693.92	65.54
694.05	0.00
694.19	65.54
694.32	0.00
694.45	51.49
694.59	98.30
694.72	28.09
694.86	81.92
694.99	11.70
695.13	42.13
695.26	21.06
695.39	63.19
695.53	79.58
695.66	95.96
695.80	58.51
695.93	42.13
696.07	128.73
696.20	51.49
696.33	56.17
696.47	16.38
696.60	9.36
696.73	84.26
696.87	39.79
697.00	42.13
697.14	0.00
697.27	49.15
697.40	23.41
697.54	35.11
697.67	23.41
697.80	0.00
697.94	0.00
698.07	32.77
698.21	102.98
698.34	74.90
698.47	35.11
698.61	60.85
698.74	23.41
698.87	58.51
699.01	0.00
699.14	70.22
699.27	4.68
699.40	93.62
699.54	30.43
699.67	84.26
699.80	7.02
699.94	65.54
700.07	67.88
700.20	49.15
700.34	37.45
700.47	88.94
700.60	53.83
700.73	30.43
700.87	21.06
701.00	110.01
701.13	98.30
701.26	2.34
701.40	2.34
701.53	25.75
701.66	42.13
701.79	2.34
701.93	21.06
702.06	65.54
702.19	79.58
702.32	44.47
702.46	46.81
702.59	28.09
702.72	30.43
702.85	86.60
702.99	70.22
703.12	72.56
703.25	0.00
703.38	4.68
703.51	25.75
703.65	14.04
703.78	2.34
703.91	39.79
704.04	91.28
704.17	37.45
704.31	81.92
704.44	72.56
704.57	37.45
704.70	42.13
704.83	18.72
704.96	14.04
705.10	32.77
705.23	11.70
>>>>>End Processed Spectral Data<<<<<
