SpectraSuite Data File
++++++++++++++++++++++++++++++++++++
Date: Fri Oct 04 12:13:33 GMT-05:00 2013
User: price-jones
Dark Spectrum Present: No
Reference Spectrum Present: No
Number of Sampled Component Spectra: 1
Spectrometers: USB2+H05261
Integration Time (usec): 10000 (USB2+H05261)
Spectra Averaged: 1 (USB2+H05261)
Boxcar Smoothing: 0 (USB2+H05261)
Correct for Electrical Dark: No (USB2+H05261)
Strobe/Lamp Enabled: No (USB2+H05261)
Correct for Detector Non-linearity: No (USB2+H05261)
Correct for Stray Light: No (USB2+H05261)
Number of Pixels in Processed Spectrum: 2048
>>>>>Begin Processed Spectral Data<<<<<
365.73	21.06
365.92	21.06
366.12	21.06
366.32	0.00
366.52	0.00
366.72	0.00
366.91	0.00
367.11	0.00
367.31	0.00
367.51	0.00
367.70	0.00
367.90	0.00
368.10	0.00
368.30	0.00
368.49	0.00
368.69	0.00
368.89	0.00
369.09	0.00
369.28	0.00
369.48	0.00
369.68	0.00
369.87	0.00
370.07	0.00
370.27	0.00
370.47	0.00
370.66	0.00
370.86	2.34
371.06	0.00
371.25	0.00
371.45	0.00
371.65	0.00
371.84	0.00
372.04	18.72
372.24	51.49
372.44	0.00
372.63	0.00
372.83	28.09
373.03	44.47
373.22	25.75
373.42	0.00
373.62	42.13
373.81	67.88
374.01	65.54
374.21	0.00
374.40	42.13
374.60	18.72
374.79	35.11
374.99	117.03
375.19	30.43
375.38	49.15
375.58	77.24
375.78	88.94
375.97	49.15
376.17	35.11
376.37	4.68
376.56	67.88
376.76	72.56
376.95	44.47
377.15	0.00
377.35	58.51
377.54	0.00
377.74	0.00
377.93	16.38
378.13	0.00
378.33	0.00
378.52	14.04
378.72	11.70
378.91	46.81
379.11	0.00
379.31	37.45
379.50	0.00
379.70	63.19
379.89	0.00
380.09	0.00
380.28	44.47
380.48	28.09
380.68	84.26
380.87	32.77
381.07	30.43
381.26	28.09
381.46	42.13
381.65	72.56
381.85	21.06
382.04	49.15
382.24	79.58
382.43	16.38
382.63	51.49
382.83	35.11
383.02	39.79
383.22	51.49
383.41	46.81
383.61	18.72
383.80	21.06
384.00	0.00
384.19	84.26
384.39	56.17
384.58	0.00
384.78	0.00
384.97	0.00
385.17	0.00
385.36	0.00
385.56	30.43
385.75	0.00
385.95	25.75
386.14	91.28
386.34	23.41
386.53	91.28
386.72	37.45
386.92	30.43
387.11	23.41
387.31	39.79
387.50	53.83
387.70	58.51
387.89	35.11
388.09	28.09
388.28	0.00
388.48	60.85
388.67	35.11
388.86	9.36
389.06	0.00
389.25	0.00
389.45	0.00
389.64	30.43
389.84	91.28
390.03	39.79
390.22	0.00
390.42	0.00
390.61	49.15
390.81	42.13
391.00	2.34
391.19	7.02
391.39	37.45
391.58	30.43
391.78	37.45
391.97	21.06
392.16	0.00
392.36	44.47
392.55	39.79
392.75	0.00
392.94	21.06
393.13	0.00
393.33	0.00
393.52	0.00
393.71	0.00
393.91	30.43
394.10	44.47
394.29	56.17
394.49	18.72
394.68	0.00
394.88	56.17
395.07	0.00
395.26	23.41
395.46	53.83
395.65	14.04
395.84	16.38
396.04	23.41
396.23	32.77
396.42	9.36
396.62	18.72
396.81	14.04
397.00	23.41
397.19	72.56
397.39	39.79
397.58	70.22
397.77	7.02
397.97	74.90
398.16	9.36
398.35	0.00
398.55	4.68
398.74	21.06
398.93	7.02
399.12	74.90
399.32	72.56
399.51	32.77
399.70	7.02
399.90	56.17
400.09	93.62
400.28	23.41
400.47	0.00
400.67	51.49
400.86	67.88
401.05	0.00
401.24	46.81
401.44	0.00
401.63	7.02
401.82	60.85
402.01	0.00
402.21	23.41
402.40	0.00
402.59	0.00
402.78	11.70
402.97	0.00
403.17	72.56
403.36	0.00
403.55	0.00
403.74	16.38
403.93	16.38
404.13	0.00
404.32	39.79
404.51	46.81
404.70	0.00
404.89	77.24
405.09	67.88
405.28	25.75
405.47	0.00
405.66	0.00
405.85	9.36
406.05	0.00
406.24	53.83
406.43	39.79
406.62	23.41
406.81	107.66
407.00	100.64
407.20	0.00
407.39	56.17
407.58	56.17
407.77	0.00
407.96	79.58
408.15	67.88
408.34	88.94
408.54	21.06
408.73	0.00
408.92	11.70
409.11	0.00
409.30	14.04
409.49	30.43
409.68	9.36
409.87	65.54
410.07	30.43
410.26	91.28
410.45	0.00
410.64	9.36
410.83	58.51
411.02	0.00
411.21	0.00
411.40	39.79
411.59	44.47
411.78	21.06
411.98	67.88
412.17	30.43
412.36	30.43
412.55	0.00
412.74	53.83
412.93	0.00
413.12	42.13
413.31	51.49
413.50	21.06
413.69	53.83
413.88	46.81
414.07	44.47
414.26	37.45
414.45	0.00
414.64	25.75
414.83	35.11
415.02	32.77
415.22	63.19
415.41	25.75
415.60	0.00
415.79	53.83
415.98	0.00
416.17	49.15
416.36	0.00
416.55	30.43
416.74	4.68
416.93	0.00
417.12	11.70
417.31	0.00
417.50	11.70
417.69	0.00
417.88	25.75
418.07	60.85
418.26	0.00
418.45	60.85
418.64	126.39
418.83	42.13
419.02	0.00
419.21	77.24
419.39	21.06
419.58	0.00
419.77	49.15
419.96	42.13
420.15	77.24
420.34	107.66
420.53	93.62
420.72	53.83
420.91	58.51
421.10	0.00
421.29	23.41
421.48	0.00
421.67	39.79
421.86	9.36
422.05	0.00
422.24	32.77
422.43	25.75
422.61	0.00
422.80	93.62
422.99	21.06
423.18	18.72
423.37	51.49
423.56	86.60
423.75	58.51
423.94	42.13
424.13	42.13
424.32	70.22
424.50	114.69
424.69	58.51
424.88	63.19
425.07	32.77
425.26	32.77
425.45	23.41
425.64	65.54
425.83	46.81
426.01	91.28
426.20	42.13
426.39	42.13
426.58	63.19
426.77	102.98
426.96	11.70
427.15	23.41
427.33	44.47
427.52	77.24
427.71	46.81
427.90	35.11
428.09	35.11
428.28	18.72
428.46	0.00
428.65	0.00
428.84	14.04
429.03	46.81
429.22	35.11
429.40	53.83
429.59	51.49
429.78	0.00
429.97	53.83
430.16	100.64
430.34	0.00
430.53	74.90
430.72	0.00
430.91	0.00
431.10	44.47
431.28	23.41
431.47	0.00
431.66	18.72
431.85	39.79
432.03	42.13
432.22	72.56
432.41	65.54
432.60	93.62
432.79	63.19
432.97	11.70
433.16	0.00
433.35	23.41
433.54	0.00
433.72	0.00
433.91	39.79
434.10	79.58
434.28	35.11
434.47	0.00
434.66	21.06
434.85	81.92
435.03	46.81
435.22	16.38
435.41	44.47
435.59	25.75
435.78	51.49
435.97	11.70
436.16	16.38
436.34	65.54
436.53	35.11
436.72	65.54
436.90	37.45
437.09	100.64
437.28	0.00
437.46	60.85
437.65	0.00
437.84	28.09
438.02	0.00
438.21	14.04
438.40	65.54
438.58	0.00
438.77	18.72
438.96	72.56
439.14	63.19
439.33	56.17
439.52	28.09
439.70	35.11
439.89	0.00
440.08	58.51
440.26	2.34
440.45	112.35
440.63	0.00
440.82	11.70
441.01	25.75
441.19	56.17
441.38	30.43
441.57	18.72
441.75	44.47
441.94	112.35
442.12	53.83
442.31	44.47
442.50	11.70
442.68	107.66
442.87	0.00
443.05	35.11
443.24	21.06
443.43	117.03
443.61	110.01
443.80	95.96
443.98	23.41
444.17	0.00
444.35	51.49
444.54	18.72
444.73	16.38
444.91	2.34
445.10	60.85
445.28	0.00
445.47	0.00
445.65	11.70
445.84	49.15
446.02	39.79
446.21	65.54
446.39	16.38
446.58	49.15
446.77	2.34
446.95	30.43
447.14	60.85
447.32	39.79
447.51	0.00
447.69	0.00
447.88	42.13
448.06	49.15
448.25	53.83
448.43	32.77
448.62	16.38
448.80	74.90
448.99	65.54
449.17	91.28
449.36	23.41
449.54	56.17
449.73	70.22
449.91	0.00
450.10	51.49
450.28	60.85
450.46	49.15
450.65	65.54
450.83	25.75
451.02	119.37
451.20	98.30
451.39	0.00
451.57	95.96
451.76	56.17
451.94	35.11
452.13	16.38
452.31	11.70
452.49	42.13
452.68	56.17
452.86	121.71
453.05	37.45
453.23	35.11
453.42	49.15
453.60	7.02
453.78	0.00
453.97	88.94
454.15	9.36
454.34	42.13
454.52	2.34
454.70	35.11
454.89	21.06
455.07	14.04
455.26	0.00
455.44	84.26
455.62	25.75
455.81	0.00
455.99	79.58
456.17	0.00
456.36	0.00
456.54	11.70
456.73	35.11
456.91	35.11
457.09	0.00
457.28	9.36
457.46	84.26
457.64	74.90
457.83	23.41
458.01	110.01
458.19	28.09
458.38	0.00
458.56	63.19
458.74	16.38
458.93	0.00
459.11	28.09
459.29	11.70
459.48	88.94
459.66	2.34
459.84	110.01
460.03	4.68
460.21	0.00
460.39	30.43
460.57	42.13
460.76	0.00
460.94	44.47
461.12	51.49
461.31	0.00
461.49	44.47
461.67	0.00
461.85	0.00
462.04	63.19
462.22	72.56
462.40	42.13
462.59	23.41
462.77	37.45
462.95	84.26
463.13	39.79
463.32	65.54
463.50	0.00
463.68	67.88
463.86	7.02
464.05	124.05
464.23	0.00
464.41	100.64
464.59	28.09
464.78	0.00
464.96	25.75
465.14	16.38
465.32	100.64
465.50	18.72
465.69	56.17
465.87	70.22
466.05	18.72
466.23	65.54
466.41	28.09
466.60	0.00
466.78	0.00
466.96	30.43
467.14	23.41
467.32	63.19
467.51	105.32
467.69	74.90
467.87	60.85
468.05	49.15
468.23	58.51
468.41	88.94
468.60	4.68
468.78	58.51
468.96	39.79
469.14	0.00
469.32	9.36
469.50	51.49
469.69	49.15
469.87	49.15
470.05	70.22
470.23	46.81
470.41	23.41
470.59	4.68
470.77	18.72
470.95	74.90
471.14	86.60
471.32	0.00
471.50	46.81
471.68	53.83
471.86	70.22
472.04	32.77
472.22	37.45
472.40	23.41
472.58	84.26
472.77	42.13
472.95	81.92
473.13	81.92
473.31	0.00
473.49	4.68
473.67	74.90
473.85	44.47
474.03	53.83
474.21	95.96
474.39	28.09
474.57	58.51
474.75	0.00
474.93	39.79
475.12	21.06
475.30	0.00
475.48	28.09
475.66	0.00
475.84	53.83
476.02	39.79
476.20	0.00
476.38	72.56
476.56	0.00
476.74	79.58
476.92	51.49
477.10	23.41
477.28	23.41
477.46	23.41
477.64	51.49
477.82	14.04
478.00	142.77
478.18	39.79
478.36	63.19
478.54	32.77
478.72	58.51
478.90	30.43
479.08	16.38
479.26	25.75
479.44	28.09
479.62	51.49
479.80	46.81
479.98	25.75
480.16	4.68
480.34	72.56
480.52	42.13
480.70	51.49
480.88	18.72
481.06	0.00
481.24	0.00
481.41	14.04
481.59	93.62
481.77	39.79
481.95	46.81
482.13	23.41
482.31	91.28
482.49	37.45
482.67	65.54
482.85	7.02
483.03	107.66
483.21	44.47
483.39	37.45
483.57	42.13
483.74	72.56
483.92	42.13
484.10	2.34
484.28	42.13
484.46	91.28
484.64	39.79
484.82	28.09
485.00	42.13
485.18	86.60
485.35	0.00
485.53	56.17
485.71	14.04
485.89	67.88
486.07	53.83
486.25	0.00
486.43	21.06
486.61	30.43
486.78	70.22
486.96	4.68
487.14	4.68
487.32	0.00
487.50	63.19
487.68	0.00
487.85	0.00
488.03	81.92
488.21	58.51
488.39	65.54
488.57	51.49
488.75	0.00
488.92	2.34
489.10	72.56
489.28	16.38
489.46	74.90
489.64	51.49
489.81	35.11
489.99	25.75
490.17	63.19
490.35	63.19
490.53	42.13
490.70	105.32
490.88	95.96
491.06	30.43
491.24	53.83
491.41	93.62
491.59	93.62
491.77	79.58
491.95	30.43
492.13	0.00
492.30	37.45
492.48	44.47
492.66	23.41
492.84	0.00
493.01	67.88
493.19	0.00
493.37	21.06
493.54	0.00
493.72	32.77
493.90	11.70
494.08	67.88
494.25	58.51
494.43	88.94
494.61	58.51
494.79	0.00
494.96	0.00
495.14	91.28
495.32	32.77
495.49	84.26
495.67	4.68
495.85	53.83
496.02	39.79
496.20	91.28
496.38	44.47
496.55	81.92
496.73	0.00
496.91	102.98
497.09	100.64
497.26	42.13
497.44	58.51
497.62	37.45
497.79	18.72
497.97	44.47
498.14	0.00
498.32	37.45
498.50	42.13
498.67	21.06
498.85	67.88
499.03	88.94
499.20	2.34
499.38	44.47
499.56	37.45
499.73	44.47
499.91	14.04
500.08	23.41
500.26	37.45
500.44	53.83
500.61	16.38
500.79	18.72
500.97	51.49
501.14	46.81
501.32	21.06
501.49	56.17
501.67	0.00
501.84	72.56
502.02	0.00
502.20	70.22
502.37	112.35
502.55	98.30
502.72	25.75
502.90	56.17
503.07	18.72
503.25	16.38
503.43	58.51
503.60	51.49
503.78	0.00
503.95	42.13
504.13	0.00
504.30	0.00
504.48	86.60
504.65	105.32
504.83	32.77
505.01	72.56
505.18	49.15
505.36	51.49
505.53	56.17
505.71	23.41
505.88	65.54
506.06	56.17
506.23	35.11
506.41	58.51
506.58	95.96
506.76	25.75
506.93	18.72
507.11	0.00
507.28	58.51
507.46	63.19
507.63	25.75
507.81	46.81
507.98	2.34
508.16	0.00
508.33	105.32
508.50	0.00
508.68	46.81
508.85	0.00
509.03	100.64
509.20	2.34
509.38	11.70
509.55	74.90
509.73	0.00
509.90	0.00
510.08	9.36
510.25	32.77
510.42	32.77
510.60	25.75
510.77	44.47
510.95	37.45
511.12	58.51
511.30	25.75
511.47	56.17
511.64	72.56
511.82	74.90
511.99	56.17
512.17	51.49
512.34	4.68
512.51	42.13
512.69	9.36
512.86	72.56
513.04	7.02
513.21	86.60
513.38	53.83
513.56	35.11
513.73	0.00
513.90	30.43
514.08	121.71
514.25	16.38
514.43	39.79
514.60	70.22
514.77	49.15
514.95	95.96
515.12	131.07
515.29	0.00
515.47	42.13
515.64	81.92
515.81	51.49
515.99	23.41
516.16	91.28
516.33	88.94
516.51	0.00
516.68	16.38
516.85	25.75
517.03	16.38
517.20	0.00
517.37	49.15
517.54	37.45
517.72	112.35
517.89	63.19
518.06	67.88
518.24	53.83
518.41	0.00
518.58	128.73
518.75	74.90
518.93	14.04
519.10	25.75
519.27	23.41
519.45	30.43
519.62	100.64
519.79	112.35
519.96	23.41
520.14	100.64
520.31	88.94
520.48	51.49
520.65	65.54
520.83	16.38
521.00	74.90
521.17	53.83
521.34	0.00
521.52	67.88
521.69	53.83
521.86	86.60
522.03	18.72
522.20	0.00
522.38	32.77
522.55	63.19
522.72	23.41
522.89	98.30
523.07	51.49
523.24	16.38
523.41	23.41
523.58	16.38
523.75	32.77
523.92	44.47
524.10	51.49
524.27	51.49
524.44	0.00
524.61	63.19
524.78	18.72
524.96	18.72
525.13	79.58
525.30	0.00
525.47	14.04
525.64	100.64
525.81	25.75
525.98	2.34
526.16	42.13
526.33	86.60
526.50	25.75
526.67	51.49
526.84	70.22
527.01	88.94
527.18	72.56
527.36	35.11
527.53	35.11
527.70	49.15
527.87	138.09
528.04	4.68
528.21	9.36
528.38	39.79
528.55	32.77
528.72	32.77
528.89	25.75
529.07	46.81
529.24	25.75
529.41	49.15
529.58	16.38
529.75	9.36
529.92	18.72
530.09	32.77
530.26	0.00
530.43	0.00
530.60	16.38
530.77	93.62
530.94	23.41
531.11	67.88
531.28	0.00
531.46	65.54
531.63	0.00
531.80	49.15
531.97	67.88
532.14	147.45
532.31	53.83
532.48	51.49
532.65	25.75
532.82	74.90
532.99	65.54
533.16	93.62
533.33	42.13
533.50	0.00
533.67	70.22
533.84	70.22
534.01	39.79
534.18	0.00
534.35	63.19
534.52	16.38
534.69	74.90
534.86	60.85
535.03	4.68
535.20	0.00
535.37	49.15
535.54	147.45
535.71	56.17
535.88	46.81
536.05	63.19
536.22	35.11
536.38	30.43
536.55	23.41
536.72	74.90
536.89	60.85
537.06	74.90
537.23	23.41
537.40	79.58
537.57	0.00
537.74	44.47
537.91	0.00
538.08	53.83
538.25	0.00
538.42	65.54
538.59	124.05
538.75	67.88
538.92	39.79
539.09	74.90
539.26	0.00
539.43	35.11
539.60	93.62
539.77	51.49
539.94	107.66
540.11	39.79
540.28	121.71
540.44	32.77
540.61	28.09
540.78	56.17
540.95	2.34
541.12	39.79
541.29	44.47
541.46	0.00
541.62	91.28
541.79	42.13
541.96	60.85
542.13	95.96
542.30	2.34
542.47	42.13
542.63	14.04
542.80	63.19
542.97	65.54
543.14	65.54
543.31	0.00
543.48	51.49
543.64	0.00
543.81	18.72
543.98	91.28
544.15	2.34
544.32	30.43
544.48	4.68
544.65	98.30
544.82	35.11
544.99	18.72
545.16	58.51
545.32	128.73
545.49	37.45
545.66	86.60
545.83	0.00
546.00	51.49
546.16	4.68
546.33	9.36
546.50	39.79
546.67	2.34
546.83	23.41
547.00	21.06
547.17	0.00
547.34	88.94
547.50	95.96
547.67	91.28
547.84	7.02
548.00	46.81
548.17	84.26
548.34	81.92
548.51	74.90
548.67	93.62
548.84	46.81
549.01	51.49
549.18	128.73
549.34	0.00
549.51	72.56
549.68	84.26
549.84	44.47
550.01	14.04
550.18	14.04
550.34	0.00
550.51	25.75
550.68	42.13
550.84	79.58
551.01	49.15
551.18	56.17
551.34	74.90
551.51	9.36
551.68	58.51
551.84	72.56
552.01	39.79
552.18	0.00
552.34	32.77
552.51	46.81
552.68	0.00
552.84	14.04
553.01	60.85
553.18	105.32
553.34	14.04
553.51	51.49
553.67	42.13
553.84	30.43
554.01	95.96
554.17	105.32
554.34	4.68
554.51	28.09
554.67	58.51
554.84	49.15
555.00	11.70
555.17	32.77
555.33	44.47
555.50	77.24
555.67	79.58
555.83	11.70
556.00	63.19
556.16	51.49
556.33	37.45
556.50	74.90
556.66	35.11
556.83	95.96
556.99	49.15
557.16	58.51
557.32	30.43
557.49	0.00
557.65	88.94
557.82	100.64
557.98	100.64
558.15	0.00
558.32	63.19
558.48	0.00
558.65	51.49
558.81	11.70
558.98	0.00
559.14	37.45
559.31	32.77
559.47	25.75
559.64	18.72
559.80	32.77
559.97	28.09
560.13	51.49
560.30	30.43
560.46	14.04
560.63	81.92
560.79	0.00
560.96	95.96
561.12	98.30
561.29	0.00
561.45	58.51
561.61	35.11
561.78	124.05
561.94	44.47
562.11	98.30
562.27	72.56
562.44	18.72
562.60	42.13
562.77	42.13
562.93	70.22
563.10	140.43
563.26	0.00
563.42	102.98
563.59	60.85
563.75	65.54
563.92	70.22
564.08	65.54
564.24	0.00
564.41	53.83
564.57	0.00
564.74	30.43
564.90	25.75
565.07	126.39
565.23	84.26
565.39	49.15
565.56	53.83
565.72	81.92
565.88	53.83
566.05	53.83
566.21	44.47
566.38	60.85
566.54	42.13
566.70	119.37
566.87	51.49
567.03	0.00
567.19	58.51
567.36	9.36
567.52	0.00
567.68	51.49
567.85	60.85
568.01	70.22
568.17	7.02
568.34	49.15
568.50	142.77
568.66	16.38
568.83	11.70
568.99	0.00
569.15	84.26
569.32	63.19
569.48	93.62
569.64	65.54
569.81	28.09
569.97	23.41
570.13	44.47
570.30	14.04
570.46	25.75
570.62	32.77
570.78	37.45
570.95	28.09
571.11	7.02
571.27	0.00
571.43	0.00
571.60	53.83
571.76	23.41
571.92	0.00
572.09	95.96
572.25	9.36
572.41	86.60
572.57	42.13
572.74	46.81
572.90	16.38
573.06	56.17
573.22	124.05
573.38	70.22
573.55	35.11
573.71	56.17
573.87	42.13
574.03	46.81
574.20	91.28
574.36	46.81
574.52	46.81
574.68	0.00
574.84	35.11
575.01	0.00
575.17	42.13
575.33	11.70
575.49	35.11
575.65	65.54
575.82	72.56
575.98	28.09
576.14	60.85
576.30	42.13
576.46	37.45
576.62	37.45
576.79	0.00
576.95	18.72
577.11	58.51
577.27	37.45
577.43	53.83
577.59	37.45
577.75	58.51
577.92	84.26
578.08	70.22
578.24	86.60
578.40	9.36
578.56	32.77
578.72	30.43
578.88	0.00
579.04	65.54
579.21	46.81
579.37	100.64
579.53	25.75
579.69	42.13
579.85	65.54
580.01	0.00
580.17	74.90
580.33	0.00
580.49	23.41
580.65	65.54
580.82	32.77
580.98	44.47
581.14	39.79
581.30	25.75
581.46	49.15
581.62	37.45
581.78	0.00
581.94	58.51
582.10	74.90
582.26	44.47
582.42	0.00
582.58	30.43
582.74	77.24
582.90	23.41
583.06	35.11
583.22	58.51
583.38	70.22
583.54	0.00
583.70	46.81
583.86	51.49
584.02	53.83
584.18	51.49
584.34	95.96
584.50	4.68
584.66	21.06
584.82	53.83
584.98	0.00
585.14	0.00
585.30	28.09
585.46	91.28
585.62	42.13
585.78	84.26
585.94	81.92
586.10	46.81
586.26	37.45
586.42	0.00
586.58	0.00
586.74	30.43
586.90	14.04
587.06	58.51
587.22	88.94
587.38	72.56
587.54	63.19
587.70	44.47
587.86	56.17
588.02	28.09
588.18	58.51
588.34	53.83
588.49	74.90
588.65	30.43
588.81	0.00
588.97	11.70
589.13	0.00
589.29	18.72
589.45	51.49
589.61	42.13
589.77	112.35
589.93	39.79
590.08	16.38
590.24	23.41
590.40	14.04
590.56	11.70
590.72	0.00
590.88	0.00
591.04	30.43
591.20	25.75
591.35	0.00
591.51	7.02
591.67	0.00
591.83	46.81
591.99	0.00
592.15	49.15
592.31	16.38
592.46	4.68
592.62	37.45
592.78	32.77
592.94	49.15
593.10	0.00
593.26	0.00
593.41	25.75
593.57	74.90
593.73	25.75
593.89	2.34
594.05	51.49
594.20	37.45
594.36	32.77
594.52	21.06
594.68	81.92
594.84	4.68
594.99	4.68
595.15	2.34
595.31	65.54
595.47	72.56
595.62	42.13
595.78	0.00
595.94	35.11
596.10	60.85
596.25	84.26
596.41	0.00
596.57	56.17
596.73	0.00
596.88	32.77
597.04	79.58
597.20	28.09
597.36	37.45
597.51	65.54
597.67	81.92
597.83	0.00
597.99	0.00
598.14	60.85
598.30	84.26
598.46	42.13
598.61	91.28
598.77	81.92
598.93	44.47
599.09	0.00
599.24	25.75
599.40	0.00
599.56	14.04
599.71	107.66
599.87	49.15
600.03	25.75
600.18	7.02
600.34	51.49
600.50	56.17
600.65	21.06
600.81	98.30
600.97	39.79
601.12	70.22
601.28	0.00
601.44	21.06
601.59	25.75
601.75	0.00
601.91	77.24
602.06	46.81
602.22	51.49
602.37	72.56
602.53	0.00
602.69	14.04
602.84	0.00
603.00	0.00
603.16	70.22
603.31	63.19
603.47	46.81
603.62	117.03
603.78	39.79
603.94	9.36
604.09	49.15
604.25	81.92
604.40	74.90
604.56	0.00
604.71	86.60
604.87	102.98
605.03	81.92
605.18	74.90
605.34	2.34
605.49	23.41
605.65	35.11
605.80	98.30
605.96	25.75
606.12	79.58
606.27	44.47
606.43	77.24
606.58	32.77
606.74	35.11
606.89	67.88
607.05	23.41
607.20	42.13
607.36	81.92
607.51	56.17
607.67	63.19
607.82	14.04
607.98	0.00
608.13	35.11
608.29	56.17
608.44	0.00
608.60	14.04
608.75	67.88
608.91	0.00
609.06	25.75
609.22	88.94
609.37	28.09
609.53	25.75
609.68	14.04
609.84	0.00
609.99	23.41
610.15	32.77
610.30	42.13
610.46	0.00
610.61	74.90
610.76	72.56
610.92	23.41
611.07	0.00
611.23	72.56
611.38	65.54
611.54	86.60
611.69	42.13
611.84	0.00
612.00	44.47
612.15	30.43
612.31	46.81
612.46	0.00
612.62	14.04
612.77	63.19
612.92	65.54
613.08	0.00
613.23	9.36
613.39	88.94
613.54	4.68
613.69	0.00
613.85	32.77
614.00	42.13
614.15	18.72
614.31	67.88
614.46	81.92
614.62	49.15
614.77	63.19
614.92	53.83
615.08	32.77
615.23	4.68
615.38	25.75
615.54	35.11
615.69	42.13
615.84	0.00
616.00	11.70
616.15	14.04
616.30	0.00
616.46	74.90
616.61	44.47
616.76	72.56
616.92	14.04
617.07	25.75
617.22	42.13
617.37	95.96
617.53	0.00
617.68	35.11
617.83	0.00
617.99	28.09
618.14	70.22
618.29	72.56
618.45	74.90
618.60	0.00
618.75	9.36
618.90	0.00
619.06	14.04
619.21	79.58
619.36	25.75
619.51	42.13
619.67	32.77
619.82	98.30
619.97	46.81
620.12	91.28
620.28	86.60
620.43	14.04
620.58	51.49
620.73	16.38
620.89	35.11
621.04	46.81
621.19	23.41
621.34	49.15
621.49	7.02
621.65	39.79
621.80	65.54
621.95	72.56
622.10	0.00
622.25	58.51
622.41	14.04
622.56	74.90
622.71	84.26
622.86	0.00
623.01	7.02
623.16	0.00
623.32	0.00
623.47	58.51
623.62	11.70
623.77	0.00
623.92	60.85
624.07	79.58
624.23	0.00
624.38	70.22
624.53	93.62
624.68	39.79
624.83	114.69
624.98	28.09
625.13	58.51
625.29	77.24
625.44	39.79
625.59	63.19
625.74	72.56
625.89	91.28
626.04	23.41
626.19	63.19
626.34	25.75
626.49	37.45
626.65	77.24
626.80	0.00
626.95	37.45
627.10	28.09
627.25	16.38
627.40	44.47
627.55	2.34
627.70	18.72
627.85	65.54
628.00	100.64
628.15	0.00
628.30	28.09
628.45	51.49
628.60	0.00
628.76	39.79
628.91	51.49
629.06	63.19
629.21	0.00
629.36	42.13
629.51	39.79
629.66	46.81
629.81	21.06
629.96	142.77
630.11	58.51
630.26	9.36
630.41	44.47
630.56	18.72
630.71	32.77
630.86	18.72
631.01	0.00
631.16	35.11
631.31	63.19
631.46	18.72
631.61	51.49
631.76	95.96
631.91	0.00
632.06	16.38
632.21	0.00
632.36	42.13
632.51	35.11
632.66	2.34
632.81	28.09
632.96	112.35
633.10	37.45
633.25	0.00
633.40	35.11
633.55	63.19
633.70	58.51
633.85	0.00
634.00	25.75
634.15	23.41
634.30	84.26
634.45	32.77
634.60	86.60
634.75	7.02
634.90	32.77
635.05	14.04
635.19	37.45
635.34	0.00
635.49	28.09
635.64	35.11
635.79	32.77
635.94	51.49
636.09	25.75
636.24	0.00
636.39	0.00
636.53	86.60
636.68	21.06
636.83	42.13
636.98	49.15
637.13	9.36
637.28	25.75
637.43	77.24
637.57	21.06
637.72	21.06
637.87	7.02
638.02	0.00
638.17	25.75
638.32	0.00
638.46	42.13
638.61	42.13
638.76	133.41
638.91	30.43
639.06	0.00
639.20	46.81
639.35	35.11
639.50	23.41
639.65	70.22
639.80	0.00
639.94	105.32
640.09	56.17
640.24	23.41
640.39	42.13
640.54	49.15
640.68	4.68
640.83	30.43
640.98	42.13
641.13	0.00
641.27	0.00
641.42	58.51
641.57	4.68
641.72	60.85
641.86	91.28
642.01	51.49
642.16	0.00
642.31	74.90
642.45	0.00
642.60	84.26
642.75	14.04
642.90	56.17
643.04	0.00
643.19	58.51
643.34	72.56
643.48	2.34
643.63	7.02
643.78	0.00
643.93	44.47
644.07	4.68
644.22	25.75
644.37	65.54
644.51	84.26
644.66	53.83
644.81	18.72
644.95	42.13
645.10	77.24
645.25	30.43
645.39	77.24
645.54	88.94
645.69	79.58
645.83	0.00
645.98	37.45
646.13	60.85
646.27	56.17
646.42	30.43
646.57	58.51
646.71	42.13
646.86	11.70
647.00	58.51
647.15	88.94
647.30	56.17
647.44	32.77
647.59	79.58
647.74	9.36
647.88	105.32
648.03	0.00
648.17	23.41
648.32	14.04
648.47	46.81
648.61	11.70
648.76	0.00
648.90	0.00
649.05	0.00
649.20	56.17
649.34	30.43
649.49	30.43
649.63	81.92
649.78	21.06
649.92	77.24
650.07	46.81
650.21	9.36
650.36	44.47
650.51	25.75
650.65	0.00
650.80	23.41
650.94	0.00
651.09	39.79
651.23	25.75
651.38	131.07
651.52	49.15
651.67	18.72
651.81	79.58
651.96	30.43
652.10	23.41
652.25	23.41
652.39	14.04
652.54	0.00
652.68	114.69
652.83	65.54
652.97	11.70
653.12	65.54
653.26	49.15
653.41	46.81
653.55	42.13
653.70	42.13
653.84	49.15
653.99	60.85
654.13	81.92
654.27	18.72
654.42	0.00
654.56	9.36
654.71	65.54
654.85	46.81
655.00	0.00
655.14	11.70
655.29	32.77
655.43	25.75
655.57	53.83
655.72	28.09
655.86	32.77
656.01	44.47
656.15	16.38
656.30	14.04
656.44	102.98
656.58	35.11
656.73	0.00
656.87	4.68
657.01	46.81
657.16	81.92
657.30	0.00
657.45	105.32
657.59	63.19
657.73	18.72
657.88	7.02
658.02	30.43
658.16	88.94
658.31	63.19
658.45	39.79
658.60	4.68
658.74	56.17
658.88	65.54
659.03	23.41
659.17	28.09
659.31	74.90
659.46	11.70
659.60	79.58
659.74	65.54
659.89	65.54
660.03	25.75
660.17	74.90
660.32	25.75
660.46	72.56
660.60	51.49
660.74	63.19
660.89	18.72
661.03	37.45
661.17	0.00
661.32	84.26
661.46	30.43
661.60	4.68
661.74	60.85
661.89	100.64
662.03	63.19
662.17	117.03
662.31	35.11
662.46	56.17
662.60	21.06
662.74	39.79
662.88	16.38
663.03	2.34
663.17	25.75
663.31	23.41
663.45	28.09
663.60	0.00
663.74	23.41
663.88	16.38
664.02	0.00
664.17	25.75
664.31	42.13
664.45	0.00
664.59	21.06
664.73	100.64
664.88	14.04
665.02	0.00
665.16	93.62
665.30	37.45
665.44	9.36
665.59	42.13
665.73	39.79
665.87	0.00
666.01	60.85
666.15	0.00
666.29	42.13
666.44	32.77
666.58	51.49
666.72	0.00
666.86	49.15
667.00	11.70
667.14	51.49
667.28	0.00
667.43	98.30
667.57	88.94
667.71	9.36
667.85	67.88
667.99	100.64
668.13	91.28
668.27	0.00
668.41	0.00
668.56	0.00
668.70	102.98
668.84	81.92
668.98	91.28
669.12	44.47
669.26	9.36
669.40	11.70
669.54	42.13
669.68	65.54
669.82	42.13
669.96	86.60
670.10	0.00
670.25	0.00
670.39	0.00
670.53	56.17
670.67	53.83
670.81	67.88
670.95	46.81
671.09	58.51
671.23	74.90
671.37	4.68
671.51	23.41
671.65	35.11
671.79	28.09
671.93	0.00
672.07	7.02
672.21	23.41
672.35	46.81
672.49	14.04
672.63	39.79
672.77	53.83
672.91	23.41
673.05	65.54
673.19	37.45
673.33	30.43
673.47	4.68
673.61	0.00
673.75	0.00
673.89	0.00
674.03	35.11
674.17	60.85
674.31	105.32
674.45	39.79
674.59	42.13
674.73	9.36
674.87	2.34
675.01	30.43
675.15	56.17
675.29	30.43
675.43	77.24
675.56	39.79
675.70	0.00
675.84	9.36
675.98	0.00
676.12	44.47
676.26	4.68
676.40	9.36
676.54	56.17
676.68	58.51
676.82	16.38
676.96	84.26
677.10	56.17
677.23	0.00
677.37	53.83
677.51	42.13
677.65	72.56
677.79	32.77
677.93	51.49
678.07	30.43
678.21	14.04
678.34	44.47
678.48	21.06
678.62	0.00
678.76	63.19
678.90	28.09
679.04	79.58
679.18	18.72
679.31	119.37
679.45	56.17
679.59	25.75
679.73	37.45
679.87	51.49
680.00	63.19
680.14	39.79
680.28	0.00
680.42	21.06
680.56	28.09
680.70	32.77
680.83	67.88
680.97	42.13
681.11	51.49
681.25	4.68
681.39	16.38
681.52	0.00
681.66	2.34
681.80	81.92
681.94	28.09
682.07	0.00
682.21	11.70
682.35	0.00
682.49	0.00
682.62	0.00
682.76	105.32
682.90	67.88
683.04	81.92
683.17	0.00
683.31	110.01
683.45	21.06
683.59	35.11
683.72	42.13
683.86	74.90
684.00	46.81
684.13	25.75
684.27	0.00
684.41	0.00
684.55	32.77
684.68	0.00
684.82	30.43
684.96	39.79
685.09	37.45
685.23	74.90
685.37	51.49
685.50	53.83
685.64	63.19
685.78	98.30
685.91	60.85
686.05	63.19
686.19	4.68
686.32	46.81
686.46	0.00
686.60	4.68
686.73	39.79
686.87	53.83
687.01	37.45
687.14	0.00
687.28	9.36
687.42	16.38
687.55	14.04
687.69	21.06
687.82	0.00
687.96	7.02
688.10	0.00
688.23	112.35
688.37	0.00
688.50	32.77
688.64	0.00
688.78	37.45
688.91	51.49
689.05	14.04
689.18	0.00
689.32	77.24
689.46	4.68
689.59	98.30
689.73	42.13
689.86	35.11
690.00	42.13
690.13	37.45
690.27	42.13
690.41	0.00
690.54	72.56
690.68	42.13
690.81	11.70
690.95	60.85
691.08	0.00
691.22	74.90
691.35	18.72
691.49	60.85
691.62	70.22
691.76	79.58
691.89	37.45
692.03	0.00
692.16	7.02
692.30	46.81
692.43	58.51
692.57	44.47
692.70	60.85
692.84	39.79
692.97	11.70
693.11	86.60
693.24	81.92
693.38	72.56
693.51	18.72
693.65	81.92
693.78	39.79
693.92	32.77
694.05	53.83
694.19	4.68
694.32	0.00
694.45	18.72
694.59	0.00
694.72	39.79
694.86	0.00
694.99	0.00
695.13	4.68
695.26	0.00
695.39	28.09
695.53	7.02
695.66	7.02
695.80	0.00
695.93	0.00
696.07	28.09
696.20	0.00
696.33	0.00
696.47	11.70
696.60	88.94
696.73	53.83
696.87	37.45
697.00	37.45
697.14	56.17
697.27	16.38
697.40	32.77
697.54	7.02
697.67	39.79
697.80	102.98
697.94	30.43
698.07	25.75
698.21	93.62
698.34	81.92
698.47	84.26
698.61	93.62
698.74	16.38
698.87	44.47
699.01	60.85
699.14	51.49
699.27	28.09
699.40	77.24
699.54	37.45
699.67	49.15
699.80	0.00
699.94	46.81
700.07	98.30
700.20	37.45
700.34	74.90
700.47	32.77
700.60	0.00
700.73	51.49
700.87	0.00
701.00	60.85
701.13	0.00
701.26	35.11
701.40	81.92
701.53	65.54
701.66	21.06
701.79	0.00
701.93	95.96
702.06	70.22
702.19	37.45
702.32	37.45
702.46	28.09
702.59	0.00
702.72	39.79
702.85	0.00
702.99	30.43
703.12	37.45
703.25	4.68
703.38	35.11
703.51	11.70
703.65	63.19
703.78	11.70
703.91	4.68
704.04	138.09
704.17	0.00
704.31	4.68
704.44	21.06
704.57	74.90
704.70	72.56
704.83	0.00
704.96	0.00
705.10	56.17
705.23	23.41
>>>>>End Processed Spectral Data<<<<<
