SpectraSuite Data File
++++++++++++++++++++++++++++++++++++
Date: Fri Oct 04 12:13:31 GMT-05:00 2013
User: price-jones
Dark Spectrum Present: No
Reference Spectrum Present: No
Number of Sampled Component Spectra: 1
Spectrometers: USB2+H05261
Integration Time (usec): 10000 (USB2+H05261)
Spectra Averaged: 1 (USB2+H05261)
Boxcar Smoothing: 0 (USB2+H05261)
Correct for Electrical Dark: No (USB2+H05261)
Strobe/Lamp Enabled: No (USB2+H05261)
Correct for Detector Non-linearity: No (USB2+H05261)
Correct for Stray Light: No (USB2+H05261)
Number of Pixels in Processed Spectrum: 2048
>>>>>Begin Processed Spectral Data<<<<<
365.73	37.45
365.92	37.45
366.12	37.45
366.32	0.00
366.52	0.00
366.72	0.00
366.91	0.00
367.11	0.00
367.31	0.00
367.51	0.00
367.70	0.00
367.90	0.00
368.10	0.00
368.30	0.00
368.49	0.00
368.69	0.00
368.89	0.00
369.09	0.00
369.28	0.00
369.48	0.00
369.68	0.00
369.87	0.00
370.07	0.00
370.27	0.00
370.47	0.00
370.66	0.00
370.86	0.00
371.06	0.00
371.25	14.04
371.45	0.00
371.65	30.43
371.84	2.34
372.04	30.43
372.24	25.75
372.44	0.00
372.63	0.00
372.83	0.00
373.03	0.00
373.22	0.00
373.42	70.22
373.62	35.11
373.81	37.45
374.01	46.81
374.21	100.64
374.40	7.02
374.60	44.47
374.79	28.09
374.99	79.58
375.19	14.04
375.38	42.13
375.58	79.58
375.78	58.51
375.97	18.72
376.17	11.70
376.37	0.00
376.56	23.41
376.76	0.00
376.95	46.81
377.15	32.77
377.35	0.00
377.54	25.75
377.74	42.13
377.93	44.47
378.13	79.58
378.33	4.68
378.52	14.04
378.72	72.56
378.91	0.00
379.11	23.41
379.31	72.56
379.50	58.51
379.70	60.85
379.89	0.00
380.09	0.00
380.28	0.00
380.48	42.13
380.68	4.68
380.87	79.58
381.07	9.36
381.26	42.13
381.46	16.38
381.65	56.17
381.85	9.36
382.04	0.00
382.24	0.00
382.43	16.38
382.63	0.00
382.83	18.72
383.02	0.00
383.22	21.06
383.41	28.09
383.61	39.79
383.80	0.00
384.00	28.09
384.19	21.06
384.39	58.51
384.58	18.72
384.78	0.00
384.97	0.00
385.17	25.75
385.36	58.51
385.56	0.00
385.75	49.15
385.95	51.49
386.14	67.88
386.34	23.41
386.53	21.06
386.72	0.00
386.92	79.58
387.11	0.00
387.31	86.60
387.50	0.00
387.70	0.00
387.89	0.00
388.09	74.90
388.28	14.04
388.48	37.45
388.67	0.00
388.86	11.70
389.06	60.85
389.25	18.72
389.45	65.54
389.64	4.68
389.84	32.77
390.03	0.00
390.22	0.00
390.42	0.00
390.61	9.36
390.81	23.41
391.00	51.49
391.19	0.00
391.39	30.43
391.58	21.06
391.78	35.11
391.97	7.02
392.16	0.00
392.36	79.58
392.55	0.00
392.75	51.49
392.94	23.41
393.13	58.51
393.33	9.36
393.52	51.49
393.71	11.70
393.91	58.51
394.10	42.13
394.29	0.00
394.49	37.45
394.68	58.51
394.88	0.00
395.07	37.45
395.26	65.54
395.46	37.45
395.65	0.00
395.84	14.04
396.04	28.09
396.23	0.00
396.42	14.04
396.62	42.13
396.81	56.17
397.00	102.98
397.19	86.60
397.39	0.00
397.58	0.00
397.77	18.72
397.97	30.43
398.16	32.77
398.35	9.36
398.55	74.90
398.74	72.56
398.93	37.45
399.12	21.06
399.32	37.45
399.51	65.54
399.70	0.00
399.90	39.79
400.09	67.88
400.28	44.47
400.47	56.17
400.67	0.00
400.86	63.19
401.05	2.34
401.24	0.00
401.44	60.85
401.63	25.75
401.82	0.00
402.01	86.60
402.21	0.00
402.40	70.22
402.59	0.00
402.78	0.00
402.97	30.43
403.17	0.00
403.36	9.36
403.55	28.09
403.74	9.36
403.93	37.45
404.13	46.81
404.32	32.77
404.51	18.72
404.70	9.36
404.89	86.60
405.09	0.00
405.28	9.36
405.47	7.02
405.66	42.13
405.85	39.79
406.05	9.36
406.24	39.79
406.43	32.77
406.62	0.00
406.81	60.85
407.00	0.00
407.20	9.36
407.39	42.13
407.58	65.54
407.77	25.75
407.96	18.72
408.15	30.43
408.34	42.13
408.54	51.49
408.73	7.02
408.92	0.00
409.11	25.75
409.30	0.00
409.49	0.00
409.68	30.43
409.87	0.00
410.07	7.02
410.26	23.41
410.45	95.96
410.64	63.19
410.83	16.38
411.02	58.51
411.21	28.09
411.40	72.56
411.59	63.19
411.78	28.09
411.98	30.43
412.17	0.00
412.36	67.88
412.55	72.56
412.74	49.15
412.93	0.00
413.12	0.00
413.31	72.56
413.50	32.77
413.69	37.45
413.88	63.19
414.07	4.68
414.26	25.75
414.45	0.00
414.64	65.54
414.83	93.62
415.02	58.51
415.22	70.22
415.41	0.00
415.60	60.85
415.79	28.09
415.98	42.13
416.17	51.49
416.36	32.77
416.55	49.15
416.74	35.11
416.93	74.90
417.12	98.30
417.31	35.11
417.50	35.11
417.69	93.62
417.88	0.00
418.07	77.24
418.26	14.04
418.45	39.79
418.64	25.75
418.83	0.00
419.02	2.34
419.21	11.70
419.39	11.70
419.58	37.45
419.77	23.41
419.96	65.54
420.15	81.92
420.34	32.77
420.53	18.72
420.72	30.43
420.91	28.09
421.10	46.81
421.29	0.00
421.48	42.13
421.67	32.77
421.86	53.83
422.05	0.00
422.24	2.34
422.43	58.51
422.61	0.00
422.80	23.41
422.99	63.19
423.18	4.68
423.37	9.36
423.56	16.38
423.75	0.00
423.94	21.06
424.13	56.17
424.32	110.01
424.50	95.96
424.69	23.41
424.88	98.30
425.07	79.58
425.26	63.19
425.45	88.94
425.64	49.15
425.83	0.00
426.01	39.79
426.20	9.36
426.39	42.13
426.58	14.04
426.77	0.00
426.96	4.68
427.15	44.47
427.33	37.45
427.52	23.41
427.71	44.47
427.90	21.06
428.09	0.00
428.28	0.00
428.46	49.15
428.65	58.51
428.84	60.85
429.03	56.17
429.22	60.85
429.40	0.00
429.59	28.09
429.78	79.58
429.97	58.51
430.16	84.26
430.34	58.51
430.53	25.75
430.72	18.72
430.91	0.00
431.10	0.00
431.28	16.38
431.47	16.38
431.66	46.81
431.85	32.77
432.03	65.54
432.22	25.75
432.41	0.00
432.60	0.00
432.79	58.51
432.97	42.13
433.16	32.77
433.35	23.41
433.54	0.00
433.72	35.11
433.91	16.38
434.10	0.00
434.28	49.15
434.47	107.66
434.66	0.00
434.85	60.85
435.03	14.04
435.22	0.00
435.41	28.09
435.59	51.49
435.78	63.19
435.97	25.75
436.16	84.26
436.34	53.83
436.53	70.22
436.72	86.60
436.90	53.83
437.09	72.56
437.28	65.54
437.46	25.75
437.65	60.85
437.84	0.00
438.02	4.68
438.21	0.00
438.40	37.45
438.58	21.06
438.77	23.41
438.96	14.04
439.14	21.06
439.33	0.00
439.52	42.13
439.70	25.75
439.89	39.79
440.08	0.00
440.26	28.09
440.45	98.30
440.63	84.26
440.82	25.75
441.01	44.47
441.19	21.06
441.38	70.22
441.57	37.45
441.75	25.75
441.94	18.72
442.12	16.38
442.31	49.15
442.50	81.92
442.68	16.38
442.87	0.00
443.05	18.72
443.24	42.13
443.43	46.81
443.61	49.15
443.80	77.24
443.98	44.47
444.17	14.04
444.35	0.00
444.54	37.45
444.73	35.11
444.91	11.70
445.10	81.92
445.28	21.06
445.47	23.41
445.65	0.00
445.84	60.85
446.02	21.06
446.21	42.13
446.39	53.83
446.58	0.00
446.77	4.68
446.95	25.75
447.14	0.00
447.32	72.56
447.51	72.56
447.69	0.00
447.88	60.85
448.06	44.47
448.25	56.17
448.43	110.01
448.62	67.88
448.80	37.45
448.99	25.75
449.17	32.77
449.36	28.09
449.54	0.00
449.73	39.79
449.91	67.88
450.10	35.11
450.28	30.43
450.46	65.54
450.65	74.90
450.83	16.38
451.02	98.30
451.20	11.70
451.39	42.13
451.57	53.83
451.76	0.00
451.94	11.70
452.13	70.22
452.31	37.45
452.49	74.90
452.68	25.75
452.86	21.06
453.05	0.00
453.23	56.17
453.42	37.45
453.60	44.47
453.78	28.09
453.97	46.81
454.15	39.79
454.34	56.17
454.52	56.17
454.70	98.30
454.89	25.75
455.07	0.00
455.26	44.47
455.44	74.90
455.62	0.00
455.81	0.00
455.99	0.00
456.17	14.04
456.36	14.04
456.54	35.11
456.73	74.90
456.91	81.92
457.09	117.03
457.28	0.00
457.46	0.00
457.64	18.72
457.83	28.09
458.01	18.72
458.19	65.54
458.38	0.00
458.56	0.00
458.74	25.75
458.93	0.00
459.11	37.45
459.29	42.13
459.48	9.36
459.66	23.41
459.84	53.83
460.03	35.11
460.21	93.62
460.39	110.01
460.57	32.77
460.76	0.00
460.94	95.96
461.12	42.13
461.31	25.75
461.49	65.54
461.67	30.43
461.85	16.38
462.04	79.58
462.22	28.09
462.40	0.00
462.59	46.81
462.77	11.70
462.95	0.00
463.13	53.83
463.32	60.85
463.50	30.43
463.68	0.00
463.86	67.88
464.05	21.06
464.23	32.77
464.41	32.77
464.59	79.58
464.78	126.39
464.96	25.75
465.14	0.00
465.32	37.45
465.50	23.41
465.69	0.00
465.87	28.09
466.05	21.06
466.23	98.30
466.41	9.36
466.60	0.00
466.78	0.00
466.96	65.54
467.14	39.79
467.32	4.68
467.51	67.88
467.69	65.54
467.87	25.75
468.05	46.81
468.23	9.36
468.41	28.09
468.60	9.36
468.78	21.06
468.96	63.19
469.14	56.17
469.32	63.19
469.50	70.22
469.69	0.00
469.87	42.13
470.05	30.43
470.23	56.17
470.41	121.71
470.59	0.00
470.77	18.72
470.95	63.19
471.14	18.72
471.32	37.45
471.50	46.81
471.68	18.72
471.86	131.07
472.04	28.09
472.22	30.43
472.40	32.77
472.58	25.75
472.77	37.45
472.95	16.38
473.13	35.11
473.31	49.15
473.49	79.58
473.67	18.72
473.85	2.34
474.03	30.43
474.21	91.28
474.39	56.17
474.57	86.60
474.75	42.13
474.93	0.00
475.12	39.79
475.30	88.94
475.48	63.19
475.66	91.28
475.84	23.41
476.02	51.49
476.20	51.49
476.38	46.81
476.56	11.70
476.74	42.13
476.92	74.90
477.10	42.13
477.28	0.00
477.46	25.75
477.64	0.00
477.82	21.06
478.00	0.00
478.18	28.09
478.36	28.09
478.54	63.19
478.72	63.19
478.90	102.98
479.08	53.83
479.26	32.77
479.44	51.49
479.62	0.00
479.80	35.11
479.98	67.88
480.16	0.00
480.34	72.56
480.52	49.15
480.70	56.17
480.88	44.47
481.06	56.17
481.24	37.45
481.41	0.00
481.59	9.36
481.77	16.38
481.95	0.00
482.13	0.00
482.31	37.45
482.49	88.94
482.67	56.17
482.85	21.06
483.03	28.09
483.21	0.00
483.39	56.17
483.57	16.38
483.74	81.92
483.92	0.00
484.10	0.00
484.28	72.56
484.46	32.77
484.64	0.00
484.82	14.04
485.00	32.77
485.18	39.79
485.35	0.00
485.53	53.83
485.71	32.77
485.89	0.00
486.07	60.85
486.25	105.32
486.43	46.81
486.61	46.81
486.78	79.58
486.96	21.06
487.14	32.77
487.32	30.43
487.50	91.28
487.68	72.56
487.85	67.88
488.03	95.96
488.21	121.71
488.39	72.56
488.57	0.00
488.75	37.45
488.92	46.81
489.10	2.34
489.28	44.47
489.46	49.15
489.64	102.98
489.81	4.68
489.99	9.36
490.17	0.00
490.35	86.60
490.53	44.47
490.70	102.98
490.88	0.00
491.06	93.62
491.24	56.17
491.41	56.17
491.59	28.09
491.77	37.45
491.95	44.47
492.13	93.62
492.30	32.77
492.48	14.04
492.66	0.00
492.84	23.41
493.01	16.38
493.19	37.45
493.37	49.15
493.54	44.47
493.72	98.30
493.90	81.92
494.08	46.81
494.25	46.81
494.43	77.24
494.61	11.70
494.79	0.00
494.96	39.79
495.14	0.00
495.32	58.51
495.49	53.83
495.67	42.13
495.85	107.66
496.02	0.00
496.20	93.62
496.38	56.17
496.55	56.17
496.73	112.35
496.91	0.00
497.09	84.26
497.26	18.72
497.44	18.72
497.62	74.90
497.79	67.88
497.97	0.00
498.14	0.00
498.32	70.22
498.50	7.02
498.67	11.70
498.85	63.19
499.03	86.60
499.20	7.02
499.38	0.00
499.56	0.00
499.73	37.45
499.91	79.58
500.08	152.13
500.26	42.13
500.44	63.19
500.61	49.15
500.79	44.47
500.97	32.77
501.14	7.02
501.32	58.51
501.49	9.36
501.67	0.00
501.84	77.24
502.02	30.43
502.20	32.77
502.37	46.81
502.55	67.88
502.72	32.77
502.90	25.75
503.07	37.45
503.25	60.85
503.43	0.00
503.60	35.11
503.78	67.88
503.95	28.09
504.13	93.62
504.30	53.83
504.48	35.11
504.65	114.69
504.83	49.15
505.01	65.54
505.18	60.85
505.36	0.00
505.53	42.13
505.71	93.62
505.88	16.38
506.06	0.00
506.23	63.19
506.41	46.81
506.58	70.22
506.76	133.41
506.93	23.41
507.11	23.41
507.28	0.00
507.46	11.70
507.63	67.88
507.81	53.83
507.98	60.85
508.16	65.54
508.33	114.69
508.50	60.85
508.68	42.13
508.85	25.75
509.03	95.96
509.20	0.00
509.38	39.79
509.55	32.77
509.73	84.26
509.90	21.06
510.08	35.11
510.25	65.54
510.42	63.19
510.60	0.00
510.77	39.79
510.95	23.41
511.12	53.83
511.30	74.90
511.47	88.94
511.64	39.79
511.82	14.04
511.99	35.11
512.17	35.11
512.34	58.51
512.51	86.60
512.69	35.11
512.86	77.24
513.04	84.26
513.21	0.00
513.38	11.70
513.56	88.94
513.73	32.77
513.90	65.54
514.08	63.19
514.25	9.36
514.43	0.00
514.60	16.38
514.77	0.00
514.95	25.75
515.12	18.72
515.29	18.72
515.47	0.00
515.64	44.47
515.81	42.13
515.99	51.49
516.16	53.83
516.33	11.70
516.51	14.04
516.68	0.00
516.85	79.58
517.03	35.11
517.20	74.90
517.37	56.17
517.54	110.01
517.72	11.70
517.89	35.11
518.06	58.51
518.24	18.72
518.41	63.19
518.58	58.51
518.75	0.00
518.93	46.81
519.10	0.00
519.27	25.75
519.45	23.41
519.62	30.43
519.79	72.56
519.96	0.00
520.14	28.09
520.31	49.15
520.48	2.34
520.65	28.09
520.83	23.41
521.00	56.17
521.17	110.01
521.34	37.45
521.52	0.00
521.69	42.13
521.86	0.00
522.03	0.00
522.20	112.35
522.38	102.98
522.55	142.77
522.72	0.00
522.89	44.47
523.07	119.37
523.24	60.85
523.41	100.64
523.58	25.75
523.75	23.41
523.92	23.41
524.10	79.58
524.27	67.88
524.44	0.00
524.61	0.00
524.78	74.90
524.96	23.41
525.13	105.32
525.30	0.00
525.47	49.15
525.64	28.09
525.81	16.38
525.98	72.56
526.16	32.77
526.33	0.00
526.50	70.22
526.67	0.00
526.84	23.41
527.01	53.83
527.18	18.72
527.36	16.38
527.53	25.75
527.70	72.56
527.87	67.88
528.04	32.77
528.21	37.45
528.38	51.49
528.55	39.79
528.72	100.64
528.89	21.06
529.07	56.17
529.24	21.06
529.41	39.79
529.58	79.58
529.75	63.19
529.92	35.11
530.09	37.45
530.26	88.94
530.43	28.09
530.60	79.58
530.77	70.22
530.94	14.04
531.11	88.94
531.28	65.54
531.46	35.11
531.63	28.09
531.80	32.77
531.97	58.51
532.14	0.00
532.31	0.00
532.48	53.83
532.65	0.00
532.82	28.09
532.99	25.75
533.16	60.85
533.33	42.13
533.50	77.24
533.67	44.47
533.84	49.15
534.01	23.41
534.18	128.73
534.35	46.81
534.52	30.43
534.69	18.72
534.86	0.00
535.03	49.15
535.20	16.38
535.37	65.54
535.54	14.04
535.71	79.58
535.88	91.28
536.05	42.13
536.22	60.85
536.38	0.00
536.55	21.06
536.72	25.75
536.89	14.04
537.06	28.09
537.23	63.19
537.40	91.28
537.57	37.45
537.74	46.81
537.91	21.06
538.08	49.15
538.25	14.04
538.42	86.60
538.59	14.04
538.75	81.92
538.92	7.02
539.09	32.77
539.26	46.81
539.43	42.13
539.60	102.98
539.77	70.22
539.94	46.81
540.11	77.24
540.28	93.62
540.44	98.30
540.61	95.96
540.78	11.70
540.95	16.38
541.12	0.00
541.29	28.09
541.46	72.56
541.62	72.56
541.79	0.00
541.96	11.70
542.13	9.36
542.30	11.70
542.47	0.00
542.63	53.83
542.80	98.30
542.97	86.60
543.14	56.17
543.31	56.17
543.48	93.62
543.64	28.09
543.81	21.06
543.98	9.36
544.15	7.02
544.32	98.30
544.48	74.90
544.65	0.00
544.82	114.69
544.99	37.45
545.16	65.54
545.32	49.15
545.49	7.02
545.66	14.04
545.83	91.28
546.00	56.17
546.16	46.81
546.33	11.70
546.50	25.75
546.67	60.85
546.83	67.88
547.00	77.24
547.17	23.41
547.34	65.54
547.50	121.71
547.67	53.83
547.84	28.09
548.00	58.51
548.17	30.43
548.34	114.69
548.51	65.54
548.67	25.75
548.84	86.60
549.01	67.88
549.18	74.90
549.34	53.83
549.51	32.77
549.68	58.51
549.84	44.47
550.01	121.71
550.18	46.81
550.34	65.54
550.51	58.51
550.68	21.06
550.84	21.06
551.01	32.77
551.18	0.00
551.34	39.79
551.51	44.47
551.68	53.83
551.84	0.00
552.01	39.79
552.18	49.15
552.34	37.45
552.51	72.56
552.68	70.22
552.84	23.41
553.01	46.81
553.18	9.36
553.34	51.49
553.51	65.54
553.67	51.49
553.84	37.45
554.01	70.22
554.17	63.19
554.34	16.38
554.51	14.04
554.67	74.90
554.84	114.69
555.00	39.79
555.17	58.51
555.33	77.24
555.50	84.26
555.67	93.62
555.83	65.54
556.00	74.90
556.16	98.30
556.33	105.32
556.50	16.38
556.66	46.81
556.83	35.11
556.99	44.47
557.16	21.06
557.32	28.09
557.49	2.34
557.65	0.00
557.82	58.51
557.98	81.92
558.15	2.34
558.32	42.13
558.48	9.36
558.65	67.88
558.81	86.60
558.98	2.34
559.14	46.81
559.31	79.58
559.47	46.81
559.64	23.41
559.80	63.19
559.97	67.88
560.13	95.96
560.30	30.43
560.46	9.36
560.63	30.43
560.79	53.83
560.96	112.35
561.12	93.62
561.29	4.68
561.45	0.00
561.61	60.85
561.78	77.24
561.94	4.68
562.11	32.77
562.27	21.06
562.44	88.94
562.60	14.04
562.77	60.85
562.93	56.17
563.10	4.68
563.26	4.68
563.42	42.13
563.59	14.04
563.75	18.72
563.92	11.70
564.08	2.34
564.24	63.19
564.41	58.51
564.57	14.04
564.74	4.68
564.90	79.58
565.07	65.54
565.23	30.43
565.39	128.73
565.56	51.49
565.72	49.15
565.88	51.49
566.05	98.30
566.21	70.22
566.38	0.00
566.54	79.58
566.70	163.84
566.87	28.09
567.03	51.49
567.19	74.90
567.36	63.19
567.52	18.72
567.68	42.13
567.85	35.11
568.01	65.54
568.17	25.75
568.34	35.11
568.50	0.00
568.66	70.22
568.83	119.37
568.99	53.83
569.15	180.22
569.32	23.41
569.48	46.81
569.64	23.41
569.81	16.38
569.97	35.11
570.13	98.30
570.30	53.83
570.46	100.64
570.62	58.51
570.78	32.77
570.95	42.13
571.11	86.60
571.27	0.00
571.43	35.11
571.60	56.17
571.76	35.11
571.92	53.83
572.09	51.49
572.25	18.72
572.41	100.64
572.57	63.19
572.74	25.75
572.90	65.54
573.06	11.70
573.22	2.34
573.38	84.26
573.55	14.04
573.71	32.77
573.87	53.83
574.03	39.79
574.20	84.26
574.36	100.64
574.52	72.56
574.68	4.68
574.84	11.70
575.01	131.07
575.17	74.90
575.33	67.88
575.49	91.28
575.65	58.51
575.82	18.72
575.98	35.11
576.14	42.13
576.30	77.24
576.46	28.09
576.62	72.56
576.79	67.88
576.95	23.41
577.11	35.11
577.27	9.36
577.43	84.26
577.59	72.56
577.75	56.17
577.92	67.88
578.08	74.90
578.24	21.06
578.40	56.17
578.56	39.79
578.72	25.75
578.88	86.60
579.04	53.83
579.21	51.49
579.37	30.43
579.53	51.49
579.69	86.60
579.85	51.49
580.01	18.72
580.17	100.64
580.33	32.77
580.49	105.32
580.65	0.00
580.82	51.49
580.98	98.30
581.14	23.41
581.30	42.13
581.46	18.72
581.62	46.81
581.78	86.60
581.94	72.56
582.10	18.72
582.26	84.26
582.42	42.13
582.58	84.26
582.74	42.13
582.90	28.09
583.06	46.81
583.22	44.47
583.38	39.79
583.54	51.49
583.70	0.00
583.86	72.56
584.02	44.47
584.18	74.90
584.34	147.45
584.50	292.57
584.66	1460.49
584.82	3304.84
584.98	4297.22
585.14	3733.15
585.30	2354.58
585.46	1390.28
585.62	908.13
585.78	521.94
585.94	168.52
586.10	60.85
586.26	166.18
586.42	37.45
586.58	126.39
586.74	124.05
586.90	86.60
587.06	67.88
587.22	56.17
587.38	37.45
587.54	81.92
587.70	222.35
587.86	341.72
588.02	322.99
588.18	285.55
588.34	217.67
588.49	128.73
588.65	126.39
588.81	44.47
588.97	91.28
589.13	86.60
589.29	58.51
589.45	44.47
589.61	30.43
589.77	74.90
589.93	145.11
590.08	91.28
590.24	37.45
590.40	93.62
590.56	46.81
590.72	28.09
590.88	39.79
591.04	23.41
591.20	44.47
591.35	65.54
591.51	53.83
591.67	56.17
591.83	35.11
591.99	25.75
592.15	91.28
592.31	0.00
592.46	28.09
592.62	49.15
592.78	18.72
592.94	65.54
593.10	60.85
593.26	77.24
593.41	32.77
593.57	0.00
593.73	49.15
593.89	191.92
594.05	449.38
594.20	521.94
594.36	479.81
594.52	402.57
594.68	227.03
594.84	142.77
594.99	159.16
595.15	18.72
595.31	0.00
595.47	0.00
595.62	16.38
595.78	0.00
595.94	18.72
596.10	53.83
596.25	93.62
596.41	110.01
596.57	32.77
596.73	91.28
596.88	84.26
597.04	81.92
597.20	173.20
597.36	156.82
597.51	51.49
597.67	51.49
597.83	11.70
597.99	95.96
598.14	107.66
598.30	107.66
598.46	56.17
598.61	14.04
598.77	11.70
598.93	65.54
599.09	63.19
599.24	0.00
599.40	46.81
599.56	0.00
599.71	58.51
599.87	42.13
600.03	49.15
600.18	2.34
600.34	53.83
600.50	65.54
600.65	9.36
600.81	0.00
600.97	0.00
601.12	0.00
601.28	98.30
601.44	0.00
601.59	51.49
601.75	0.00
601.91	9.36
602.06	18.72
602.22	51.49
602.37	63.19
602.53	102.98
602.69	152.13
602.84	210.65
603.00	175.54
603.16	114.69
603.31	91.28
603.47	53.83
603.62	0.00
603.78	37.45
603.94	39.79
604.09	4.68
604.25	88.94
604.40	74.90
604.56	0.00
604.71	100.64
604.87	14.04
605.03	32.77
605.18	0.00
605.34	0.00
605.49	84.26
605.65	107.66
605.80	9.36
605.96	0.00
606.12	152.13
606.27	84.26
606.43	53.83
606.58	70.22
606.74	135.75
606.89	269.16
607.05	374.49
607.20	531.30
607.36	421.30
607.51	369.80
607.67	229.37
607.82	107.66
607.98	98.30
608.13	70.22
608.29	44.47
608.44	46.81
608.60	0.00
608.75	18.72
608.91	42.13
609.06	367.46
609.22	645.99
609.37	774.72
609.53	695.14
609.68	482.15
609.84	301.93
609.99	259.80
610.15	114.69
610.30	72.56
610.46	37.45
610.61	23.41
610.76	131.07
610.92	145.11
611.07	0.00
611.23	11.70
611.38	88.94
611.54	18.72
611.69	39.79
611.84	51.49
612.00	30.43
612.15	100.64
612.31	81.92
612.46	0.00
612.62	14.04
612.77	77.24
612.92	65.54
613.08	49.15
613.23	42.13
613.39	117.03
613.54	58.51
613.69	374.49
613.85	880.04
614.00	1280.27
614.15	1273.25
614.31	943.24
614.46	528.96
614.62	358.10
614.77	301.93
614.92	117.03
615.08	119.37
615.23	60.85
615.38	107.66
615.54	2.34
615.69	119.37
615.84	227.03
616.00	304.27
616.15	322.99
616.30	238.73
616.46	208.31
616.61	194.26
616.76	124.05
616.92	77.24
617.07	74.90
617.22	0.00
617.37	135.75
617.53	0.00
617.68	0.00
617.83	42.13
617.99	18.72
618.14	32.77
618.29	67.88
618.45	37.45
618.60	25.75
618.75	56.17
618.90	4.68
619.06	72.56
619.21	37.45
619.36	53.83
619.51	70.22
619.67	100.64
619.82	98.30
619.97	121.71
620.12	51.49
620.28	107.66
620.43	70.22
620.58	28.09
620.73	0.00
620.89	9.36
621.04	0.00
621.19	126.39
621.34	163.84
621.49	196.60
621.65	161.50
621.80	124.05
621.95	131.07
622.10	112.35
622.25	102.98
622.41	100.64
622.56	0.00
622.71	32.77
622.86	58.51
623.01	0.00
623.16	67.88
623.32	46.81
623.47	93.62
623.62	28.09
623.77	42.13
623.92	77.24
624.07	46.81
624.23	72.56
624.38	72.56
624.53	70.22
624.68	25.75
624.83	53.83
624.98	95.96
625.13	70.22
625.29	65.54
625.44	18.72
625.59	102.98
625.74	35.11
625.89	7.02
626.04	205.97
626.19	351.08
626.34	741.95
626.49	760.67
626.65	454.06
626.80	320.65
626.95	236.39
627.10	229.37
627.25	149.79
627.40	58.51
627.55	0.00
627.70	14.04
627.85	16.38
628.00	28.09
628.15	32.77
628.30	0.00
628.45	39.79
628.60	98.30
628.76	44.47
628.91	0.00
629.06	14.04
629.21	25.75
629.36	39.79
629.51	56.17
629.66	88.94
629.81	121.71
629.96	81.92
630.11	187.24
630.26	194.26
630.41	159.16
630.56	180.22
630.71	74.90
630.86	42.13
631.01	79.58
631.16	39.79
631.31	2.34
631.46	28.09
631.61	32.77
631.76	0.00
631.91	79.58
632.06	46.81
632.21	44.47
632.36	70.22
632.51	14.04
632.66	9.36
632.81	131.07
632.96	304.27
633.10	411.93
633.25	496.19
633.40	395.55
633.55	322.99
633.70	220.01
633.85	184.90
634.00	93.62
634.15	39.79
634.30	44.47
634.45	51.49
634.60	79.58
634.75	9.36
634.90	51.49
635.05	42.13
635.19	21.06
635.34	0.00
635.49	63.19
635.64	81.92
635.79	95.96
635.94	18.72
636.09	60.85
636.24	0.00
636.39	16.38
636.53	37.45
636.68	51.49
636.83	23.41
636.98	65.54
637.13	0.00
637.28	0.00
637.43	30.43
637.57	51.49
637.72	252.78
637.87	617.90
638.02	849.61
638.17	751.31
638.32	641.31
638.46	538.32
638.61	301.93
638.76	159.16
638.91	159.16
639.06	117.03
639.20	93.62
639.35	18.72
639.50	86.60
639.65	311.29
639.80	830.89
639.94	1273.25
640.09	1238.14
640.24	961.96
640.39	615.56
640.54	489.17
640.68	341.72
640.83	163.84
640.98	126.39
641.13	79.58
641.27	28.09
641.42	95.96
641.57	51.49
641.72	30.43
641.86	46.81
642.01	0.00
642.16	0.00
642.31	28.09
642.45	51.49
642.60	7.02
642.75	107.66
642.90	0.00
643.04	14.04
643.19	42.13
643.34	21.06
643.48	32.77
643.63	37.45
643.78	86.60
643.93	88.94
644.07	28.09
644.22	67.88
644.37	67.88
644.51	112.35
644.66	4.68
644.81	23.41
644.95	60.85
645.10	30.43
645.25	39.79
645.39	84.26
645.54	65.54
645.69	74.90
645.83	42.13
645.98	98.30
646.13	11.70
646.27	16.38
646.42	0.00
646.57	30.43
646.71	21.06
646.86	32.77
647.00	35.11
647.15	72.56
647.30	30.43
647.44	72.56
647.59	70.22
647.74	110.01
647.88	81.92
648.03	0.00
648.17	4.68
648.32	23.41
648.47	46.81
648.61	11.70
648.76	58.51
648.90	70.22
649.05	39.79
649.20	44.47
649.34	4.68
649.49	0.00
649.63	32.77
649.78	0.00
649.92	63.19
650.07	91.28
650.21	449.38
650.36	559.39
650.51	711.52
650.65	512.58
650.80	444.70
650.94	320.65
651.09	170.86
651.23	32.77
651.38	37.45
651.52	72.56
651.67	7.02
651.81	56.17
651.96	49.15
652.10	9.36
652.25	21.06
652.39	37.45
652.54	0.00
652.68	126.39
652.83	56.17
652.97	182.56
653.12	297.25
653.26	140.43
653.41	163.84
653.55	107.66
653.70	60.85
653.84	100.64
653.99	77.24
654.13	0.00
654.27	23.41
654.42	56.17
654.56	23.41
654.71	79.58
654.85	32.77
655.00	37.45
655.14	0.00
655.29	49.15
655.43	30.43
655.57	39.79
655.72	126.39
655.86	86.60
656.01	9.36
656.15	51.49
656.30	67.88
656.44	42.13
656.58	72.56
656.73	119.37
656.87	25.75
657.01	23.41
657.16	0.00
657.30	39.79
657.45	0.00
657.59	0.00
657.73	98.30
657.88	88.94
658.02	84.26
658.16	18.72
658.31	30.43
658.45	14.04
658.60	42.13
658.74	95.96
658.88	21.06
659.03	105.32
659.17	60.85
659.31	77.24
659.46	280.86
659.60	243.42
659.74	318.31
659.89	290.23
660.03	299.59
660.17	177.88
660.32	112.35
660.46	81.92
660.60	0.00
660.74	0.00
660.89	32.77
661.03	21.06
661.17	2.34
661.32	49.15
661.46	86.60
661.60	112.35
661.74	30.43
661.89	72.56
662.03	42.13
662.17	79.58
662.31	60.85
662.46	25.75
662.60	74.90
662.74	67.88
662.88	11.70
663.03	49.15
663.17	0.00
663.31	74.90
663.45	18.72
663.60	14.04
663.74	4.68
663.88	0.00
664.02	28.09
664.17	30.43
664.31	0.00
664.45	58.51
664.59	93.62
664.73	98.30
664.88	0.00
665.02	9.36
665.16	65.54
665.30	0.00
665.44	58.51
665.59	72.56
665.73	0.00
665.87	77.24
666.01	25.75
666.15	67.88
666.29	25.75
666.44	60.85
666.58	95.96
666.72	79.58
666.86	119.37
667.00	42.13
667.14	124.05
667.28	156.82
667.43	332.36
667.57	585.13
667.71	606.20
667.85	461.09
667.99	404.91
668.13	280.86
668.27	201.29
668.41	110.01
668.56	35.11
668.70	4.68
668.84	0.00
668.98	4.68
669.12	39.79
669.26	32.77
669.40	67.88
669.54	39.79
669.68	35.11
669.82	0.00
669.96	72.56
670.10	35.11
670.25	60.85
670.39	112.35
670.53	0.00
670.67	53.83
670.81	0.00
670.95	35.11
671.09	95.96
671.23	110.01
671.37	262.14
671.51	351.08
671.65	388.53
671.79	304.27
671.93	175.54
672.07	49.15
672.21	56.17
672.35	100.64
672.49	79.58
672.63	32.77
672.77	21.06
672.91	0.00
673.05	16.38
673.19	98.30
673.33	53.83
673.47	42.13
673.61	93.62
673.75	93.62
673.89	74.90
674.03	86.60
674.17	95.96
674.31	0.00
674.45	0.00
674.59	25.75
674.73	42.13
674.87	23.41
675.01	0.00
675.15	77.24
675.29	58.51
675.43	0.00
675.56	42.13
675.70	77.24
675.84	77.24
675.98	11.70
676.12	23.41
676.26	0.00
676.40	74.90
676.54	21.06
676.68	0.00
676.82	37.45
676.96	0.00
677.10	49.15
677.23	65.54
677.37	42.13
677.51	37.45
677.65	39.79
677.79	70.22
677.93	0.00
678.07	56.17
678.21	53.83
678.34	11.70
678.48	37.45
678.62	58.51
678.76	35.11
678.90	84.26
679.04	37.45
679.18	0.00
679.31	79.58
679.45	0.00
679.59	25.75
679.73	60.85
679.87	46.81
680.00	42.13
680.14	102.98
680.28	65.54
680.42	67.88
680.56	53.83
680.70	77.24
680.83	88.94
680.97	28.09
681.11	30.43
681.25	7.02
681.39	42.13
681.52	53.83
681.66	0.00
681.80	21.06
681.94	70.22
682.07	72.56
682.21	51.49
682.35	21.06
682.49	14.04
682.62	44.47
682.76	0.00
682.90	67.88
683.04	30.43
683.17	42.13
683.31	117.03
683.45	0.00
683.59	4.68
683.72	14.04
683.86	0.00
684.00	2.34
684.13	0.00
684.27	58.51
684.41	9.36
684.55	72.56
684.68	32.77
684.82	25.75
684.96	42.13
685.09	37.45
685.23	21.06
685.37	25.75
685.50	28.09
685.64	60.85
685.78	77.24
685.91	79.58
686.05	93.62
686.19	0.00
686.32	60.85
686.46	117.03
686.60	2.34
686.73	53.83
686.87	53.83
687.01	37.45
687.14	11.70
687.28	21.06
687.42	11.70
687.55	60.85
687.69	21.06
687.82	56.17
687.96	0.00
688.10	7.02
688.23	32.77
688.37	28.09
688.50	21.06
688.64	46.81
688.78	46.81
688.91	44.47
689.05	51.49
689.18	70.22
689.32	0.00
689.46	11.70
689.59	37.45
689.73	37.45
689.86	0.00
690.00	9.36
690.13	0.00
690.27	0.00
690.41	0.00
690.54	0.00
690.68	53.83
690.81	58.51
690.95	77.24
691.08	32.77
691.22	102.98
691.35	4.68
691.49	14.04
691.62	14.04
691.76	0.00
691.89	58.51
692.03	39.79
692.16	14.04
692.30	39.79
692.43	128.73
692.57	175.54
692.70	283.20
692.84	355.76
692.97	330.02
693.11	187.24
693.24	140.43
693.38	98.30
693.51	39.79
693.65	70.22
693.78	0.00
693.92	51.49
694.05	0.00
694.19	18.72
694.32	0.00
694.45	56.17
694.59	4.68
694.72	105.32
694.86	65.54
694.99	18.72
695.13	70.22
695.26	25.75
695.39	60.85
695.53	107.66
695.66	16.38
695.80	11.70
695.93	84.26
696.07	86.60
696.20	42.13
696.33	51.49
696.47	102.98
696.60	18.72
696.73	37.45
696.87	25.75
697.00	35.11
697.14	51.49
697.27	11.70
697.40	102.98
697.54	42.13
697.67	28.09
697.80	60.85
697.94	72.56
698.07	72.56
698.21	18.72
698.34	70.22
698.47	0.00
698.61	30.43
698.74	42.13
698.87	140.43
699.01	60.85
699.14	0.00
699.27	0.00
699.40	53.83
699.54	18.72
699.67	0.00
699.80	49.15
699.94	16.38
700.07	30.43
700.20	0.00
700.34	56.17
700.47	60.85
700.60	0.00
700.73	81.92
700.87	9.36
701.00	18.72
701.13	42.13
701.26	0.00
701.40	14.04
701.53	0.00
701.66	21.06
701.79	70.22
701.93	2.34
702.06	0.00
702.19	42.13
702.32	44.47
702.46	74.90
702.59	28.09
702.72	21.06
702.85	182.56
702.99	330.02
703.12	571.09
703.25	491.51
703.38	437.68
703.51	325.33
703.65	301.93
703.78	196.60
703.91	100.64
704.04	65.54
704.17	79.58
704.31	39.79
704.44	14.04
704.57	100.64
704.70	25.75
704.83	21.06
704.96	16.38
705.10	77.24
705.23	77.24
>>>>>End Processed Spectral Data<<<<<
