SpectraSuite Data File
++++++++++++++++++++++++++++++++++++
Date: Fri Oct 04 12:13:45 GMT-05:00 2013
User: price-jones
Dark Spectrum Present: No
Reference Spectrum Present: No
Number of Sampled Component Spectra: 1
Spectrometers: USB2+H05261
Integration Time (usec): 10000 (USB2+H05261)
Spectra Averaged: 1 (USB2+H05261)
Boxcar Smoothing: 0 (USB2+H05261)
Correct for Electrical Dark: No (USB2+H05261)
Strobe/Lamp Enabled: No (USB2+H05261)
Correct for Detector Non-linearity: No (USB2+H05261)
Correct for Stray Light: No (USB2+H05261)
Number of Pixels in Processed Spectrum: 2048
>>>>>Begin Processed Spectral Data<<<<<
365.73	0.00
365.92	0.00
366.12	0.00
366.32	0.00
366.52	0.00
366.72	0.00
366.91	0.00
367.11	0.00
367.31	0.00
367.51	0.00
367.70	0.00
367.90	0.00
368.10	0.00
368.30	0.00
368.49	0.00
368.69	0.00
368.89	0.00
369.09	0.00
369.28	0.00
369.48	0.00
369.68	0.00
369.87	0.00
370.07	0.00
370.27	0.00
370.47	0.00
370.66	0.00
370.86	0.00
371.06	0.00
371.25	51.49
371.45	0.00
371.65	0.00
371.84	0.00
372.04	30.43
372.24	0.00
372.44	0.00
372.63	11.70
372.83	51.49
373.03	49.15
373.22	56.17
373.42	0.00
373.62	0.00
373.81	7.02
374.01	79.58
374.21	0.00
374.40	60.85
374.60	35.11
374.79	81.92
374.99	0.00
375.19	2.34
375.38	44.47
375.58	58.51
375.78	102.98
375.97	72.56
376.17	28.09
376.37	0.00
376.56	16.38
376.76	0.00
376.95	44.47
377.15	18.72
377.35	65.54
377.54	39.79
377.74	44.47
377.93	4.68
378.13	2.34
378.33	0.00
378.52	42.13
378.72	112.35
378.91	70.22
379.11	0.00
379.31	0.00
379.50	25.75
379.70	0.00
379.89	4.68
380.09	0.00
380.28	44.47
380.48	0.00
380.68	79.58
380.87	51.49
381.07	7.02
381.26	25.75
381.46	9.36
381.65	25.75
381.85	65.54
382.04	16.38
382.24	30.43
382.43	18.72
382.63	4.68
382.83	63.19
383.02	0.00
383.22	42.13
383.41	0.00
383.61	0.00
383.80	37.45
384.00	0.00
384.19	18.72
384.39	37.45
384.58	117.03
384.78	58.51
384.97	0.00
385.17	74.90
385.36	0.00
385.56	0.00
385.75	51.49
385.95	35.11
386.14	16.38
386.34	0.00
386.53	0.00
386.72	0.00
386.92	58.51
387.11	0.00
387.31	30.43
387.50	60.85
387.70	0.00
387.89	9.36
388.09	21.06
388.28	25.75
388.48	42.13
388.67	0.00
388.86	9.36
389.06	0.00
389.25	39.79
389.45	93.62
389.64	2.34
389.84	7.02
390.03	42.13
390.22	63.19
390.42	30.43
390.61	42.13
390.81	42.13
391.00	0.00
391.19	18.72
391.39	16.38
391.58	37.45
391.78	67.88
391.97	21.06
392.16	35.11
392.36	25.75
392.55	65.54
392.75	28.09
392.94	49.15
393.13	37.45
393.33	25.75
393.52	56.17
393.71	42.13
393.91	0.00
394.10	58.51
394.29	53.83
394.49	102.98
394.68	0.00
394.88	4.68
395.07	14.04
395.26	0.00
395.46	0.00
395.65	60.85
395.84	51.49
396.04	0.00
396.23	37.45
396.42	4.68
396.62	0.00
396.81	0.00
397.00	14.04
397.19	60.85
397.39	16.38
397.58	46.81
397.77	0.00
397.97	14.04
398.16	11.70
398.35	60.85
398.55	9.36
398.74	84.26
398.93	18.72
399.12	0.00
399.32	11.70
399.51	0.00
399.70	32.77
399.90	42.13
400.09	35.11
400.28	46.81
400.47	100.64
400.67	44.47
400.86	86.60
401.05	0.00
401.24	18.72
401.44	4.68
401.63	37.45
401.82	100.64
402.01	60.85
402.21	23.41
402.40	46.81
402.59	18.72
402.78	84.26
402.97	117.03
403.17	0.00
403.36	23.41
403.55	105.32
403.74	0.00
403.93	37.45
404.13	79.58
404.32	91.28
404.51	0.00
404.70	58.51
404.89	79.58
405.09	0.00
405.28	0.00
405.47	74.90
405.66	0.00
405.85	67.88
406.05	42.13
406.24	0.00
406.43	4.68
406.62	0.00
406.81	0.00
407.00	25.75
407.20	93.62
407.39	95.96
407.58	11.70
407.77	42.13
407.96	0.00
408.15	35.11
408.34	4.68
408.54	42.13
408.73	39.79
408.92	51.49
409.11	32.77
409.30	0.00
409.49	39.79
409.68	18.72
409.87	0.00
410.07	18.72
410.26	0.00
410.45	77.24
410.64	0.00
410.83	0.00
411.02	0.00
411.21	53.83
411.40	0.00
411.59	0.00
411.78	35.11
411.98	14.04
412.17	35.11
412.36	46.81
412.55	53.83
412.74	51.49
412.93	86.60
413.12	0.00
413.31	79.58
413.50	53.83
413.69	67.88
413.88	42.13
414.07	0.00
414.26	23.41
414.45	86.60
414.64	46.81
414.83	9.36
415.02	53.83
415.22	65.54
415.41	7.02
415.60	0.00
415.79	7.02
415.98	0.00
416.17	23.41
416.36	14.04
416.55	46.81
416.74	30.43
416.93	11.70
417.12	4.68
417.31	39.79
417.50	0.00
417.69	0.00
417.88	60.85
418.07	0.00
418.26	77.24
418.45	0.00
418.64	46.81
418.83	0.00
419.02	35.11
419.21	30.43
419.39	14.04
419.58	65.54
419.77	51.49
419.96	42.13
420.15	77.24
420.34	18.72
420.53	23.41
420.72	49.15
420.91	86.60
421.10	16.38
421.29	28.09
421.48	0.00
421.67	49.15
421.86	67.88
422.05	39.79
422.24	0.00
422.43	88.94
422.61	37.45
422.80	53.83
422.99	0.00
423.18	39.79
423.37	53.83
423.56	0.00
423.75	0.00
423.94	25.75
424.13	67.88
424.32	58.51
424.50	42.13
424.69	28.09
424.88	77.24
425.07	0.00
425.26	0.00
425.45	14.04
425.64	56.17
425.83	93.62
426.01	81.92
426.20	0.00
426.39	0.00
426.58	14.04
426.77	4.68
426.96	39.79
427.15	18.72
427.33	32.77
427.52	0.00
427.71	0.00
427.90	28.09
428.09	67.88
428.28	0.00
428.46	67.88
428.65	42.13
428.84	84.26
429.03	42.13
429.22	35.11
429.40	0.00
429.59	0.00
429.78	32.77
429.97	88.94
430.16	14.04
430.34	0.00
430.53	16.38
430.72	0.00
430.91	4.68
431.10	0.00
431.28	91.28
431.47	91.28
431.66	16.38
431.85	23.41
432.03	23.41
432.22	28.09
432.41	49.15
432.60	0.00
432.79	77.24
432.97	30.43
433.16	74.90
433.35	18.72
433.54	0.00
433.72	28.09
433.91	53.83
434.10	67.88
434.28	0.00
434.47	28.09
434.66	0.00
434.85	42.13
435.03	14.04
435.22	91.28
435.41	65.54
435.59	0.00
435.78	28.09
435.97	21.06
436.16	7.02
436.34	11.70
436.53	46.81
436.72	32.77
436.90	18.72
437.09	79.58
437.28	0.00
437.46	65.54
437.65	11.70
437.84	32.77
438.02	100.64
438.21	28.09
438.40	23.41
438.58	86.60
438.77	37.45
438.96	0.00
439.14	0.00
439.33	58.51
439.52	0.00
439.70	30.43
439.89	114.69
440.08	0.00
440.26	14.04
440.45	93.62
440.63	98.30
440.82	23.41
441.01	32.77
441.19	0.00
441.38	58.51
441.57	65.54
441.75	16.38
441.94	39.79
442.12	0.00
442.31	4.68
442.50	70.22
442.68	102.98
442.87	39.79
443.05	37.45
443.24	18.72
443.43	74.90
443.61	14.04
443.80	35.11
443.98	56.17
444.17	39.79
444.35	46.81
444.54	0.00
444.73	4.68
444.91	9.36
445.10	60.85
445.28	42.13
445.47	18.72
445.65	0.00
445.84	0.00
446.02	117.03
446.21	11.70
446.39	9.36
446.58	65.54
446.77	72.56
446.95	42.13
447.14	0.00
447.32	23.41
447.51	0.00
447.69	32.77
447.88	0.00
448.06	58.51
448.25	112.35
448.43	0.00
448.62	0.00
448.80	84.26
448.99	0.00
449.17	21.06
449.36	4.68
449.54	0.00
449.73	0.00
449.91	72.56
450.10	0.00
450.28	74.90
450.46	4.68
450.65	74.90
450.83	0.00
451.02	32.77
451.20	30.43
451.39	4.68
451.57	0.00
451.76	32.77
451.94	0.00
452.13	18.72
452.31	4.68
452.49	67.88
452.68	39.79
452.86	4.68
453.05	102.98
453.23	21.06
453.42	23.41
453.60	46.81
453.78	18.72
453.97	2.34
454.15	21.06
454.34	42.13
454.52	28.09
454.70	14.04
454.89	11.70
455.07	9.36
455.26	58.51
455.44	18.72
455.62	56.17
455.81	51.49
455.99	23.41
456.17	79.58
456.36	79.58
456.54	37.45
456.73	18.72
456.91	21.06
457.09	67.88
457.28	72.56
457.46	32.77
457.64	86.60
457.83	46.81
458.01	7.02
458.19	35.11
458.38	23.41
458.56	23.41
458.74	16.38
458.93	2.34
459.11	74.90
459.29	32.77
459.48	39.79
459.66	32.77
459.84	56.17
460.03	21.06
460.21	42.13
460.39	42.13
460.57	35.11
460.76	168.52
460.94	44.47
461.12	95.96
461.31	67.88
461.49	0.00
461.67	63.19
461.85	58.51
462.04	46.81
462.22	110.01
462.40	119.37
462.59	67.88
462.77	44.47
462.95	25.75
463.13	28.09
463.32	77.24
463.50	74.90
463.68	2.34
463.86	0.00
464.05	72.56
464.23	107.66
464.41	72.56
464.59	0.00
464.78	11.70
464.96	58.51
465.14	0.00
465.32	72.56
465.50	0.00
465.69	51.49
465.87	0.00
466.05	60.85
466.23	88.94
466.41	21.06
466.60	32.77
466.78	102.98
466.96	67.88
467.14	37.45
467.32	79.58
467.51	2.34
467.69	56.17
467.87	0.00
468.05	44.47
468.23	67.88
468.41	77.24
468.60	56.17
468.78	72.56
468.96	0.00
469.14	25.75
469.32	42.13
469.50	0.00
469.69	51.49
469.87	30.43
470.05	74.90
470.23	95.96
470.41	117.03
470.59	0.00
470.77	53.83
470.95	42.13
471.14	67.88
471.32	42.13
471.50	102.98
471.68	65.54
471.86	11.70
472.04	39.79
472.22	0.00
472.40	21.06
472.58	16.38
472.77	39.79
472.95	14.04
473.13	37.45
473.31	46.81
473.49	37.45
473.67	7.02
473.85	44.47
474.03	9.36
474.21	14.04
474.39	0.00
474.57	25.75
474.75	93.62
474.93	0.00
475.12	37.45
475.30	56.17
475.48	16.38
475.66	16.38
475.84	35.11
476.02	30.43
476.20	14.04
476.38	18.72
476.56	32.77
476.74	74.90
476.92	46.81
477.10	88.94
477.28	93.62
477.46	65.54
477.64	2.34
477.82	7.02
478.00	32.77
478.18	35.11
478.36	65.54
478.54	14.04
478.72	0.00
478.90	14.04
479.08	0.00
479.26	49.15
479.44	86.60
479.62	135.75
479.80	11.70
479.98	44.47
480.16	42.13
480.34	44.47
480.52	0.00
480.70	35.11
480.88	42.13
481.06	39.79
481.24	0.00
481.41	147.45
481.59	53.83
481.77	53.83
481.95	81.92
482.13	58.51
482.31	56.17
482.49	79.58
482.67	86.60
482.85	2.34
483.03	100.64
483.21	49.15
483.39	28.09
483.57	14.04
483.74	21.06
483.92	42.13
484.10	21.06
484.28	35.11
484.46	72.56
484.64	60.85
484.82	23.41
485.00	21.06
485.18	0.00
485.35	32.77
485.53	42.13
485.71	11.70
485.89	9.36
486.07	84.26
486.25	51.49
486.43	23.41
486.61	7.02
486.78	114.69
486.96	28.09
487.14	49.15
487.32	53.83
487.50	72.56
487.68	11.70
487.85	98.30
488.03	79.58
488.21	0.00
488.39	46.81
488.57	124.05
488.75	0.00
488.92	49.15
489.10	65.54
489.28	30.43
489.46	28.09
489.64	84.26
489.81	14.04
489.99	42.13
490.17	79.58
490.35	142.77
490.53	28.09
490.70	18.72
490.88	23.41
491.06	28.09
491.24	11.70
491.41	51.49
491.59	67.88
491.77	72.56
491.95	77.24
492.13	51.49
492.30	42.13
492.48	46.81
492.66	46.81
492.84	37.45
493.01	72.56
493.19	49.15
493.37	49.15
493.54	32.77
493.72	110.01
493.90	0.00
494.08	86.60
494.25	23.41
494.43	0.00
494.61	39.79
494.79	21.06
494.96	2.34
495.14	0.00
495.32	44.47
495.49	7.02
495.67	49.15
495.85	65.54
496.02	21.06
496.20	37.45
496.38	2.34
496.55	14.04
496.73	42.13
496.91	25.75
497.09	35.11
497.26	72.56
497.44	28.09
497.62	7.02
497.79	0.00
497.97	16.38
498.14	25.75
498.32	4.68
498.50	37.45
498.67	63.19
498.85	32.77
499.03	107.66
499.20	32.77
499.38	42.13
499.56	0.00
499.73	14.04
499.91	95.96
500.08	18.72
500.26	18.72
500.44	11.70
500.61	4.68
500.79	42.13
500.97	0.00
501.14	65.54
501.32	23.41
501.49	0.00
501.67	0.00
501.84	84.26
502.02	79.58
502.20	9.36
502.37	93.62
502.55	0.00
502.72	67.88
502.90	84.26
503.07	49.15
503.25	60.85
503.43	42.13
503.60	0.00
503.78	65.54
503.95	42.13
504.13	44.47
504.30	42.13
504.48	2.34
504.65	37.45
504.83	56.17
505.01	42.13
505.18	79.58
505.36	0.00
505.53	0.00
505.71	42.13
505.88	21.06
506.06	93.62
506.23	88.94
506.41	7.02
506.58	0.00
506.76	0.00
506.93	67.88
507.11	49.15
507.28	4.68
507.46	0.00
507.63	30.43
507.81	51.49
507.98	91.28
508.16	0.00
508.33	23.41
508.50	53.83
508.68	63.19
508.85	60.85
509.03	77.24
509.20	112.35
509.38	72.56
509.55	7.02
509.73	58.51
509.90	67.88
510.08	23.41
510.25	37.45
510.42	56.17
510.60	81.92
510.77	77.24
510.95	14.04
511.12	32.77
511.30	100.64
511.47	2.34
511.64	79.58
511.82	16.38
511.99	35.11
512.17	51.49
512.34	79.58
512.51	28.09
512.69	11.70
512.86	21.06
513.04	14.04
513.21	30.43
513.38	124.05
513.56	77.24
513.73	100.64
513.90	102.98
514.08	70.22
514.25	56.17
514.43	30.43
514.60	21.06
514.77	28.09
514.95	81.92
515.12	0.00
515.29	44.47
515.47	0.00
515.64	39.79
515.81	28.09
515.99	39.79
516.16	56.17
516.33	126.39
516.51	56.17
516.68	18.72
516.85	28.09
517.03	44.47
517.20	25.75
517.37	9.36
517.54	11.70
517.72	0.00
517.89	32.77
518.06	30.43
518.24	79.58
518.41	56.17
518.58	77.24
518.75	95.96
518.93	9.36
519.10	100.64
519.27	25.75
519.45	51.49
519.62	42.13
519.79	39.79
519.96	14.04
520.14	98.30
520.31	2.34
520.48	14.04
520.65	37.45
520.83	0.00
521.00	110.01
521.17	39.79
521.34	60.85
521.52	32.77
521.69	72.56
521.86	67.88
522.03	30.43
522.20	81.92
522.38	79.58
522.55	0.00
522.72	23.41
522.89	67.88
523.07	32.77
523.24	30.43
523.41	63.19
523.58	70.22
523.75	7.02
523.92	53.83
524.10	28.09
524.27	84.26
524.44	63.19
524.61	77.24
524.78	39.79
524.96	49.15
525.13	23.41
525.30	35.11
525.47	114.69
525.64	110.01
525.81	65.54
525.98	72.56
526.16	86.60
526.33	23.41
526.50	65.54
526.67	0.00
526.84	60.85
527.01	37.45
527.18	67.88
527.36	49.15
527.53	18.72
527.70	30.43
527.87	60.85
528.04	44.47
528.21	18.72
528.38	0.00
528.55	86.60
528.72	114.69
528.89	18.72
529.07	16.38
529.24	67.88
529.41	49.15
529.58	32.77
529.75	9.36
529.92	51.49
530.09	63.19
530.26	21.06
530.43	0.00
530.60	18.72
530.77	35.11
530.94	95.96
531.11	14.04
531.28	84.26
531.46	95.96
531.63	0.00
531.80	32.77
531.97	65.54
532.14	18.72
532.31	107.66
532.48	0.00
532.65	74.90
532.82	117.03
532.99	32.77
533.16	65.54
533.33	49.15
533.50	84.26
533.67	0.00
533.84	77.24
534.01	11.70
534.18	72.56
534.35	65.54
534.52	2.34
534.69	81.92
534.86	98.30
535.03	53.83
535.20	65.54
535.37	70.22
535.54	67.88
535.71	56.17
535.88	16.38
536.05	32.77
536.22	44.47
536.38	4.68
536.55	110.01
536.72	70.22
536.89	58.51
537.06	88.94
537.23	46.81
537.40	93.62
537.57	67.88
537.74	98.30
537.91	105.32
538.08	18.72
538.25	58.51
538.42	14.04
538.59	25.75
538.75	35.11
538.92	0.00
539.09	56.17
539.26	4.68
539.43	4.68
539.60	9.36
539.77	28.09
539.94	58.51
540.11	37.45
540.28	25.75
540.44	30.43
540.61	67.88
540.78	32.77
540.95	65.54
541.12	56.17
541.29	107.66
541.46	77.24
541.62	91.28
541.79	98.30
541.96	100.64
542.13	25.75
542.30	14.04
542.47	28.09
542.63	21.06
542.80	102.98
542.97	23.41
543.14	9.36
543.31	42.13
543.48	25.75
543.64	88.94
543.81	56.17
543.98	14.04
544.15	53.83
544.32	30.43
544.48	49.15
544.65	67.88
544.82	2.34
544.99	46.81
545.16	16.38
545.32	79.58
545.49	65.54
545.66	70.22
545.83	60.85
546.00	81.92
546.16	56.17
546.33	44.47
546.50	56.17
546.67	65.54
546.83	53.83
547.00	51.49
547.17	63.19
547.34	100.64
547.50	72.56
547.67	112.35
547.84	72.56
548.00	72.56
548.17	35.11
548.34	0.00
548.51	58.51
548.67	37.45
548.84	58.51
549.01	0.00
549.18	98.30
549.34	14.04
549.51	37.45
549.68	65.54
549.84	18.72
550.01	9.36
550.18	23.41
550.34	114.69
550.51	0.00
550.68	56.17
550.84	21.06
551.01	105.32
551.18	93.62
551.34	39.79
551.51	30.43
551.68	28.09
551.84	77.24
552.01	60.85
552.18	39.79
552.34	79.58
552.51	145.11
552.68	39.79
552.84	53.83
553.01	7.02
553.18	84.26
553.34	0.00
553.51	0.00
553.67	35.11
553.84	0.00
554.01	93.62
554.17	49.15
554.34	11.70
554.51	49.15
554.67	39.79
554.84	11.70
555.00	25.75
555.17	74.90
555.33	100.64
555.50	9.36
555.67	21.06
555.83	77.24
556.00	46.81
556.16	49.15
556.33	67.88
556.50	124.05
556.66	0.00
556.83	81.92
556.99	39.79
557.16	81.92
557.32	102.98
557.49	32.77
557.65	18.72
557.82	91.28
557.98	0.00
558.15	39.79
558.32	0.00
558.48	49.15
558.65	112.35
558.81	0.00
558.98	28.09
559.14	91.28
559.31	37.45
559.47	0.00
559.64	16.38
559.80	28.09
559.97	53.83
560.13	79.58
560.30	60.85
560.46	21.06
560.63	46.81
560.79	67.88
560.96	56.17
561.12	60.85
561.29	42.13
561.45	37.45
561.61	65.54
561.78	18.72
561.94	67.88
562.11	58.51
562.27	0.00
562.44	81.92
562.60	98.30
562.77	32.77
562.93	35.11
563.10	77.24
563.26	28.09
563.42	51.49
563.59	28.09
563.75	91.28
563.92	30.43
564.08	102.98
564.24	105.32
564.41	72.56
564.57	56.17
564.74	49.15
564.90	0.00
565.07	18.72
565.23	14.04
565.39	95.96
565.56	74.90
565.72	9.36
565.88	32.77
566.05	95.96
566.21	53.83
566.38	37.45
566.54	11.70
566.70	25.75
566.87	81.92
567.03	25.75
567.19	53.83
567.36	0.00
567.52	0.00
567.68	4.68
567.85	23.41
568.01	72.56
568.17	32.77
568.34	121.71
568.50	0.00
568.66	44.47
568.83	84.26
568.99	58.51
569.15	35.11
569.32	49.15
569.48	72.56
569.64	37.45
569.81	37.45
569.97	30.43
570.13	51.49
570.30	0.00
570.46	23.41
570.62	44.47
570.78	32.77
570.95	42.13
571.11	67.88
571.27	42.13
571.43	32.77
571.60	18.72
571.76	35.11
571.92	95.96
572.09	30.43
572.25	42.13
572.41	11.70
572.57	23.41
572.74	105.32
572.90	37.45
573.06	0.00
573.22	79.58
573.38	11.70
573.55	49.15
573.71	98.30
573.87	11.70
574.03	58.51
574.20	60.85
574.36	44.47
574.52	21.06
574.68	42.13
574.84	35.11
575.01	46.81
575.17	0.00
575.33	0.00
575.49	0.00
575.65	56.17
575.82	86.60
575.98	42.13
576.14	63.19
576.30	16.38
576.46	51.49
576.62	14.04
576.79	56.17
576.95	32.77
577.11	25.75
577.27	79.58
577.43	67.88
577.59	79.58
577.75	25.75
577.92	93.62
578.08	11.70
578.24	46.81
578.40	0.00
578.56	4.68
578.72	70.22
578.88	107.66
579.04	35.11
579.21	74.90
579.37	100.64
579.53	4.68
579.69	42.13
579.85	53.83
580.01	9.36
580.17	46.81
580.33	0.00
580.49	39.79
580.65	30.43
580.82	42.13
580.98	53.83
581.14	37.45
581.30	25.75
581.46	35.11
581.62	91.28
581.78	93.62
581.94	65.54
582.10	32.77
582.26	11.70
582.42	18.72
582.58	28.09
582.74	0.00
582.90	128.73
583.06	46.81
583.22	53.83
583.38	110.01
583.54	49.15
583.70	53.83
583.86	100.64
584.02	65.54
584.18	32.77
584.34	16.38
584.50	49.15
584.66	126.39
584.82	112.35
584.98	81.92
585.14	0.00
585.30	0.00
585.46	60.85
585.62	95.96
585.78	58.51
585.94	42.13
586.10	0.00
586.26	42.13
586.42	39.79
586.58	9.36
586.74	0.00
586.90	81.92
587.06	149.79
587.22	0.00
587.38	65.54
587.54	37.45
587.70	46.81
587.86	117.03
588.02	42.13
588.18	60.85
588.34	0.00
588.49	0.00
588.65	70.22
588.81	0.00
588.97	7.02
589.13	0.00
589.29	56.17
589.45	21.06
589.61	25.75
589.77	56.17
589.93	65.54
590.08	0.00
590.24	0.00
590.40	35.11
590.56	4.68
590.72	18.72
590.88	11.70
591.04	25.75
591.20	28.09
591.35	107.66
591.51	46.81
591.67	39.79
591.83	79.58
591.99	112.35
592.15	70.22
592.31	18.72
592.46	74.90
592.62	107.66
592.78	44.47
592.94	37.45
593.10	128.73
593.26	37.45
593.41	9.36
593.57	21.06
593.73	30.43
593.89	0.00
594.05	65.54
594.20	81.92
594.36	42.13
594.52	86.60
594.68	18.72
594.84	107.66
594.99	86.60
595.15	28.09
595.31	28.09
595.47	86.60
595.62	51.49
595.78	35.11
595.94	74.90
596.10	74.90
596.25	51.49
596.41	0.00
596.57	46.81
596.73	110.01
596.88	105.32
597.04	18.72
597.20	107.66
597.36	44.47
597.51	11.70
597.67	0.00
597.83	140.43
597.99	18.72
598.14	32.77
598.30	84.26
598.46	7.02
598.61	44.47
598.77	37.45
598.93	0.00
599.09	0.00
599.24	70.22
599.40	28.09
599.56	0.00
599.71	30.43
599.87	56.17
600.03	9.36
600.18	25.75
600.34	32.77
600.50	0.00
600.65	53.83
600.81	7.02
600.97	2.34
601.12	21.06
601.28	70.22
601.44	0.00
601.59	32.77
601.75	58.51
601.91	81.92
602.06	0.00
602.22	30.43
602.37	56.17
602.53	11.70
602.69	53.83
602.84	14.04
603.00	72.56
603.16	28.09
603.31	28.09
603.47	42.13
603.62	58.51
603.78	35.11
603.94	23.41
604.09	84.26
604.25	2.34
604.40	7.02
604.56	0.00
604.71	0.00
604.87	53.83
605.03	51.49
605.18	49.15
605.34	49.15
605.49	11.70
605.65	81.92
605.80	23.41
605.96	112.35
606.12	93.62
606.27	0.00
606.43	0.00
606.58	39.79
606.74	0.00
606.89	21.06
607.05	18.72
607.20	28.09
607.36	39.79
607.51	0.00
607.67	11.70
607.82	49.15
607.98	51.49
608.13	56.17
608.29	0.00
608.44	67.88
608.60	23.41
608.75	30.43
608.91	128.73
609.06	14.04
609.22	44.47
609.37	70.22
609.53	35.11
609.68	2.34
609.84	107.66
609.99	77.24
610.15	84.26
610.30	74.90
610.46	95.96
610.61	112.35
610.76	91.28
610.92	23.41
611.07	49.15
611.23	42.13
611.38	100.64
611.54	0.00
611.69	79.58
611.84	93.62
612.00	0.00
612.15	63.19
612.31	0.00
612.46	0.00
612.62	53.83
612.77	98.30
612.92	11.70
613.08	42.13
613.23	2.34
613.39	25.75
613.54	44.47
613.69	60.85
613.85	0.00
614.00	37.45
614.15	39.79
614.31	42.13
614.46	60.85
614.62	72.56
614.77	63.19
614.92	65.54
615.08	35.11
615.23	21.06
615.38	67.88
615.54	21.06
615.69	86.60
615.84	21.06
616.00	44.47
616.15	65.54
616.30	4.68
616.46	46.81
616.61	11.70
616.76	0.00
616.92	65.54
617.07	86.60
617.22	39.79
617.37	4.68
617.53	25.75
617.68	0.00
617.83	88.94
617.99	11.70
618.14	30.43
618.29	18.72
618.45	86.60
618.60	0.00
618.75	32.77
618.90	0.00
619.06	39.79
619.21	100.64
619.36	28.09
619.51	32.77
619.67	0.00
619.82	60.85
619.97	0.00
620.12	14.04
620.28	88.94
620.43	58.51
620.58	28.09
620.73	107.66
620.89	35.11
621.04	65.54
621.19	14.04
621.34	79.58
621.49	35.11
621.65	42.13
621.80	42.13
621.95	18.72
622.10	0.00
622.25	30.43
622.41	126.39
622.56	14.04
622.71	44.47
622.86	56.17
623.01	4.68
623.16	25.75
623.32	42.13
623.47	58.51
623.62	4.68
623.77	63.19
623.92	11.70
624.07	0.00
624.23	9.36
624.38	0.00
624.53	0.00
624.68	14.04
624.83	2.34
624.98	98.30
625.13	53.83
625.29	79.58
625.44	11.70
625.59	58.51
625.74	91.28
625.89	105.32
626.04	65.54
626.19	133.41
626.34	42.13
626.49	37.45
626.65	53.83
626.80	56.17
626.95	65.54
627.10	60.85
627.25	86.60
627.40	42.13
627.55	23.41
627.70	58.51
627.85	0.00
628.00	65.54
628.15	56.17
628.30	102.98
628.45	79.58
628.60	46.81
628.76	21.06
628.91	51.49
629.06	112.35
629.21	30.43
629.36	35.11
629.51	100.64
629.66	35.11
629.81	14.04
629.96	4.68
630.11	23.41
630.26	37.45
630.41	39.79
630.56	44.47
630.71	0.00
630.86	35.11
631.01	0.00
631.16	16.38
631.31	0.00
631.46	21.06
631.61	16.38
631.76	51.49
631.91	79.58
632.06	4.68
632.21	119.37
632.36	30.43
632.51	56.17
632.66	74.90
632.81	35.11
632.96	39.79
633.10	65.54
633.25	23.41
633.40	70.22
633.55	0.00
633.70	0.00
633.85	7.02
634.00	0.00
634.15	46.81
634.30	18.72
634.45	23.41
634.60	18.72
634.75	23.41
634.90	102.98
635.05	0.00
635.19	0.00
635.34	35.11
635.49	65.54
635.64	126.39
635.79	70.22
635.94	21.06
636.09	4.68
636.24	0.00
636.39	0.00
636.53	39.79
636.68	49.15
636.83	11.70
636.98	49.15
637.13	0.00
637.28	81.92
637.43	25.75
637.57	42.13
637.72	86.60
637.87	67.88
638.02	16.38
638.17	102.98
638.32	44.47
638.46	56.17
638.61	65.54
638.76	16.38
638.91	2.34
639.06	28.09
639.20	0.00
639.35	35.11
639.50	0.00
639.65	81.92
639.80	32.77
639.94	84.26
640.09	60.85
640.24	105.32
640.39	51.49
640.54	37.45
640.68	46.81
640.83	2.34
640.98	25.75
641.13	0.00
641.27	0.00
641.42	42.13
641.57	63.19
641.72	18.72
641.86	53.83
642.01	70.22
642.16	91.28
642.31	0.00
642.45	84.26
642.60	25.75
642.75	0.00
642.90	105.32
643.04	86.60
643.19	84.26
643.34	74.90
643.48	35.11
643.63	21.06
643.78	37.45
643.93	0.00
644.07	18.72
644.22	98.30
644.37	0.00
644.51	44.47
644.66	37.45
644.81	0.00
644.95	67.88
645.10	72.56
645.25	18.72
645.39	49.15
645.54	0.00
645.69	46.81
645.83	0.00
645.98	124.05
646.13	18.72
646.27	21.06
646.42	7.02
646.57	65.54
646.71	0.00
646.86	0.00
647.00	0.00
647.15	0.00
647.30	72.56
647.44	16.38
647.59	53.83
647.74	63.19
647.88	95.96
648.03	0.00
648.17	11.70
648.32	28.09
648.47	95.96
648.61	58.51
648.76	67.88
648.90	0.00
649.05	63.19
649.20	0.00
649.34	70.22
649.49	46.81
649.63	81.92
649.78	28.09
649.92	4.68
650.07	30.43
650.21	16.38
650.36	0.00
650.51	0.00
650.65	9.36
650.80	117.03
650.94	42.13
651.09	72.56
651.23	84.26
651.38	56.17
651.52	42.13
651.67	0.00
651.81	65.54
651.96	60.85
652.10	0.00
652.25	11.70
652.39	25.75
652.54	0.00
652.68	86.60
652.83	53.83
652.97	35.11
653.12	58.51
653.26	126.39
653.41	28.09
653.55	102.98
653.70	0.00
653.84	32.77
653.99	39.79
654.13	65.54
654.27	42.13
654.42	42.13
654.56	79.58
654.71	63.19
654.85	28.09
655.00	53.83
655.14	37.45
655.29	67.88
655.43	37.45
655.57	63.19
655.72	81.92
655.86	56.17
656.01	9.36
656.15	0.00
656.30	9.36
656.44	44.47
656.58	46.81
656.73	49.15
656.87	58.51
657.01	98.30
657.16	72.56
657.30	4.68
657.45	60.85
657.59	105.32
657.73	74.90
657.88	53.83
658.02	70.22
658.16	42.13
658.31	65.54
658.45	60.85
658.60	9.36
658.74	42.13
658.88	60.85
659.03	0.00
659.17	32.77
659.31	4.68
659.46	4.68
659.60	0.00
659.74	32.77
659.89	56.17
660.03	93.62
660.17	63.19
660.32	53.83
660.46	72.56
660.60	53.83
660.74	60.85
660.89	63.19
661.03	95.96
661.17	28.09
661.32	0.00
661.46	21.06
661.60	28.09
661.74	11.70
661.89	46.81
662.03	112.35
662.17	0.00
662.31	16.38
662.46	0.00
662.60	81.92
662.74	49.15
662.88	0.00
663.03	23.41
663.17	44.47
663.31	39.79
663.45	39.79
663.60	93.62
663.74	49.15
663.88	0.00
664.02	28.09
664.17	9.36
664.31	39.79
664.45	58.51
664.59	49.15
664.73	42.13
664.88	11.70
665.02	53.83
665.16	42.13
665.30	25.75
665.44	37.45
665.59	51.49
665.73	37.45
665.87	35.11
666.01	0.00
666.15	37.45
666.29	53.83
666.44	63.19
666.58	14.04
666.72	44.47
666.86	56.17
667.00	23.41
667.14	28.09
667.28	0.00
667.43	21.06
667.57	9.36
667.71	0.00
667.85	23.41
667.99	112.35
668.13	81.92
668.27	67.88
668.41	21.06
668.56	53.83
668.70	46.81
668.84	32.77
668.98	14.04
669.12	0.00
669.26	0.00
669.40	42.13
669.54	133.41
669.68	51.49
669.82	42.13
669.96	65.54
670.10	0.00
670.25	0.00
670.39	14.04
670.53	37.45
670.67	9.36
670.81	0.00
670.95	0.00
671.09	37.45
671.23	84.26
671.37	23.41
671.51	16.38
671.65	46.81
671.79	0.00
671.93	51.49
672.07	2.34
672.21	60.85
672.35	93.62
672.49	30.43
672.63	21.06
672.77	63.19
672.91	30.43
673.05	93.62
673.19	0.00
673.33	32.77
673.47	25.75
673.61	74.90
673.75	32.77
673.89	0.00
674.03	0.00
674.17	4.68
674.31	0.00
674.45	11.70
674.59	91.28
674.73	25.75
674.87	0.00
675.01	28.09
675.15	72.56
675.29	81.92
675.43	63.19
675.56	128.73
675.70	37.45
675.84	53.83
675.98	42.13
676.12	0.00
676.26	86.60
676.40	53.83
676.54	0.00
676.68	9.36
676.82	53.83
676.96	0.00
677.10	0.00
677.23	0.00
677.37	0.00
677.51	0.00
677.65	0.00
677.79	72.56
677.93	63.19
678.07	28.09
678.21	21.06
678.34	11.70
678.48	25.75
678.62	53.83
678.76	16.38
678.90	14.04
679.04	74.90
679.18	79.58
679.31	30.43
679.45	65.54
679.59	121.71
679.73	32.77
679.87	11.70
680.00	81.92
680.14	0.00
680.28	70.22
680.42	18.72
680.56	51.49
680.70	53.83
680.83	42.13
680.97	37.45
681.11	23.41
681.25	63.19
681.39	25.75
681.52	28.09
681.66	46.81
681.80	93.62
681.94	16.38
682.07	0.00
682.21	79.58
682.35	37.45
682.49	2.34
682.62	0.00
682.76	0.00
682.90	88.94
683.04	35.11
683.17	86.60
683.31	0.00
683.45	21.06
683.59	51.49
683.72	0.00
683.86	14.04
684.00	0.00
684.13	46.81
684.27	0.00
684.41	51.49
684.55	100.64
684.68	70.22
684.82	16.38
684.96	39.79
685.09	35.11
685.23	0.00
685.37	0.00
685.50	25.75
685.64	79.58
685.78	77.24
685.91	105.32
686.05	9.36
686.19	25.75
686.32	32.77
686.46	23.41
686.60	0.00
686.73	56.17
686.87	53.83
687.01	0.00
687.14	0.00
687.28	11.70
687.42	42.13
687.55	42.13
687.69	14.04
687.82	18.72
687.96	51.49
688.10	11.70
688.23	28.09
688.37	25.75
688.50	46.81
688.64	42.13
688.78	7.02
688.91	0.00
689.05	28.09
689.18	32.77
689.32	42.13
689.46	35.11
689.59	67.88
689.73	58.51
689.86	35.11
690.00	72.56
690.13	51.49
690.27	14.04
690.41	53.83
690.54	30.43
690.68	49.15
690.81	28.09
690.95	37.45
691.08	16.38
691.22	0.00
691.35	37.45
691.49	72.56
691.62	9.36
691.76	110.01
691.89	2.34
692.03	0.00
692.16	42.13
692.30	16.38
692.43	72.56
692.57	0.00
692.70	0.00
692.84	39.79
692.97	65.54
693.11	117.03
693.24	39.79
693.38	0.00
693.51	0.00
693.65	86.60
693.78	49.15
693.92	0.00
694.05	0.00
694.19	70.22
694.32	37.45
694.45	0.00
694.59	0.00
694.72	51.49
694.86	9.36
694.99	0.00
695.13	0.00
695.26	93.62
695.39	0.00
695.53	46.81
695.66	72.56
695.80	58.51
695.93	110.01
696.07	35.11
696.20	30.43
696.33	65.54
696.47	25.75
696.60	72.56
696.73	63.19
696.87	11.70
697.00	42.13
697.14	11.70
697.27	18.72
697.40	51.49
697.54	51.49
697.67	58.51
697.80	39.79
697.94	65.54
698.07	105.32
698.21	14.04
698.34	77.24
698.47	67.88
698.61	56.17
698.74	95.96
698.87	11.70
699.01	0.00
699.14	0.00
699.27	65.54
699.40	58.51
699.54	11.70
699.67	4.68
699.80	42.13
699.94	51.49
700.07	56.17
700.20	65.54
700.34	16.38
700.47	0.00
700.60	4.68
700.73	0.00
700.87	91.28
701.00	93.62
701.13	9.36
701.26	18.72
701.40	0.00
701.53	42.13
701.66	0.00
701.79	0.00
701.93	0.00
702.06	58.51
702.19	21.06
702.32	46.81
702.46	84.26
702.59	0.00
702.72	0.00
702.85	0.00
702.99	0.00
703.12	63.19
703.25	37.45
703.38	74.90
703.51	46.81
703.65	46.81
703.78	51.49
703.91	23.41
704.04	98.30
704.17	30.43
704.31	11.70
704.44	28.09
704.57	30.43
704.70	37.45
704.83	25.75
704.96	74.90
705.10	18.72
705.23	30.43
>>>>>End Processed Spectral Data<<<<<
