SpectraSuite Data File
++++++++++++++++++++++++++++++++++++
Date: Fri Oct 04 12:13:41 GMT-05:00 2013
User: price-jones
Dark Spectrum Present: No
Reference Spectrum Present: No
Number of Sampled Component Spectra: 1
Spectrometers: USB2+H05261
Integration Time (usec): 10000 (USB2+H05261)
Spectra Averaged: 1 (USB2+H05261)
Boxcar Smoothing: 0 (USB2+H05261)
Correct for Electrical Dark: No (USB2+H05261)
Strobe/Lamp Enabled: No (USB2+H05261)
Correct for Detector Non-linearity: No (USB2+H05261)
Correct for Stray Light: No (USB2+H05261)
Number of Pixels in Processed Spectrum: 2048
>>>>>Begin Processed Spectral Data<<<<<
365.73	0.00
365.92	0.00
366.12	0.00
366.32	0.00
366.52	0.00
366.72	0.00
366.91	0.00
367.11	0.00
367.31	0.00
367.51	0.00
367.70	0.00
367.90	0.00
368.10	0.00
368.30	0.00
368.49	0.00
368.69	0.00
368.89	0.00
369.09	0.00
369.28	0.00
369.48	0.00
369.68	0.00
369.87	0.00
370.07	0.00
370.27	0.00
370.47	0.00
370.66	0.00
370.86	0.00
371.06	0.00
371.25	0.00
371.45	0.00
371.65	0.00
371.84	11.70
372.04	16.38
372.24	7.02
372.44	0.00
372.63	0.00
372.83	28.09
373.03	16.38
373.22	77.24
373.42	53.83
373.62	4.68
373.81	28.09
374.01	58.51
374.21	42.13
374.40	49.15
374.60	42.13
374.79	9.36
374.99	9.36
375.19	4.68
375.38	14.04
375.58	0.00
375.78	18.72
375.97	51.49
376.17	7.02
376.37	0.00
376.56	81.92
376.76	70.22
376.95	0.00
377.15	23.41
377.35	0.00
377.54	0.00
377.74	32.77
377.93	0.00
378.13	32.77
378.33	39.79
378.52	42.13
378.72	56.17
378.91	30.43
379.11	25.75
379.31	9.36
379.50	0.00
379.70	39.79
379.89	0.00
380.09	23.41
380.28	65.54
380.48	49.15
380.68	0.00
380.87	0.00
381.07	44.47
381.26	0.00
381.46	0.00
381.65	79.58
381.85	0.00
382.04	2.34
382.24	30.43
382.43	49.15
382.63	4.68
382.83	49.15
383.02	2.34
383.22	63.19
383.41	42.13
383.61	0.00
383.80	0.00
384.00	46.81
384.19	25.75
384.39	0.00
384.58	32.77
384.78	16.38
384.97	11.70
385.17	98.30
385.36	0.00
385.56	0.00
385.75	44.47
385.95	35.11
386.14	39.79
386.34	14.04
386.53	0.00
386.72	9.36
386.92	0.00
387.11	46.81
387.31	0.00
387.50	0.00
387.70	11.70
387.89	51.49
388.09	0.00
388.28	39.79
388.48	93.62
388.67	60.85
388.86	0.00
389.06	42.13
389.25	0.00
389.45	30.43
389.64	42.13
389.84	23.41
390.03	0.00
390.22	16.38
390.42	49.15
390.61	0.00
390.81	0.00
391.00	2.34
391.19	23.41
391.39	0.00
391.58	0.00
391.78	23.41
391.97	25.75
392.16	46.81
392.36	86.60
392.55	65.54
392.75	18.72
392.94	53.83
393.13	0.00
393.33	53.83
393.52	0.00
393.71	0.00
393.91	0.00
394.10	0.00
394.29	0.00
394.49	21.06
394.68	46.81
394.88	98.30
395.07	23.41
395.26	0.00
395.46	32.77
395.65	0.00
395.84	44.47
396.04	18.72
396.23	42.13
396.42	65.54
396.62	28.09
396.81	16.38
397.00	28.09
397.19	0.00
397.39	14.04
397.58	23.41
397.77	28.09
397.97	0.00
398.16	72.56
398.35	91.28
398.55	114.69
398.74	28.09
398.93	25.75
399.12	7.02
399.32	11.70
399.51	49.15
399.70	0.00
399.90	49.15
400.09	60.85
400.28	0.00
400.47	67.88
400.67	2.34
400.86	25.75
401.05	39.79
401.24	0.00
401.44	11.70
401.63	0.00
401.82	42.13
402.01	35.11
402.21	42.13
402.40	0.00
402.59	21.06
402.78	30.43
402.97	0.00
403.17	74.90
403.36	58.51
403.55	58.51
403.74	32.77
403.93	35.11
404.13	37.45
404.32	67.88
404.51	46.81
404.70	0.00
404.89	88.94
405.09	46.81
405.28	0.00
405.47	0.00
405.66	0.00
405.85	23.41
406.05	0.00
406.24	58.51
406.43	16.38
406.62	58.51
406.81	51.49
407.00	81.92
407.20	14.04
407.39	79.58
407.58	14.04
407.77	0.00
407.96	23.41
408.15	14.04
408.34	58.51
408.54	35.11
408.73	46.81
408.92	121.71
409.11	28.09
409.30	79.58
409.49	0.00
409.68	65.54
409.87	65.54
410.07	100.64
410.26	79.58
410.45	84.26
410.64	23.41
410.83	0.00
411.02	28.09
411.21	72.56
411.40	44.47
411.59	63.19
411.78	18.72
411.98	4.68
412.17	46.81
412.36	39.79
412.55	25.75
412.74	0.00
412.93	63.19
413.12	51.49
413.31	46.81
413.50	35.11
413.69	18.72
413.88	77.24
414.07	37.45
414.26	0.00
414.45	23.41
414.64	42.13
414.83	2.34
415.02	23.41
415.22	39.79
415.41	0.00
415.60	0.00
415.79	37.45
415.98	100.64
416.17	102.98
416.36	112.35
416.55	23.41
416.74	60.85
416.93	72.56
417.12	16.38
417.31	84.26
417.50	74.90
417.69	32.77
417.88	49.15
418.07	51.49
418.26	28.09
418.45	56.17
418.64	42.13
418.83	60.85
419.02	0.00
419.21	60.85
419.39	72.56
419.58	98.30
419.77	0.00
419.96	56.17
420.15	14.04
420.34	51.49
420.53	95.96
420.72	0.00
420.91	32.77
421.10	18.72
421.29	16.38
421.48	16.38
421.67	53.83
421.86	21.06
422.05	0.00
422.24	0.00
422.43	46.81
422.61	30.43
422.80	51.49
422.99	56.17
423.18	28.09
423.37	91.28
423.56	0.00
423.75	72.56
423.94	65.54
424.13	70.22
424.32	23.41
424.50	23.41
424.69	46.81
424.88	2.34
425.07	67.88
425.26	46.81
425.45	88.94
425.64	72.56
425.83	51.49
426.01	65.54
426.20	0.00
426.39	21.06
426.58	0.00
426.77	11.70
426.96	70.22
427.15	0.00
427.33	21.06
427.52	23.41
427.71	18.72
427.90	2.34
428.09	0.00
428.28	65.54
428.46	0.00
428.65	21.06
428.84	58.51
429.03	23.41
429.22	11.70
429.40	2.34
429.59	9.36
429.78	28.09
429.97	51.49
430.16	30.43
430.34	32.77
430.53	0.00
430.72	79.58
430.91	46.81
431.10	42.13
431.28	0.00
431.47	0.00
431.66	67.88
431.85	0.00
432.03	25.75
432.22	30.43
432.41	0.00
432.60	117.03
432.79	58.51
432.97	0.00
433.16	53.83
433.35	0.00
433.54	110.01
433.72	21.06
433.91	18.72
434.10	14.04
434.28	72.56
434.47	107.66
434.66	23.41
434.85	67.88
435.03	49.15
435.22	46.81
435.41	42.13
435.59	42.13
435.78	46.81
435.97	11.70
436.16	42.13
436.34	28.09
436.53	46.81
436.72	32.77
436.90	28.09
437.09	0.00
437.28	18.72
437.46	46.81
437.65	79.58
437.84	88.94
438.02	51.49
438.21	49.15
438.40	0.00
438.58	65.54
438.77	65.54
438.96	4.68
439.14	88.94
439.33	37.45
439.52	102.98
439.70	56.17
439.89	53.83
440.08	58.51
440.26	18.72
440.45	56.17
440.63	110.01
440.82	56.17
441.01	0.00
441.19	95.96
441.38	46.81
441.57	46.81
441.75	84.26
441.94	112.35
442.12	0.00
442.31	51.49
442.50	56.17
442.68	81.92
442.87	4.68
443.05	32.77
443.24	53.83
443.43	88.94
443.61	98.30
443.80	49.15
443.98	88.94
444.17	114.69
444.35	2.34
444.54	11.70
444.73	74.90
444.91	46.81
445.10	98.30
445.28	42.13
445.47	16.38
445.65	58.51
445.84	156.82
446.02	42.13
446.21	0.00
446.39	74.90
446.58	81.92
446.77	110.01
446.95	28.09
447.14	72.56
447.32	35.11
447.51	56.17
447.69	91.28
447.88	95.96
448.06	51.49
448.25	84.26
448.43	107.66
448.62	72.56
448.80	46.81
448.99	0.00
449.17	70.22
449.36	91.28
449.54	98.30
449.73	37.45
449.91	44.47
450.10	30.43
450.28	88.94
450.46	25.75
450.65	81.92
450.83	0.00
451.02	16.38
451.20	77.24
451.39	0.00
451.57	35.11
451.76	30.43
451.94	49.15
452.13	28.09
452.31	117.03
452.49	93.62
452.68	49.15
452.86	25.75
453.05	44.47
453.23	86.60
453.42	119.37
453.60	49.15
453.78	81.92
453.97	53.83
454.15	51.49
454.34	49.15
454.52	154.48
454.70	72.56
454.89	124.05
455.07	2.34
455.26	119.37
455.44	88.94
455.62	74.90
455.81	117.03
455.99	53.83
456.17	131.07
456.36	72.56
456.54	58.51
456.73	67.88
456.91	25.75
457.09	81.92
457.28	63.19
457.46	74.90
457.64	32.77
457.83	105.32
458.01	81.92
458.19	0.00
458.38	63.19
458.56	133.41
458.74	30.43
458.93	65.54
459.11	79.58
459.29	0.00
459.48	35.11
459.66	4.68
459.84	49.15
460.03	56.17
460.21	70.22
460.39	65.54
460.57	88.94
460.76	70.22
460.94	63.19
461.12	16.38
461.31	14.04
461.49	91.28
461.67	65.54
461.85	84.26
462.04	121.71
462.22	112.35
462.40	126.39
462.59	60.85
462.77	93.62
462.95	100.64
463.13	42.13
463.32	44.47
463.50	102.98
463.68	0.00
463.86	28.09
464.05	37.45
464.23	93.62
464.41	88.94
464.59	72.56
464.78	102.98
464.96	102.98
465.14	60.85
465.32	0.00
465.50	32.77
465.69	51.49
465.87	72.56
466.05	67.88
466.23	86.60
466.41	63.19
466.60	95.96
466.78	84.26
466.96	53.83
467.14	58.51
467.32	100.64
467.51	46.81
467.69	107.66
467.87	88.94
468.05	65.54
468.23	67.88
468.41	18.72
468.60	95.96
468.78	53.83
468.96	44.47
469.14	77.24
469.32	152.13
469.50	4.68
469.69	18.72
469.87	56.17
470.05	42.13
470.23	63.19
470.41	70.22
470.59	67.88
470.77	56.17
470.95	72.56
471.14	60.85
471.32	49.15
471.50	39.79
471.68	49.15
471.86	53.83
472.04	58.51
472.22	0.00
472.40	65.54
472.58	161.50
472.77	145.11
472.95	84.26
473.13	79.58
473.31	42.13
473.49	95.96
473.67	44.47
473.85	95.96
474.03	124.05
474.21	53.83
474.39	16.38
474.57	25.75
474.75	42.13
474.93	0.00
475.12	32.77
475.30	46.81
475.48	86.60
475.66	46.81
475.84	65.54
476.02	28.09
476.20	93.62
476.38	60.85
476.56	70.22
476.74	46.81
476.92	77.24
477.10	88.94
477.28	72.56
477.46	105.32
477.64	60.85
477.82	105.32
478.00	56.17
478.18	77.24
478.36	84.26
478.54	14.04
478.72	58.51
478.90	98.30
479.08	60.85
479.26	44.47
479.44	84.26
479.62	102.98
479.80	88.94
479.98	77.24
480.16	70.22
480.34	35.11
480.52	49.15
480.70	107.66
480.88	114.69
481.06	72.56
481.24	72.56
481.41	11.70
481.59	72.56
481.77	18.72
481.95	18.72
482.13	39.79
482.31	100.64
482.49	4.68
482.67	77.24
482.85	46.81
483.03	67.88
483.21	25.75
483.39	74.90
483.57	25.75
483.74	88.94
483.92	72.56
484.10	11.70
484.28	74.90
484.46	53.83
484.64	119.37
484.82	28.09
485.00	42.13
485.18	0.00
485.35	51.49
485.53	84.26
485.71	84.26
485.89	0.00
486.07	63.19
486.25	35.11
486.43	79.58
486.61	23.41
486.78	35.11
486.96	7.02
487.14	77.24
487.32	98.30
487.50	135.75
487.68	100.64
487.85	44.47
488.03	84.26
488.21	77.24
488.39	131.07
488.57	102.98
488.75	72.56
488.92	70.22
489.10	131.07
489.28	77.24
489.46	32.77
489.64	149.79
489.81	67.88
489.99	67.88
490.17	51.49
490.35	81.92
490.53	58.51
490.70	131.07
490.88	65.54
491.06	37.45
491.24	98.30
491.41	128.73
491.59	0.00
491.77	81.92
491.95	67.88
492.13	39.79
492.30	131.07
492.48	51.49
492.66	42.13
492.84	23.41
493.01	105.32
493.19	91.28
493.37	7.02
493.54	128.73
493.72	117.03
493.90	30.43
494.08	72.56
494.25	91.28
494.43	74.90
494.61	44.47
494.79	105.32
494.96	39.79
495.14	81.92
495.32	149.79
495.49	51.49
495.67	51.49
495.85	105.32
496.02	56.17
496.20	63.19
496.38	77.24
496.55	93.62
496.73	70.22
496.91	23.41
497.09	58.51
497.26	100.64
497.44	117.03
497.62	91.28
497.79	79.58
497.97	70.22
498.14	9.36
498.32	56.17
498.50	95.96
498.67	0.00
498.85	67.88
499.03	81.92
499.20	53.83
499.38	74.90
499.56	65.54
499.73	18.72
499.91	84.26
500.08	70.22
500.26	21.06
500.44	98.30
500.61	74.90
500.79	23.41
500.97	95.96
501.14	79.58
501.32	88.94
501.49	46.81
501.67	98.30
501.84	0.00
502.02	46.81
502.20	25.75
502.37	42.13
502.55	93.62
502.72	112.35
502.90	114.69
503.07	86.60
503.25	117.03
503.43	93.62
503.60	86.60
503.78	9.36
503.95	79.58
504.13	84.26
504.30	88.94
504.48	25.75
504.65	37.45
504.83	128.73
505.01	119.37
505.18	32.77
505.36	81.92
505.53	21.06
505.71	30.43
505.88	65.54
506.06	65.54
506.23	63.19
506.41	93.62
506.58	147.45
506.76	4.68
506.93	0.00
507.11	58.51
507.28	39.79
507.46	95.96
507.63	119.37
507.81	79.58
507.98	79.58
508.16	112.35
508.33	147.45
508.50	138.09
508.68	91.28
508.85	147.45
509.03	77.24
509.20	39.79
509.38	77.24
509.55	117.03
509.73	102.98
509.90	37.45
510.08	58.51
510.25	58.51
510.42	46.81
510.60	18.72
510.77	77.24
510.95	84.26
511.12	14.04
511.30	39.79
511.47	86.60
511.64	133.41
511.82	77.24
511.99	65.54
512.17	133.41
512.34	88.94
512.51	140.43
512.69	95.96
512.86	81.92
513.04	72.56
513.21	56.17
513.38	74.90
513.56	124.05
513.73	110.01
513.90	93.62
514.08	133.41
514.25	56.17
514.43	86.60
514.60	58.51
514.77	91.28
514.95	110.01
515.12	84.26
515.29	98.30
515.47	117.03
515.64	114.69
515.81	46.81
515.99	126.39
516.16	86.60
516.33	65.54
516.51	30.43
516.68	63.19
516.85	56.17
517.03	93.62
517.20	46.81
517.37	37.45
517.54	60.85
517.72	0.00
517.89	100.64
518.06	77.24
518.24	98.30
518.41	95.96
518.58	81.92
518.75	110.01
518.93	21.06
519.10	135.75
519.27	100.64
519.45	140.43
519.62	131.07
519.79	84.26
519.96	56.17
520.14	140.43
520.31	110.01
520.48	77.24
520.65	88.94
520.83	77.24
521.00	32.77
521.17	56.17
521.34	72.56
521.52	107.66
521.69	126.39
521.86	44.47
522.03	16.38
522.20	23.41
522.38	84.26
522.55	42.13
522.72	63.19
522.89	44.47
523.07	79.58
523.24	42.13
523.41	112.35
523.58	16.38
523.75	119.37
523.92	74.90
524.10	79.58
524.27	112.35
524.44	56.17
524.61	72.56
524.78	133.41
524.96	79.58
525.13	95.96
525.30	114.69
525.47	95.96
525.64	88.94
525.81	128.73
525.98	154.48
526.16	98.30
526.33	98.30
526.50	84.26
526.67	0.00
526.84	28.09
527.01	0.00
527.18	70.22
527.36	128.73
527.53	56.17
527.70	105.32
527.87	49.15
528.04	95.96
528.21	63.19
528.38	63.19
528.55	112.35
528.72	60.85
528.89	65.54
529.07	11.70
529.24	102.98
529.41	56.17
529.58	140.43
529.75	23.41
529.92	74.90
530.09	4.68
530.26	84.26
530.43	0.00
530.60	81.92
530.77	126.39
530.94	74.90
531.11	145.11
531.28	133.41
531.46	84.26
531.63	74.90
531.80	37.45
531.97	30.43
532.14	65.54
532.31	74.90
532.48	121.71
532.65	77.24
532.82	79.58
532.99	95.96
533.16	117.03
533.33	133.41
533.50	112.35
533.67	23.41
533.84	112.35
534.01	70.22
534.18	56.17
534.35	81.92
534.52	114.69
534.69	93.62
534.86	46.81
535.03	72.56
535.20	79.58
535.37	133.41
535.54	93.62
535.71	105.32
535.88	189.58
536.05	32.77
536.22	51.49
536.38	58.51
536.55	102.98
536.72	72.56
536.89	67.88
537.06	112.35
537.23	58.51
537.40	88.94
537.57	77.24
537.74	86.60
537.91	79.58
538.08	37.45
538.25	77.24
538.42	117.03
538.59	119.37
538.75	102.98
538.92	60.85
539.09	93.62
539.26	114.69
539.43	79.58
539.60	124.05
539.77	74.90
539.94	44.47
540.11	65.54
540.28	58.51
540.44	28.09
540.61	74.90
540.78	105.32
540.95	102.98
541.12	114.69
541.29	93.62
541.46	72.56
541.62	56.17
541.79	46.81
541.96	70.22
542.13	39.79
542.30	124.05
542.47	39.79
542.63	4.68
542.80	0.00
542.97	72.56
543.14	74.90
543.31	135.75
543.48	46.81
543.64	88.94
543.81	37.45
543.98	67.88
544.15	37.45
544.32	35.11
544.48	65.54
544.65	124.05
544.82	0.00
544.99	154.48
545.16	117.03
545.32	74.90
545.49	102.98
545.66	70.22
545.83	14.04
546.00	95.96
546.16	138.09
546.33	84.26
546.50	84.26
546.67	187.24
546.83	128.73
547.00	70.22
547.17	35.11
547.34	39.79
547.50	140.43
547.67	35.11
547.84	102.98
548.00	138.09
548.17	65.54
548.34	84.26
548.51	56.17
548.67	105.32
548.84	63.19
549.01	72.56
549.18	119.37
549.34	133.41
549.51	74.90
549.68	21.06
549.84	23.41
550.01	53.83
550.18	86.60
550.34	53.83
550.51	9.36
550.68	49.15
550.84	53.83
551.01	102.98
551.18	21.06
551.34	72.56
551.51	84.26
551.68	117.03
551.84	74.90
552.01	63.19
552.18	81.92
552.34	0.00
552.51	67.88
552.68	105.32
552.84	121.71
553.01	163.84
553.18	51.49
553.34	56.17
553.51	74.90
553.67	53.83
553.84	140.43
554.01	84.26
554.17	93.62
554.34	112.35
554.51	74.90
554.67	60.85
554.84	105.32
555.00	110.01
555.17	107.66
555.33	102.98
555.50	110.01
555.67	42.13
555.83	107.66
556.00	107.66
556.16	72.56
556.33	53.83
556.50	32.77
556.66	56.17
556.83	124.05
556.99	72.56
557.16	37.45
557.32	117.03
557.49	93.62
557.65	128.73
557.82	74.90
557.98	110.01
558.15	156.82
558.32	70.22
558.48	16.38
558.65	81.92
558.81	91.28
558.98	72.56
559.14	93.62
559.31	84.26
559.47	149.79
559.64	91.28
559.80	63.19
559.97	126.39
560.13	149.79
560.30	156.82
560.46	42.13
560.63	91.28
560.79	135.75
560.96	30.43
561.12	39.79
561.29	100.64
561.45	16.38
561.61	119.37
561.78	86.60
561.94	107.66
562.11	105.32
562.27	77.24
562.44	58.51
562.60	65.54
562.77	65.54
562.93	72.56
563.10	67.88
563.26	74.90
563.42	91.28
563.59	100.64
563.75	84.26
563.92	84.26
564.08	95.96
564.24	105.32
564.41	100.64
564.57	74.90
564.74	91.28
564.90	105.32
565.07	79.58
565.23	81.92
565.39	44.47
565.56	67.88
565.72	21.06
565.88	100.64
566.05	77.24
566.21	60.85
566.38	37.45
566.54	84.26
566.70	56.17
566.87	67.88
567.03	93.62
567.19	91.28
567.36	86.60
567.52	65.54
567.68	86.60
567.85	121.71
568.01	107.66
568.17	58.51
568.34	105.32
568.50	100.64
568.66	74.90
568.83	126.39
568.99	63.19
569.15	63.19
569.32	110.01
569.48	107.66
569.64	81.92
569.81	58.51
569.97	93.62
570.13	135.75
570.30	79.58
570.46	21.06
570.62	58.51
570.78	84.26
570.95	2.34
571.11	93.62
571.27	121.71
571.43	84.26
571.60	135.75
571.76	30.43
571.92	84.26
572.09	84.26
572.25	44.47
572.41	14.04
572.57	152.13
572.74	4.68
572.90	135.75
573.06	28.09
573.22	21.06
573.38	152.13
573.55	32.77
573.71	39.79
573.87	88.94
574.03	65.54
574.20	107.66
574.36	86.60
574.52	67.88
574.68	65.54
574.84	51.49
575.01	49.15
575.17	49.15
575.33	72.56
575.49	58.51
575.65	42.13
575.82	100.64
575.98	91.28
576.14	105.32
576.30	11.70
576.46	44.47
576.62	110.01
576.79	21.06
576.95	140.43
577.11	44.47
577.27	51.49
577.43	102.98
577.59	7.02
577.75	35.11
577.92	91.28
578.08	46.81
578.24	93.62
578.40	77.24
578.56	91.28
578.72	44.47
578.88	117.03
579.04	128.73
579.21	65.54
579.37	74.90
579.53	107.66
579.69	147.45
579.85	91.28
580.01	135.75
580.17	74.90
580.33	14.04
580.49	30.43
580.65	114.69
580.82	145.11
580.98	84.26
581.14	74.90
581.30	28.09
581.46	98.30
581.62	11.70
581.78	11.70
581.94	51.49
582.10	67.88
582.26	121.71
582.42	79.58
582.58	91.28
582.74	119.37
582.90	35.11
583.06	95.96
583.22	16.38
583.38	93.62
583.54	110.01
583.70	72.56
583.86	49.15
584.02	105.32
584.18	46.81
584.34	84.26
584.50	107.66
584.66	65.54
584.82	39.79
584.98	79.58
585.14	95.96
585.30	37.45
585.46	32.77
585.62	107.66
585.78	114.69
585.94	105.32
586.10	77.24
586.26	11.70
586.42	60.85
586.58	91.28
586.74	74.90
586.90	46.81
587.06	74.90
587.22	56.17
587.38	138.09
587.54	0.00
587.70	18.72
587.86	86.60
588.02	14.04
588.18	79.58
588.34	86.60
588.49	0.00
588.65	95.96
588.81	67.88
588.97	58.51
589.13	37.45
589.29	25.75
589.45	32.77
589.61	65.54
589.77	121.71
589.93	100.64
590.08	49.15
590.24	37.45
590.40	44.47
590.56	74.90
590.72	107.66
590.88	100.64
591.04	135.75
591.20	23.41
591.35	100.64
591.51	39.79
591.67	39.79
591.83	67.88
591.99	84.26
592.15	110.01
592.31	114.69
592.46	56.17
592.62	51.49
592.78	84.26
592.94	77.24
593.10	53.83
593.26	49.15
593.41	100.64
593.57	88.94
593.73	98.30
593.89	110.01
594.05	56.17
594.20	56.17
594.36	112.35
594.52	86.60
594.68	39.79
594.84	107.66
594.99	98.30
595.15	79.58
595.31	124.05
595.47	32.77
595.62	0.00
595.78	77.24
595.94	28.09
596.10	65.54
596.25	121.71
596.41	74.90
596.57	105.32
596.73	114.69
596.88	72.56
597.04	128.73
597.20	65.54
597.36	74.90
597.51	60.85
597.67	88.94
597.83	79.58
597.99	51.49
598.14	86.60
598.30	145.11
598.46	74.90
598.61	133.41
598.77	63.19
598.93	35.11
599.09	63.19
599.24	112.35
599.40	72.56
599.56	105.32
599.71	39.79
599.87	63.19
600.03	117.03
600.18	117.03
600.34	142.77
600.50	84.26
600.65	56.17
600.81	0.00
600.97	70.22
601.12	63.19
601.28	39.79
601.44	4.68
601.59	11.70
601.75	88.94
601.91	56.17
602.06	93.62
602.22	39.79
602.37	86.60
602.53	46.81
602.69	60.85
602.84	67.88
603.00	84.26
603.16	117.03
603.31	65.54
603.47	84.26
603.62	7.02
603.78	56.17
603.94	53.83
604.09	95.96
604.25	107.66
604.40	135.75
604.56	74.90
604.71	70.22
604.87	91.28
605.03	44.47
605.18	65.54
605.34	35.11
605.49	58.51
605.65	49.15
605.80	56.17
605.96	117.03
606.12	117.03
606.27	95.96
606.43	4.68
606.58	25.75
606.74	14.04
606.89	95.96
607.05	81.92
607.20	126.39
607.36	44.47
607.51	112.35
607.67	53.83
607.82	84.26
607.98	63.19
608.13	98.30
608.29	37.45
608.44	49.15
608.60	112.35
608.75	65.54
608.91	67.88
609.06	0.00
609.22	11.70
609.37	0.00
609.53	81.92
609.68	23.41
609.84	9.36
609.99	79.58
610.15	100.64
610.30	42.13
610.46	42.13
610.61	93.62
610.76	72.56
610.92	91.28
611.07	21.06
611.23	0.00
611.38	70.22
611.54	77.24
611.69	60.85
611.84	81.92
612.00	56.17
612.15	128.73
612.31	21.06
612.46	63.19
612.62	11.70
612.77	140.43
612.92	140.43
613.08	79.58
613.23	49.15
613.39	131.07
613.54	67.88
613.69	11.70
613.85	67.88
614.00	131.07
614.15	42.13
614.31	72.56
614.46	98.30
614.62	65.54
614.77	91.28
614.92	9.36
615.08	72.56
615.23	105.32
615.38	9.36
615.54	98.30
615.69	65.54
615.84	95.96
616.00	53.83
616.15	88.94
616.30	49.15
616.46	21.06
616.61	63.19
616.76	25.75
616.92	51.49
617.07	95.96
617.22	39.79
617.37	91.28
617.53	4.68
617.68	39.79
617.83	37.45
617.99	0.00
618.14	30.43
618.29	16.38
618.45	67.88
618.60	105.32
618.75	51.49
618.90	14.04
619.06	51.49
619.21	63.19
619.36	81.92
619.51	25.75
619.67	107.66
619.82	42.13
619.97	60.85
620.12	84.26
620.28	58.51
620.43	88.94
620.58	72.56
620.73	102.98
620.89	16.38
621.04	39.79
621.19	58.51
621.34	86.60
621.49	70.22
621.65	67.88
621.80	63.19
621.95	21.06
622.10	84.26
622.25	30.43
622.41	42.13
622.56	102.98
622.71	14.04
622.86	2.34
623.01	32.77
623.16	21.06
623.32	112.35
623.47	98.30
623.62	91.28
623.77	112.35
623.92	79.58
624.07	51.49
624.23	117.03
624.38	49.15
624.53	51.49
624.68	42.13
624.83	74.90
624.98	58.51
625.13	23.41
625.29	9.36
625.44	28.09
625.59	18.72
625.74	72.56
625.89	46.81
626.04	9.36
626.19	16.38
626.34	86.60
626.49	74.90
626.65	63.19
626.80	58.51
626.95	65.54
627.10	84.26
627.25	53.83
627.40	79.58
627.55	67.88
627.70	65.54
627.85	86.60
628.00	39.79
628.15	67.88
628.30	21.06
628.45	25.75
628.60	58.51
628.76	35.11
628.91	126.39
629.06	98.30
629.21	28.09
629.36	53.83
629.51	84.26
629.66	32.77
629.81	0.00
629.96	30.43
630.11	53.83
630.26	28.09
630.41	77.24
630.56	18.72
630.71	65.54
630.86	81.92
631.01	56.17
631.16	77.24
631.31	65.54
631.46	25.75
631.61	58.51
631.76	79.58
631.91	0.00
632.06	11.70
632.21	58.51
632.36	28.09
632.51	98.30
632.66	60.85
632.81	16.38
632.96	65.54
633.10	117.03
633.25	46.81
633.40	56.17
633.55	124.05
633.70	110.01
633.85	56.17
634.00	107.66
634.15	65.54
634.30	91.28
634.45	67.88
634.60	0.00
634.75	51.49
634.90	93.62
635.05	60.85
635.19	0.00
635.34	58.51
635.49	142.77
635.64	84.26
635.79	74.90
635.94	49.15
636.09	7.02
636.24	18.72
636.39	72.56
636.53	105.32
636.68	25.75
636.83	42.13
636.98	93.62
637.13	30.43
637.28	72.56
637.43	51.49
637.57	124.05
637.72	65.54
637.87	117.03
638.02	60.85
638.17	51.49
638.32	84.26
638.46	65.54
638.61	9.36
638.76	0.00
638.91	37.45
639.06	63.19
639.20	56.17
639.35	88.94
639.50	0.00
639.65	65.54
639.80	0.00
639.94	65.54
640.09	30.43
640.24	91.28
640.39	53.83
640.54	28.09
640.68	23.41
640.83	51.49
640.98	72.56
641.13	51.49
641.27	91.28
641.42	102.98
641.57	28.09
641.72	67.88
641.86	39.79
642.01	18.72
642.16	44.47
642.31	42.13
642.45	91.28
642.60	77.24
642.75	30.43
642.90	74.90
643.04	16.38
643.19	0.00
643.34	70.22
643.48	0.00
643.63	91.28
643.78	98.30
643.93	58.51
644.07	0.00
644.22	105.32
644.37	98.30
644.51	63.19
644.66	88.94
644.81	0.00
644.95	58.51
645.10	35.11
645.25	42.13
645.39	79.58
645.54	63.19
645.69	65.54
645.83	44.47
645.98	4.68
646.13	18.72
646.27	39.79
646.42	42.13
646.57	14.04
646.71	0.00
646.86	114.69
647.00	77.24
647.15	72.56
647.30	67.88
647.44	60.85
647.59	67.88
647.74	63.19
647.88	100.64
648.03	44.47
648.17	0.00
648.32	58.51
648.47	37.45
648.61	11.70
648.76	0.00
648.90	16.38
649.05	105.32
649.20	93.62
649.34	81.92
649.49	70.22
649.63	44.47
649.78	65.54
649.92	65.54
650.07	117.03
650.21	72.56
650.36	28.09
650.51	16.38
650.65	32.77
650.80	51.49
650.94	37.45
651.09	42.13
651.23	0.00
651.38	46.81
651.52	74.90
651.67	0.00
651.81	77.24
651.96	4.68
652.10	2.34
652.25	21.06
652.39	93.62
652.54	63.19
652.68	72.56
652.83	112.35
652.97	39.79
653.12	70.22
653.26	18.72
653.41	32.77
653.55	124.05
653.70	67.88
653.84	60.85
653.99	11.70
654.13	21.06
654.27	60.85
654.42	58.51
654.56	18.72
654.71	32.77
654.85	74.90
655.00	30.43
655.14	46.81
655.29	56.17
655.43	23.41
655.57	65.54
655.72	32.77
655.86	67.88
656.01	14.04
656.15	77.24
656.30	28.09
656.44	0.00
656.58	21.06
656.73	7.02
656.87	51.49
657.01	7.02
657.16	4.68
657.30	49.15
657.45	18.72
657.59	42.13
657.73	49.15
657.88	46.81
658.02	35.11
658.16	56.17
658.31	25.75
658.45	70.22
658.60	21.06
658.74	46.81
658.88	63.19
659.03	0.00
659.17	4.68
659.31	65.54
659.46	81.92
659.60	0.00
659.74	145.11
659.89	39.79
660.03	49.15
660.17	58.51
660.32	56.17
660.46	86.60
660.60	100.64
660.74	84.26
660.89	81.92
661.03	32.77
661.17	65.54
661.32	23.41
661.46	77.24
661.60	0.00
661.74	0.00
661.89	86.60
662.03	100.64
662.17	91.28
662.31	51.49
662.46	35.11
662.60	102.98
662.74	4.68
662.88	159.16
663.03	37.45
663.17	51.49
663.31	98.30
663.45	39.79
663.60	72.56
663.74	67.88
663.88	65.54
664.02	100.64
664.17	65.54
664.31	42.13
664.45	117.03
664.59	135.75
664.73	112.35
664.88	18.72
665.02	23.41
665.16	35.11
665.30	21.06
665.44	39.79
665.59	72.56
665.73	0.00
665.87	81.92
666.01	16.38
666.15	53.83
666.29	58.51
666.44	53.83
666.58	65.54
666.72	37.45
666.86	67.88
667.00	4.68
667.14	39.79
667.28	35.11
667.43	100.64
667.57	39.79
667.71	51.49
667.85	2.34
667.99	39.79
668.13	25.75
668.27	51.49
668.41	2.34
668.56	70.22
668.70	65.54
668.84	7.02
668.98	53.83
669.12	11.70
669.26	91.28
669.40	0.00
669.54	53.83
669.68	91.28
669.82	58.51
669.96	46.81
670.10	11.70
670.25	0.00
670.39	72.56
670.53	58.51
670.67	39.79
670.81	18.72
670.95	42.13
671.09	9.36
671.23	35.11
671.37	70.22
671.51	18.72
671.65	93.62
671.79	0.00
671.93	67.88
672.07	93.62
672.21	58.51
672.35	105.32
672.49	91.28
672.63	25.75
672.77	86.60
672.91	21.06
673.05	67.88
673.19	32.77
673.33	67.88
673.47	72.56
673.61	37.45
673.75	53.83
673.89	56.17
674.03	16.38
674.17	58.51
674.31	4.68
674.45	72.56
674.59	98.30
674.73	46.81
674.87	51.49
675.01	28.09
675.15	23.41
675.29	21.06
675.43	4.68
675.56	49.15
675.70	117.03
675.84	42.13
675.98	25.75
676.12	30.43
676.26	93.62
676.40	42.13
676.54	0.00
676.68	14.04
676.82	35.11
676.96	2.34
677.10	58.51
677.23	28.09
677.37	65.54
677.51	2.34
677.65	23.41
677.79	63.19
677.93	0.00
678.07	0.00
678.21	21.06
678.34	86.60
678.48	32.77
678.62	65.54
678.76	79.58
678.90	9.36
679.04	86.60
679.18	53.83
679.31	0.00
679.45	21.06
679.59	72.56
679.73	7.02
679.87	42.13
680.00	65.54
680.14	0.00
680.28	18.72
680.42	63.19
680.56	88.94
680.70	53.83
680.83	32.77
680.97	30.43
681.11	63.19
681.25	0.00
681.39	112.35
681.52	7.02
681.66	0.00
681.80	35.11
681.94	0.00
682.07	93.62
682.21	70.22
682.35	72.56
682.49	70.22
682.62	18.72
682.76	88.94
682.90	79.58
683.04	28.09
683.17	37.45
683.31	46.81
683.45	65.54
683.59	25.75
683.72	14.04
683.86	79.58
684.00	88.94
684.13	70.22
684.27	14.04
684.41	60.85
684.55	72.56
684.68	74.90
684.82	32.77
684.96	0.00
685.09	14.04
685.23	105.32
685.37	32.77
685.50	121.71
685.64	4.68
685.78	25.75
685.91	37.45
686.05	0.00
686.19	37.45
686.32	74.90
686.46	37.45
686.60	100.64
686.73	0.00
686.87	0.00
687.01	30.43
687.14	105.32
687.28	32.77
687.42	9.36
687.55	70.22
687.69	114.69
687.82	65.54
687.96	79.58
688.10	79.58
688.23	9.36
688.37	0.00
688.50	98.30
688.64	32.77
688.78	0.00
688.91	0.00
689.05	23.41
689.18	39.79
689.32	74.90
689.46	53.83
689.59	28.09
689.73	67.88
689.86	93.62
690.00	98.30
690.13	63.19
690.27	49.15
690.41	107.66
690.54	93.62
690.68	11.70
690.81	23.41
690.95	4.68
691.08	30.43
691.22	7.02
691.35	18.72
691.49	16.38
691.62	63.19
691.76	67.88
691.89	30.43
692.03	86.60
692.16	18.72
692.30	63.19
692.43	37.45
692.57	58.51
692.70	37.45
692.84	39.79
692.97	0.00
693.11	30.43
693.24	0.00
693.38	102.98
693.51	14.04
693.65	18.72
693.78	58.51
693.92	39.79
694.05	30.43
694.19	100.64
694.32	77.24
694.45	35.11
694.59	53.83
694.72	44.47
694.86	35.11
694.99	77.24
695.13	39.79
695.26	88.94
695.39	11.70
695.53	49.15
695.66	0.00
695.80	46.81
695.93	58.51
696.07	77.24
696.20	0.00
696.33	21.06
696.47	0.00
696.60	23.41
696.73	11.70
696.87	30.43
697.00	72.56
697.14	0.00
697.27	77.24
697.40	44.47
697.54	30.43
697.67	86.60
697.80	51.49
697.94	42.13
698.07	16.38
698.21	81.92
698.34	49.15
698.47	53.83
698.61	42.13
698.74	67.88
698.87	56.17
699.01	0.00
699.14	58.51
699.27	23.41
699.40	95.96
699.54	25.75
699.67	0.00
699.80	65.54
699.94	0.00
700.07	74.90
700.20	25.75
700.34	49.15
700.47	16.38
700.60	25.75
700.73	28.09
700.87	91.28
701.00	44.47
701.13	60.85
701.26	28.09
701.40	72.56
701.53	32.77
701.66	77.24
701.79	0.00
701.93	44.47
702.06	0.00
702.19	65.54
702.32	88.94
702.46	32.77
702.59	25.75
702.72	72.56
702.85	58.51
702.99	4.68
703.12	0.00
703.25	67.88
703.38	51.49
703.51	18.72
703.65	28.09
703.78	63.19
703.91	0.00
704.04	84.26
704.17	11.70
704.31	0.00
704.44	28.09
704.57	4.68
704.70	28.09
704.83	14.04
704.96	23.41
705.10	39.79
705.23	60.85
>>>>>End Processed Spectral Data<<<<<
