SpectraSuite Data File
++++++++++++++++++++++++++++++++++++
Date: Fri Oct 04 12:13:31 GMT-05:00 2013
User: price-jones
Dark Spectrum Present: No
Reference Spectrum Present: No
Number of Sampled Component Spectra: 1
Spectrometers: USB2+H05261
Integration Time (usec): 10000 (USB2+H05261)
Spectra Averaged: 1 (USB2+H05261)
Boxcar Smoothing: 0 (USB2+H05261)
Correct for Electrical Dark: No (USB2+H05261)
Strobe/Lamp Enabled: No (USB2+H05261)
Correct for Detector Non-linearity: No (USB2+H05261)
Correct for Stray Light: No (USB2+H05261)
Number of Pixels in Processed Spectrum: 2048
>>>>>Begin Processed Spectral Data<<<<<
365.73	21.06
365.92	21.06
366.12	21.06
366.32	0.00
366.52	0.00
366.72	0.00
366.91	0.00
367.11	0.00
367.31	0.00
367.51	0.00
367.70	0.00
367.90	0.00
368.10	0.00
368.30	0.00
368.49	0.00
368.69	0.00
368.89	0.00
369.09	0.00
369.28	0.00
369.48	0.00
369.68	0.00
369.87	0.00
370.07	0.00
370.27	0.00
370.47	0.00
370.66	0.00
370.86	0.00
371.06	0.00
371.25	0.00
371.45	0.00
371.65	0.00
371.84	2.34
372.04	25.75
372.24	0.00
372.44	9.36
372.63	0.00
372.83	11.70
373.03	0.00
373.22	51.49
373.42	79.58
373.62	25.75
373.81	11.70
374.01	0.00
374.21	86.60
374.40	0.00
374.60	0.00
374.79	16.38
374.99	53.83
375.19	25.75
375.38	51.49
375.58	11.70
375.78	23.41
375.97	51.49
376.17	39.79
376.37	56.17
376.56	0.00
376.76	46.81
376.95	23.41
377.15	23.41
377.35	0.00
377.54	72.56
377.74	0.00
377.93	4.68
378.13	37.45
378.33	58.51
378.52	65.54
378.72	9.36
378.91	0.00
379.11	7.02
379.31	51.49
379.50	77.24
379.70	0.00
379.89	25.75
380.09	63.19
380.28	11.70
380.48	0.00
380.68	0.00
380.87	0.00
381.07	25.75
381.26	51.49
381.46	0.00
381.65	18.72
381.85	46.81
382.04	9.36
382.24	35.11
382.43	0.00
382.63	0.00
382.83	0.00
383.02	9.36
383.22	0.00
383.41	0.00
383.61	63.19
383.80	53.83
384.00	0.00
384.19	0.00
384.39	0.00
384.58	21.06
384.78	56.17
384.97	4.68
385.17	51.49
385.36	0.00
385.56	65.54
385.75	18.72
385.95	0.00
386.14	32.77
386.34	0.00
386.53	25.75
386.72	0.00
386.92	77.24
387.11	65.54
387.31	46.81
387.50	18.72
387.70	23.41
387.89	0.00
388.09	51.49
388.28	42.13
388.48	35.11
388.67	14.04
388.86	35.11
389.06	0.00
389.25	51.49
389.45	46.81
389.64	0.00
389.84	53.83
390.03	37.45
390.22	93.62
390.42	14.04
390.61	91.28
390.81	0.00
391.00	56.17
391.19	44.47
391.39	25.75
391.58	0.00
391.78	4.68
391.97	0.00
392.16	2.34
392.36	32.77
392.55	0.00
392.75	14.04
392.94	28.09
393.13	21.06
393.33	95.96
393.52	9.36
393.71	18.72
393.91	0.00
394.10	35.11
394.29	0.00
394.49	35.11
394.68	44.47
394.88	0.00
395.07	23.41
395.26	21.06
395.46	18.72
395.65	49.15
395.84	28.09
396.04	93.62
396.23	0.00
396.42	30.43
396.62	0.00
396.81	79.58
397.00	95.96
397.19	0.00
397.39	53.83
397.58	16.38
397.77	16.38
397.97	14.04
398.16	30.43
398.35	0.00
398.55	4.68
398.74	0.00
398.93	18.72
399.12	0.00
399.32	4.68
399.51	44.47
399.70	16.38
399.90	11.70
400.09	0.00
400.28	2.34
400.47	0.00
400.67	49.15
400.86	4.68
401.05	25.75
401.24	9.36
401.44	0.00
401.63	0.00
401.82	28.09
402.01	0.00
402.21	25.75
402.40	42.13
402.59	46.81
402.78	42.13
402.97	56.17
403.17	18.72
403.36	65.54
403.55	65.54
403.74	0.00
403.93	18.72
404.13	44.47
404.32	0.00
404.51	84.26
404.70	32.77
404.89	11.70
405.09	0.00
405.28	7.02
405.47	28.09
405.66	0.00
405.85	9.36
406.05	14.04
406.24	21.06
406.43	88.94
406.62	72.56
406.81	0.00
407.00	0.00
407.20	25.75
407.39	2.34
407.58	0.00
407.77	84.26
407.96	42.13
408.15	0.00
408.34	14.04
408.54	0.00
408.73	63.19
408.92	42.13
409.11	21.06
409.30	9.36
409.49	0.00
409.68	95.96
409.87	35.11
410.07	46.81
410.26	21.06
410.45	79.58
410.64	4.68
410.83	21.06
411.02	32.77
411.21	7.02
411.40	0.00
411.59	0.00
411.78	30.43
411.98	0.00
412.17	16.38
412.36	79.58
412.55	98.30
412.74	74.90
412.93	70.22
413.12	9.36
413.31	0.00
413.50	53.83
413.69	42.13
413.88	11.70
414.07	28.09
414.26	86.60
414.45	0.00
414.64	11.70
414.83	25.75
415.02	11.70
415.22	35.11
415.41	18.72
415.60	0.00
415.79	95.96
415.98	14.04
416.17	51.49
416.36	28.09
416.55	56.17
416.74	77.24
416.93	60.85
417.12	39.79
417.31	14.04
417.50	58.51
417.69	60.85
417.88	23.41
418.07	0.00
418.26	93.62
418.45	0.00
418.64	0.00
418.83	58.51
419.02	11.70
419.21	4.68
419.39	121.71
419.58	2.34
419.77	65.54
419.96	7.02
420.15	42.13
420.34	0.00
420.53	53.83
420.72	21.06
420.91	35.11
421.10	4.68
421.29	16.38
421.48	51.49
421.67	28.09
421.86	0.00
422.05	0.00
422.24	18.72
422.43	0.00
422.61	32.77
422.80	0.00
422.99	46.81
423.18	0.00
423.37	37.45
423.56	0.00
423.75	32.77
423.94	0.00
424.13	30.43
424.32	0.00
424.50	0.00
424.69	58.51
424.88	32.77
425.07	23.41
425.26	42.13
425.45	39.79
425.64	35.11
425.83	0.00
426.01	65.54
426.20	0.00
426.39	0.00
426.58	0.00
426.77	0.00
426.96	88.94
427.15	23.41
427.33	35.11
427.52	58.51
427.71	14.04
427.90	30.43
428.09	16.38
428.28	0.00
428.46	37.45
428.65	0.00
428.84	11.70
429.03	56.17
429.22	60.85
429.40	0.00
429.59	37.45
429.78	63.19
429.97	0.00
430.16	0.00
430.34	32.77
430.53	63.19
430.72	133.41
430.91	51.49
431.10	42.13
431.28	0.00
431.47	25.75
431.66	53.83
431.85	0.00
432.03	16.38
432.22	16.38
432.41	39.79
432.60	95.96
432.79	74.90
432.97	42.13
433.16	58.51
433.35	23.41
433.54	0.00
433.72	32.77
433.91	14.04
434.10	28.09
434.28	9.36
434.47	21.06
434.66	0.00
434.85	0.00
435.03	0.00
435.22	14.04
435.41	7.02
435.59	95.96
435.78	23.41
435.97	32.77
436.16	74.90
436.34	39.79
436.53	0.00
436.72	46.81
436.90	0.00
437.09	25.75
437.28	2.34
437.46	18.72
437.65	0.00
437.84	0.00
438.02	37.45
438.21	23.41
438.40	9.36
438.58	16.38
438.77	0.00
438.96	2.34
439.14	2.34
439.33	93.62
439.52	0.00
439.70	35.11
439.89	117.03
440.08	25.75
440.26	0.00
440.45	91.28
440.63	58.51
440.82	65.54
441.01	0.00
441.19	51.49
441.38	30.43
441.57	39.79
441.75	72.56
441.94	93.62
442.12	0.00
442.31	67.88
442.50	63.19
442.68	44.47
442.87	81.92
443.05	0.00
443.24	51.49
443.43	67.88
443.61	39.79
443.80	0.00
443.98	79.58
444.17	0.00
444.35	0.00
444.54	100.64
444.73	70.22
444.91	0.00
445.10	11.70
445.28	2.34
445.47	25.75
445.65	0.00
445.84	0.00
446.02	0.00
446.21	102.98
446.39	51.49
446.58	39.79
446.77	32.77
446.95	35.11
447.14	42.13
447.32	11.70
447.51	37.45
447.69	39.79
447.88	21.06
448.06	23.41
448.25	35.11
448.43	107.66
448.62	0.00
448.80	77.24
448.99	0.00
449.17	60.85
449.36	91.28
449.54	44.47
449.73	77.24
449.91	14.04
450.10	0.00
450.28	133.41
450.46	21.06
450.65	32.77
450.83	79.58
451.02	49.15
451.20	0.00
451.39	0.00
451.57	4.68
451.76	0.00
451.94	51.49
452.13	56.17
452.31	14.04
452.49	25.75
452.68	39.79
452.86	39.79
453.05	4.68
453.23	42.13
453.42	0.00
453.60	56.17
453.78	42.13
453.97	65.54
454.15	14.04
454.34	0.00
454.52	0.00
454.70	32.77
454.89	67.88
455.07	0.00
455.26	49.15
455.44	65.54
455.62	21.06
455.81	32.77
455.99	0.00
456.17	0.00
456.36	0.00
456.54	46.81
456.73	32.77
456.91	63.19
457.09	4.68
457.28	0.00
457.46	35.11
457.64	81.92
457.83	7.02
458.01	11.70
458.19	30.43
458.38	39.79
458.56	0.00
458.74	0.00
458.93	0.00
459.11	84.26
459.29	0.00
459.48	23.41
459.66	11.70
459.84	9.36
460.03	81.92
460.21	11.70
460.39	7.02
460.57	100.64
460.76	42.13
460.94	70.22
461.12	0.00
461.31	0.00
461.49	95.96
461.67	37.45
461.85	39.79
462.04	42.13
462.22	93.62
462.40	0.00
462.59	30.43
462.77	23.41
462.95	79.58
463.13	58.51
463.32	0.00
463.50	58.51
463.68	32.77
463.86	63.19
464.05	93.62
464.23	74.90
464.41	77.24
464.59	58.51
464.78	42.13
464.96	0.00
465.14	46.81
465.32	4.68
465.50	0.00
465.69	67.88
465.87	25.75
466.05	119.37
466.23	4.68
466.41	0.00
466.60	91.28
466.78	14.04
466.96	21.06
467.14	42.13
467.32	4.68
467.51	63.19
467.69	0.00
467.87	11.70
468.05	0.00
468.23	16.38
468.41	16.38
468.60	56.17
468.78	65.54
468.96	16.38
469.14	88.94
469.32	84.26
469.50	0.00
469.69	0.00
469.87	37.45
470.05	0.00
470.23	16.38
470.41	0.00
470.59	0.00
470.77	0.00
470.95	79.58
471.14	30.43
471.32	67.88
471.50	0.00
471.68	72.56
471.86	14.04
472.04	23.41
472.22	0.00
472.40	21.06
472.58	74.90
472.77	39.79
472.95	0.00
473.13	35.11
473.31	42.13
473.49	72.56
473.67	11.70
473.85	67.88
474.03	65.54
474.21	46.81
474.39	28.09
474.57	32.77
474.75	88.94
474.93	16.38
475.12	58.51
475.30	9.36
475.48	0.00
475.66	65.54
475.84	42.13
476.02	9.36
476.20	0.00
476.38	0.00
476.56	0.00
476.74	0.00
476.92	77.24
477.10	18.72
477.28	49.15
477.46	23.41
477.64	23.41
477.82	0.00
478.00	16.38
478.18	44.47
478.36	0.00
478.54	9.36
478.72	25.75
478.90	63.19
479.08	60.85
479.26	28.09
479.44	0.00
479.62	23.41
479.80	70.22
479.98	28.09
480.16	0.00
480.34	0.00
480.52	28.09
480.70	7.02
480.88	0.00
481.06	0.00
481.24	67.88
481.41	0.00
481.59	0.00
481.77	49.15
481.95	35.11
482.13	56.17
482.31	74.90
482.49	0.00
482.67	53.83
482.85	14.04
483.03	60.85
483.21	60.85
483.39	0.00
483.57	14.04
483.74	9.36
483.92	42.13
484.10	18.72
484.28	63.19
484.46	77.24
484.64	124.05
484.82	7.02
485.00	39.79
485.18	0.00
485.35	77.24
485.53	51.49
485.71	0.00
485.89	70.22
486.07	46.81
486.25	32.77
486.43	35.11
486.61	124.05
486.78	49.15
486.96	0.00
487.14	117.03
487.32	88.94
487.50	88.94
487.68	42.13
487.85	35.11
488.03	46.81
488.21	23.41
488.39	65.54
488.57	67.88
488.75	0.00
488.92	51.49
489.10	95.96
489.28	37.45
489.46	56.17
489.64	35.11
489.81	23.41
489.99	0.00
490.17	42.13
490.35	35.11
490.53	0.00
490.70	2.34
490.88	18.72
491.06	0.00
491.24	25.75
491.41	28.09
491.59	0.00
491.77	60.85
491.95	32.77
492.13	0.00
492.30	107.66
492.48	53.83
492.66	0.00
492.84	0.00
493.01	81.92
493.19	56.17
493.37	42.13
493.54	7.02
493.72	93.62
493.90	21.06
494.08	7.02
494.25	9.36
494.43	0.00
494.61	91.28
494.79	16.38
494.96	18.72
495.14	35.11
495.32	95.96
495.49	2.34
495.67	32.77
495.85	77.24
496.02	21.06
496.20	0.00
496.38	72.56
496.55	86.60
496.73	23.41
496.91	30.43
497.09	21.06
497.26	4.68
497.44	18.72
497.62	60.85
497.79	56.17
497.97	51.49
498.14	9.36
498.32	58.51
498.50	42.13
498.67	21.06
498.85	0.00
499.03	79.58
499.20	60.85
499.38	14.04
499.56	18.72
499.73	7.02
499.91	70.22
500.08	37.45
500.26	42.13
500.44	74.90
500.61	0.00
500.79	9.36
500.97	44.47
501.14	16.38
501.32	58.51
501.49	0.00
501.67	51.49
501.84	49.15
502.02	112.35
502.20	63.19
502.37	121.71
502.55	88.94
502.72	112.35
502.90	58.51
503.07	21.06
503.25	37.45
503.43	37.45
503.60	98.30
503.78	16.38
503.95	77.24
504.13	42.13
504.30	0.00
504.48	93.62
504.65	63.19
504.83	39.79
505.01	51.49
505.18	79.58
505.36	0.00
505.53	72.56
505.71	56.17
505.88	14.04
506.06	32.77
506.23	95.96
506.41	14.04
506.58	63.19
506.76	4.68
506.93	56.17
507.11	46.81
507.28	0.00
507.46	14.04
507.63	159.16
507.81	0.00
507.98	72.56
508.16	102.98
508.33	98.30
508.50	0.00
508.68	9.36
508.85	98.30
509.03	39.79
509.20	53.83
509.38	60.85
509.55	63.19
509.73	74.90
509.90	53.83
510.08	0.00
510.25	60.85
510.42	46.81
510.60	9.36
510.77	0.00
510.95	0.00
511.12	63.19
511.30	67.88
511.47	0.00
511.64	53.83
511.82	0.00
511.99	14.04
512.17	88.94
512.34	95.96
512.51	23.41
512.69	44.47
512.86	0.00
513.04	0.00
513.21	46.81
513.38	126.39
513.56	23.41
513.73	53.83
513.90	0.00
514.08	51.49
514.25	23.41
514.43	30.43
514.60	86.60
514.77	100.64
514.95	51.49
515.12	100.64
515.29	14.04
515.47	32.77
515.64	4.68
515.81	51.49
515.99	16.38
516.16	44.47
516.33	0.00
516.51	0.00
516.68	60.85
516.85	77.24
517.03	2.34
517.20	105.32
517.37	86.60
517.54	84.26
517.72	0.00
517.89	100.64
518.06	100.64
518.24	25.75
518.41	32.77
518.58	4.68
518.75	65.54
518.93	0.00
519.10	21.06
519.27	14.04
519.45	0.00
519.62	9.36
519.79	49.15
519.96	49.15
520.14	37.45
520.31	0.00
520.48	32.77
520.65	30.43
520.83	39.79
521.00	35.11
521.17	100.64
521.34	0.00
521.52	67.88
521.69	72.56
521.86	63.19
522.03	46.81
522.20	42.13
522.38	44.47
522.55	23.41
522.72	44.47
522.89	0.00
523.07	35.11
523.24	14.04
523.41	70.22
523.58	35.11
523.75	60.85
523.92	77.24
524.10	49.15
524.27	21.06
524.44	2.34
524.61	126.39
524.78	0.00
524.96	28.09
525.13	110.01
525.30	42.13
525.47	51.49
525.64	58.51
525.81	30.43
525.98	32.77
526.16	77.24
526.33	0.00
526.50	9.36
526.67	56.17
526.84	67.88
527.01	0.00
527.18	72.56
527.36	86.60
527.53	0.00
527.70	21.06
527.87	42.13
528.04	18.72
528.21	0.00
528.38	39.79
528.55	28.09
528.72	32.77
528.89	37.45
529.07	14.04
529.24	9.36
529.41	156.82
529.58	79.58
529.75	35.11
529.92	58.51
530.09	77.24
530.26	60.85
530.43	72.56
530.60	0.00
530.77	28.09
530.94	16.38
531.11	39.79
531.28	9.36
531.46	30.43
531.63	32.77
531.80	72.56
531.97	4.68
532.14	51.49
532.31	91.28
532.48	91.28
532.65	46.81
532.82	145.11
532.99	49.15
533.16	0.00
533.33	18.72
533.50	2.34
533.67	58.51
533.84	23.41
534.01	28.09
534.18	14.04
534.35	21.06
534.52	58.51
534.69	11.70
534.86	4.68
535.03	0.00
535.20	0.00
535.37	81.92
535.54	18.72
535.71	0.00
535.88	67.88
536.05	63.19
536.22	63.19
536.38	0.00
536.55	32.77
536.72	35.11
536.89	74.90
537.06	102.98
537.23	42.13
537.40	25.75
537.57	63.19
537.74	0.00
537.91	72.56
538.08	0.00
538.25	110.01
538.42	105.32
538.59	39.79
538.75	74.90
538.92	91.28
539.09	30.43
539.26	86.60
539.43	14.04
539.60	25.75
539.77	147.45
539.94	126.39
540.11	51.49
540.28	126.39
540.44	21.06
540.61	42.13
540.78	112.35
540.95	117.03
541.12	79.58
541.29	0.00
541.46	79.58
541.62	51.49
541.79	0.00
541.96	60.85
542.13	60.85
542.30	56.17
542.47	39.79
542.63	0.00
542.80	30.43
542.97	51.49
543.14	51.49
543.31	81.92
543.48	39.79
543.64	67.88
543.81	44.47
543.98	9.36
544.15	0.00
544.32	44.47
544.48	39.79
544.65	56.17
544.82	53.83
544.99	0.00
545.16	25.75
545.32	70.22
545.49	30.43
545.66	81.92
545.83	0.00
546.00	0.00
546.16	39.79
546.33	0.00
546.50	28.09
546.67	42.13
546.83	25.75
547.00	7.02
547.17	7.02
547.34	112.35
547.50	0.00
547.67	28.09
547.84	60.85
548.00	58.51
548.17	77.24
548.34	77.24
548.51	30.43
548.67	60.85
548.84	16.38
549.01	65.54
549.18	0.00
549.34	7.02
549.51	0.00
549.68	7.02
549.84	58.51
550.01	42.13
550.18	0.00
550.34	0.00
550.51	63.19
550.68	131.07
550.84	67.88
551.01	32.77
551.18	37.45
551.34	0.00
551.51	95.96
551.68	84.26
551.84	0.00
552.01	35.11
552.18	23.41
552.34	81.92
552.51	28.09
552.68	95.96
552.84	25.75
553.01	72.56
553.18	28.09
553.34	49.15
553.51	21.06
553.67	0.00
553.84	23.41
554.01	16.38
554.17	18.72
554.34	49.15
554.51	58.51
554.67	4.68
554.84	30.43
555.00	16.38
555.17	37.45
555.33	79.58
555.50	102.98
555.67	60.85
555.83	32.77
556.00	7.02
556.16	30.43
556.33	60.85
556.50	58.51
556.66	39.79
556.83	9.36
556.99	58.51
557.16	28.09
557.32	16.38
557.49	46.81
557.65	21.06
557.82	30.43
557.98	32.77
558.15	63.19
558.32	0.00
558.48	28.09
558.65	74.90
558.81	81.92
558.98	4.68
559.14	11.70
559.31	65.54
559.47	53.83
559.64	35.11
559.80	11.70
559.97	21.06
560.13	128.73
560.30	58.51
560.46	30.43
560.63	84.26
560.79	93.62
560.96	44.47
561.12	39.79
561.29	107.66
561.45	35.11
561.61	63.19
561.78	49.15
561.94	2.34
562.11	18.72
562.27	60.85
562.44	60.85
562.60	72.56
562.77	0.00
562.93	51.49
563.10	63.19
563.26	37.45
563.42	37.45
563.59	9.36
563.75	86.60
563.92	0.00
564.08	23.41
564.24	81.92
564.41	42.13
564.57	70.22
564.74	49.15
564.90	86.60
565.07	18.72
565.23	39.79
565.39	30.43
565.56	0.00
565.72	18.72
565.88	21.06
566.05	28.09
566.21	114.69
566.38	32.77
566.54	58.51
566.70	42.13
566.87	9.36
567.03	21.06
567.19	102.98
567.36	9.36
567.52	49.15
567.68	39.79
567.85	32.77
568.01	0.00
568.17	18.72
568.34	0.00
568.50	21.06
568.66	88.94
568.83	35.11
568.99	49.15
569.15	2.34
569.32	0.00
569.48	0.00
569.64	46.81
569.81	7.02
569.97	39.79
570.13	72.56
570.30	63.19
570.46	65.54
570.62	58.51
570.78	14.04
570.95	0.00
571.11	67.88
571.27	65.54
571.43	0.00
571.60	23.41
571.76	70.22
571.92	95.96
572.09	37.45
572.25	16.38
572.41	0.00
572.57	60.85
572.74	46.81
572.90	0.00
573.06	128.73
573.22	7.02
573.38	9.36
573.55	107.66
573.71	18.72
573.87	84.26
574.03	53.83
574.20	7.02
574.36	0.00
574.52	56.17
574.68	86.60
574.84	56.17
575.01	35.11
575.17	58.51
575.33	95.96
575.49	21.06
575.65	25.75
575.82	35.11
575.98	9.36
576.14	14.04
576.30	159.16
576.46	156.82
576.62	102.98
576.79	0.00
576.95	79.58
577.11	63.19
577.27	0.00
577.43	102.98
577.59	25.75
577.75	30.43
577.92	46.81
578.08	81.92
578.24	63.19
578.40	0.00
578.56	0.00
578.72	46.81
578.88	30.43
579.04	37.45
579.21	7.02
579.37	102.98
579.53	37.45
579.69	18.72
579.85	7.02
580.01	100.64
580.17	14.04
580.33	100.64
580.49	93.62
580.65	81.92
580.82	133.41
580.98	72.56
581.14	32.77
581.30	65.54
581.46	28.09
581.62	74.90
581.78	4.68
581.94	44.47
582.10	23.41
582.26	65.54
582.42	14.04
582.58	32.77
582.74	14.04
582.90	0.00
583.06	126.39
583.22	77.24
583.38	44.47
583.54	79.58
583.70	114.69
583.86	39.79
584.02	58.51
584.18	72.56
584.34	110.01
584.50	257.46
584.66	1420.71
584.82	3751.88
584.98	5731.97
585.14	5380.89
585.30	3229.94
585.46	1879.45
585.62	1235.80
585.78	545.34
585.94	241.08
586.10	84.26
586.26	88.94
586.42	91.28
586.58	65.54
586.74	121.71
586.90	21.06
587.06	70.22
587.22	93.62
587.38	72.56
587.54	49.15
587.70	229.37
587.86	355.76
588.02	493.85
588.18	304.27
588.34	262.14
588.49	166.18
588.65	107.66
588.81	51.49
588.97	79.58
589.13	145.11
589.29	53.83
589.45	14.04
589.61	37.45
589.77	35.11
589.93	53.83
590.08	88.94
590.24	51.49
590.40	23.41
590.56	37.45
590.72	37.45
590.88	79.58
591.04	95.96
591.20	7.02
591.35	0.00
591.51	32.77
591.67	25.75
591.83	74.90
591.99	53.83
592.15	65.54
592.31	28.09
592.46	23.41
592.62	9.36
592.78	16.38
592.94	63.19
593.10	25.75
593.26	28.09
593.41	0.00
593.57	0.00
593.73	4.68
593.89	198.95
594.05	479.81
594.20	753.65
594.36	812.17
594.52	543.00
594.68	257.46
594.84	180.22
594.99	107.66
595.15	124.05
595.31	107.66
595.47	35.11
595.62	49.15
595.78	23.41
595.94	42.13
596.10	11.70
596.25	60.85
596.41	60.85
596.57	0.00
596.73	0.00
596.88	63.19
597.04	119.37
597.20	182.56
597.36	217.67
597.51	128.73
597.67	39.79
597.83	88.94
597.99	131.07
598.14	119.37
598.30	60.85
598.46	42.13
598.61	72.56
598.77	74.90
598.93	0.00
599.09	46.81
599.24	91.28
599.40	23.41
599.56	0.00
599.71	9.36
599.87	0.00
600.03	63.19
600.18	35.11
600.34	88.94
600.50	51.49
600.65	18.72
600.81	11.70
600.97	0.00
601.12	30.43
601.28	0.00
601.44	23.41
601.59	0.00
601.75	23.41
601.91	2.34
602.06	58.51
602.22	56.17
602.37	67.88
602.53	126.39
602.69	205.97
602.84	259.80
603.00	147.45
603.16	126.39
603.31	58.51
603.47	102.98
603.62	56.17
603.78	16.38
603.94	49.15
604.09	42.13
604.25	51.49
604.40	51.49
604.56	138.09
604.71	25.75
604.87	46.81
605.03	0.00
605.18	67.88
605.34	39.79
605.49	0.00
605.65	32.77
605.80	42.13
605.96	2.34
606.12	4.68
606.27	9.36
606.43	18.72
606.58	49.15
606.74	110.01
606.89	294.91
607.05	428.32
607.20	643.65
607.36	550.03
607.51	381.51
607.67	220.01
607.82	187.24
607.98	140.43
608.13	95.96
608.29	0.00
608.44	23.41
608.60	0.00
608.75	91.28
608.91	140.43
609.06	383.85
609.22	746.63
609.37	1174.95
609.53	1013.45
609.68	617.90
609.84	395.55
609.99	379.17
610.15	203.63
610.30	184.90
610.46	56.17
610.61	63.19
610.76	100.64
610.92	65.54
611.07	11.70
611.23	53.83
611.38	81.92
611.54	2.34
611.69	25.75
611.84	51.49
612.00	63.19
612.15	74.90
612.31	70.22
612.46	91.28
612.62	126.39
612.77	133.41
612.92	16.38
613.08	91.28
613.23	60.85
613.39	11.70
613.54	44.47
613.69	369.80
613.85	976.00
614.00	1523.69
614.15	1743.70
614.31	1299.00
614.46	847.27
614.62	531.30
614.77	360.44
614.92	231.71
615.08	91.28
615.23	49.15
615.38	70.22
615.54	67.88
615.69	84.26
615.84	243.42
616.00	393.21
616.15	484.49
616.30	456.40
616.46	339.38
616.61	112.35
616.76	175.54
616.92	84.26
617.07	53.83
617.22	60.85
617.37	39.79
617.53	42.13
617.68	84.26
617.83	14.04
617.99	44.47
618.14	0.00
618.29	37.45
618.45	0.00
618.60	0.00
618.75	53.83
618.90	11.70
619.06	126.39
619.21	28.09
619.36	14.04
619.51	88.94
619.67	14.04
619.82	35.11
619.97	70.22
620.12	70.22
620.28	37.45
620.43	49.15
620.58	98.30
620.73	77.24
620.89	11.70
621.04	9.36
621.19	117.03
621.34	250.44
621.49	327.68
621.65	320.65
621.80	255.12
621.95	119.37
622.10	79.58
622.25	42.13
622.41	93.62
622.56	72.56
622.71	56.17
622.86	30.43
623.01	79.58
623.16	67.88
623.32	53.83
623.47	14.04
623.62	74.90
623.77	21.06
623.92	32.77
624.07	119.37
624.23	28.09
624.38	28.09
624.53	4.68
624.68	42.13
624.83	81.92
624.98	11.70
625.13	67.88
625.29	63.19
625.44	4.68
625.59	28.09
625.74	60.85
625.89	88.94
626.04	222.35
626.19	564.07
626.34	847.27
626.49	954.94
626.65	730.25
626.80	479.81
626.95	318.31
627.10	217.67
627.25	154.48
627.40	77.24
627.55	37.45
627.70	0.00
627.85	16.38
628.00	0.00
628.15	35.11
628.30	93.62
628.45	72.56
628.60	88.94
628.76	42.13
628.91	60.85
629.06	28.09
629.21	79.58
629.36	60.85
629.51	7.02
629.66	0.00
629.81	58.51
629.96	107.66
630.11	189.58
630.26	290.23
630.41	142.77
630.56	182.56
630.71	67.88
630.86	77.24
631.01	84.26
631.16	53.83
631.31	11.70
631.46	9.36
631.61	58.51
631.76	23.41
631.91	67.88
632.06	25.75
632.21	81.92
632.36	79.58
632.51	37.45
632.66	0.00
632.81	30.43
632.96	376.83
633.10	456.40
633.25	746.63
633.40	561.73
633.55	383.85
633.70	210.65
633.85	173.20
634.00	142.77
634.15	25.75
634.30	0.00
634.45	58.51
634.60	28.09
634.75	9.36
634.90	0.00
635.05	0.00
635.19	32.77
635.34	0.00
635.49	60.85
635.64	112.35
635.79	46.81
635.94	28.09
636.09	28.09
636.24	88.94
636.39	46.81
636.53	0.00
636.68	74.90
636.83	37.45
636.98	67.88
637.13	72.56
637.28	72.56
637.43	84.26
637.57	140.43
637.72	201.29
637.87	671.73
638.02	957.28
638.17	1137.50
638.32	863.66
638.46	608.54
638.61	430.66
638.76	294.91
638.91	220.01
639.06	70.22
639.20	4.68
639.35	32.77
639.50	100.64
639.65	411.93
639.80	1022.81
639.94	1638.38
640.09	1888.81
640.24	1516.67
640.39	887.06
640.54	671.73
640.68	395.55
640.83	205.97
640.98	142.77
641.13	126.39
641.27	63.19
641.42	11.70
641.57	0.00
641.72	93.62
641.86	37.45
642.01	14.04
642.16	0.00
642.31	14.04
642.45	25.75
642.60	70.22
642.75	79.58
642.90	0.00
643.04	0.00
643.19	32.77
643.34	9.36
643.48	2.34
643.63	46.81
643.78	18.72
643.93	0.00
644.07	0.00
644.22	25.75
644.37	51.49
644.51	14.04
644.66	46.81
644.81	86.60
644.95	44.47
645.10	51.49
645.25	7.02
645.39	0.00
645.54	58.51
645.69	9.36
645.83	25.75
645.98	100.64
646.13	72.56
646.27	84.26
646.42	44.47
646.57	21.06
646.71	44.47
646.86	67.88
647.00	44.47
647.15	39.79
647.30	60.85
647.44	133.41
647.59	37.45
647.74	37.45
647.88	65.54
648.03	0.00
648.17	9.36
648.32	74.90
648.47	86.60
648.61	0.00
648.76	121.71
648.90	28.09
649.05	117.03
649.20	16.38
649.34	9.36
649.49	37.45
649.63	60.85
649.78	91.28
649.92	21.06
650.07	149.79
650.21	451.72
650.36	788.76
650.51	1006.43
650.65	727.91
650.80	573.43
650.94	421.30
651.09	222.35
651.23	81.92
651.38	86.60
651.52	42.13
651.67	79.58
651.81	42.13
651.96	0.00
652.10	0.00
652.25	0.00
652.39	105.32
652.54	98.30
652.68	112.35
652.83	149.79
652.97	259.80
653.12	308.95
653.26	348.74
653.41	229.37
653.55	212.99
653.70	63.19
653.84	81.92
653.99	30.43
654.13	46.81
654.27	70.22
654.42	35.11
654.56	98.30
654.71	0.00
654.85	0.00
655.00	35.11
655.14	4.68
655.29	25.75
655.43	0.00
655.57	0.00
655.72	11.70
655.86	65.54
656.01	74.90
656.15	2.34
656.30	70.22
656.44	63.19
656.58	30.43
656.73	7.02
656.87	21.06
657.01	49.15
657.16	39.79
657.30	39.79
657.45	63.19
657.59	30.43
657.73	25.75
657.88	42.13
658.02	81.92
658.16	16.38
658.31	30.43
658.45	46.81
658.60	30.43
658.74	77.24
658.88	0.00
659.03	0.00
659.17	39.79
659.31	131.07
659.46	248.10
659.60	444.70
659.74	444.70
659.89	433.00
660.03	337.04
660.17	187.24
660.32	198.95
660.46	44.47
660.60	91.28
660.74	25.75
660.89	18.72
661.03	23.41
661.17	9.36
661.32	25.75
661.46	0.00
661.60	25.75
661.74	25.75
661.89	72.56
662.03	0.00
662.17	39.79
662.31	49.15
662.46	42.13
662.60	86.60
662.74	32.77
662.88	67.88
663.03	42.13
663.17	51.49
663.31	58.51
663.45	51.49
663.60	110.01
663.74	21.06
663.88	60.85
664.02	67.88
664.17	0.00
664.31	79.58
664.45	37.45
664.59	7.02
664.73	9.36
664.88	81.92
665.02	14.04
665.16	60.85
665.30	53.83
665.44	81.92
665.59	77.24
665.73	23.41
665.87	95.96
666.01	32.77
666.15	0.00
666.29	16.38
666.44	70.22
666.58	0.00
666.72	51.49
666.86	23.41
667.00	84.26
667.14	105.32
667.28	138.09
667.43	423.64
667.57	688.12
667.71	875.36
667.85	737.27
667.99	533.64
668.13	388.53
668.27	177.88
668.41	210.65
668.56	117.03
668.70	53.83
668.84	74.90
668.98	35.11
669.12	56.17
669.26	77.24
669.40	28.09
669.54	56.17
669.68	35.11
669.82	53.83
669.96	42.13
670.10	39.79
670.25	53.83
670.39	7.02
670.53	60.85
670.67	79.58
670.81	81.92
670.95	0.00
671.09	7.02
671.23	147.45
671.37	280.86
671.51	496.19
671.65	587.47
671.79	334.70
671.93	203.63
672.07	227.03
672.21	107.66
672.35	126.39
672.49	2.34
672.63	74.90
672.77	9.36
672.91	30.43
673.05	9.36
673.19	0.00
673.33	42.13
673.47	44.47
673.61	65.54
673.75	0.00
673.89	0.00
674.03	39.79
674.17	86.60
674.31	7.02
674.45	56.17
674.59	46.81
674.73	0.00
674.87	9.36
675.01	28.09
675.15	0.00
675.29	77.24
675.43	14.04
675.56	18.72
675.70	63.19
675.84	18.72
675.98	46.81
676.12	44.47
676.26	84.26
676.40	93.62
676.54	91.28
676.68	0.00
676.82	14.04
676.96	23.41
677.10	0.00
677.23	49.15
677.37	35.11
677.51	67.88
677.65	60.85
677.79	63.19
677.93	16.38
678.07	2.34
678.21	0.00
678.34	0.00
678.48	14.04
678.62	91.28
678.76	0.00
678.90	91.28
679.04	7.02
679.18	49.15
679.31	35.11
679.45	81.92
679.59	67.88
679.73	4.68
679.87	0.00
680.00	58.51
680.14	11.70
680.28	25.75
680.42	0.00
680.56	11.70
680.70	0.00
680.83	0.00
680.97	67.88
681.11	88.94
681.25	4.68
681.39	65.54
681.52	46.81
681.66	23.41
681.80	67.88
681.94	39.79
682.07	46.81
682.21	95.96
682.35	32.77
682.49	0.00
682.62	9.36
682.76	79.58
682.90	4.68
683.04	9.36
683.17	51.49
683.31	0.00
683.45	42.13
683.59	0.00
683.72	86.60
683.86	44.47
684.00	16.38
684.13	46.81
684.27	65.54
684.41	35.11
684.55	42.13
684.68	63.19
684.82	0.00
684.96	46.81
685.09	2.34
685.23	0.00
685.37	4.68
685.50	0.00
685.64	72.56
685.78	0.00
685.91	23.41
686.05	28.09
686.19	4.68
686.32	49.15
686.46	56.17
686.60	84.26
686.73	60.85
686.87	49.15
687.01	58.51
687.14	0.00
687.28	56.17
687.42	0.00
687.55	58.51
687.69	30.43
687.82	0.00
687.96	63.19
688.10	30.43
688.23	60.85
688.37	42.13
688.50	0.00
688.64	7.02
688.78	0.00
688.91	58.51
689.05	42.13
689.18	23.41
689.32	37.45
689.46	28.09
689.59	9.36
689.73	51.49
689.86	0.00
690.00	0.00
690.13	63.19
690.27	0.00
690.41	56.17
690.54	0.00
690.68	53.83
690.81	51.49
690.95	14.04
691.08	2.34
691.22	21.06
691.35	77.24
691.49	0.00
691.62	21.06
691.76	49.15
691.89	53.83
692.03	51.49
692.16	14.04
692.30	11.70
692.43	56.17
692.57	140.43
692.70	264.48
692.84	484.49
692.97	306.61
693.11	248.10
693.24	205.97
693.38	128.73
693.51	107.66
693.65	124.05
693.78	84.26
693.92	46.81
694.05	2.34
694.19	18.72
694.32	53.83
694.45	86.60
694.59	37.45
694.72	32.77
694.86	9.36
694.99	9.36
695.13	25.75
695.26	0.00
695.39	18.72
695.53	79.58
695.66	23.41
695.80	16.38
695.93	35.11
696.07	77.24
696.20	37.45
696.33	42.13
696.47	0.00
696.60	91.28
696.73	51.49
696.87	72.56
697.00	23.41
697.14	30.43
697.27	14.04
697.40	0.00
697.54	23.41
697.67	51.49
697.80	63.19
697.94	53.83
698.07	18.72
698.21	7.02
698.34	23.41
698.47	14.04
698.61	126.39
698.74	65.54
698.87	65.54
699.01	18.72
699.14	21.06
699.27	0.00
699.40	0.00
699.54	37.45
699.67	21.06
699.80	25.75
699.94	32.77
700.07	0.00
700.20	60.85
700.34	56.17
700.47	32.77
700.60	49.15
700.73	0.00
700.87	46.81
701.00	77.24
701.13	9.36
701.26	23.41
701.40	98.30
701.53	63.19
701.66	30.43
701.79	46.81
701.93	0.00
702.06	2.34
702.19	58.51
702.32	0.00
702.46	128.73
702.59	14.04
702.72	7.02
702.85	227.03
702.99	411.93
703.12	650.67
703.25	748.97
703.38	596.84
703.51	479.81
703.65	351.08
703.78	243.42
703.91	259.80
704.04	65.54
704.17	107.66
704.31	93.62
704.44	63.19
704.57	0.00
704.70	0.00
704.83	35.11
704.96	42.13
705.10	0.00
705.23	0.00
>>>>>End Processed Spectral Data<<<<<
