SpectraSuite Data File
++++++++++++++++++++++++++++++++++++
Date: Fri Oct 04 12:13:30 GMT-05:00 2013
User: price-jones
Dark Spectrum Present: No
Reference Spectrum Present: No
Number of Sampled Component Spectra: 1
Spectrometers: USB2+H05261
Integration Time (usec): 10000 (USB2+H05261)
Spectra Averaged: 1 (USB2+H05261)
Boxcar Smoothing: 0 (USB2+H05261)
Correct for Electrical Dark: No (USB2+H05261)
Strobe/Lamp Enabled: No (USB2+H05261)
Correct for Detector Non-linearity: No (USB2+H05261)
Correct for Stray Light: No (USB2+H05261)
Number of Pixels in Processed Spectrum: 2048
>>>>>Begin Processed Spectral Data<<<<<
365.73	0.00
365.92	0.00
366.12	0.00
366.32	0.00
366.52	0.00
366.72	0.00
366.91	0.00
367.11	0.00
367.31	0.00
367.51	0.00
367.70	0.00
367.90	0.00
368.10	0.00
368.30	0.00
368.49	0.00
368.69	0.00
368.89	0.00
369.09	0.00
369.28	0.00
369.48	0.00
369.68	0.00
369.87	0.00
370.07	0.00
370.27	0.00
370.47	0.00
370.66	0.00
370.86	0.00
371.06	0.00
371.25	0.00
371.45	0.00
371.65	0.00
371.84	0.00
372.04	7.02
372.24	0.00
372.44	25.75
372.63	0.00
372.83	0.00
373.03	11.70
373.22	35.11
373.42	42.13
373.62	23.41
373.81	72.56
374.01	7.02
374.21	16.38
374.40	30.43
374.60	21.06
374.79	70.22
374.99	86.60
375.19	49.15
375.38	4.68
375.58	46.81
375.78	67.88
375.97	11.70
376.17	7.02
376.37	65.54
376.56	23.41
376.76	0.00
376.95	0.00
377.15	37.45
377.35	51.49
377.54	37.45
377.74	0.00
377.93	0.00
378.13	14.04
378.33	88.94
378.52	49.15
378.72	0.00
378.91	42.13
379.11	0.00
379.31	39.79
379.50	28.09
379.70	0.00
379.89	0.00
380.09	0.00
380.28	18.72
380.48	0.00
380.68	56.17
380.87	98.30
381.07	0.00
381.26	0.00
381.46	58.51
381.65	21.06
381.85	0.00
382.04	0.00
382.24	0.00
382.43	0.00
382.63	14.04
382.83	2.34
383.02	11.70
383.22	53.83
383.41	16.38
383.61	0.00
383.80	72.56
384.00	0.00
384.19	0.00
384.39	46.81
384.58	25.75
384.78	0.00
384.97	4.68
385.17	30.43
385.36	42.13
385.56	0.00
385.75	14.04
385.95	25.75
386.14	21.06
386.34	11.70
386.53	4.68
386.72	0.00
386.92	37.45
387.11	0.00
387.31	11.70
387.50	30.43
387.70	51.49
387.89	4.68
388.09	0.00
388.28	0.00
388.48	46.81
388.67	0.00
388.86	81.92
389.06	0.00
389.25	0.00
389.45	9.36
389.64	39.79
389.84	53.83
390.03	23.41
390.22	25.75
390.42	21.06
390.61	49.15
390.81	84.26
391.00	21.06
391.19	44.47
391.39	0.00
391.58	18.72
391.78	30.43
391.97	14.04
392.16	84.26
392.36	0.00
392.55	23.41
392.75	2.34
392.94	110.01
393.13	63.19
393.33	2.34
393.52	0.00
393.71	58.51
393.91	44.47
394.10	67.88
394.29	37.45
394.49	0.00
394.68	46.81
394.88	16.38
395.07	16.38
395.26	23.41
395.46	0.00
395.65	37.45
395.84	60.85
396.04	51.49
396.23	49.15
396.42	9.36
396.62	98.30
396.81	56.17
397.00	0.00
397.19	0.00
397.39	102.98
397.58	0.00
397.77	0.00
397.97	9.36
398.16	42.13
398.35	91.28
398.55	65.54
398.74	7.02
398.93	32.77
399.12	49.15
399.32	105.32
399.51	9.36
399.70	0.00
399.90	58.51
400.09	88.94
400.28	9.36
400.47	35.11
400.67	21.06
400.86	0.00
401.05	9.36
401.24	72.56
401.44	53.83
401.63	0.00
401.82	30.43
402.01	65.54
402.21	37.45
402.40	28.09
402.59	21.06
402.78	53.83
402.97	4.68
403.17	0.00
403.36	14.04
403.55	44.47
403.74	79.58
403.93	51.49
404.13	16.38
404.32	14.04
404.51	0.00
404.70	95.96
404.89	0.00
405.09	11.70
405.28	0.00
405.47	4.68
405.66	37.45
405.85	0.00
406.05	49.15
406.24	0.00
406.43	0.00
406.62	0.00
406.81	30.43
407.00	25.75
407.20	44.47
407.39	0.00
407.58	74.90
407.77	0.00
407.96	16.38
408.15	53.83
408.34	65.54
408.54	95.96
408.73	14.04
408.92	0.00
409.11	25.75
409.30	88.94
409.49	28.09
409.68	70.22
409.87	42.13
410.07	67.88
410.26	18.72
410.45	51.49
410.64	51.49
410.83	16.38
411.02	0.00
411.21	28.09
411.40	65.54
411.59	23.41
411.78	9.36
411.98	2.34
412.17	0.00
412.36	42.13
412.55	46.81
412.74	46.81
412.93	53.83
413.12	51.49
413.31	49.15
413.50	53.83
413.69	0.00
413.88	21.06
414.07	9.36
414.26	42.13
414.45	0.00
414.64	0.00
414.83	39.79
415.02	9.36
415.22	32.77
415.41	65.54
415.60	63.19
415.79	56.17
415.98	63.19
416.17	0.00
416.36	28.09
416.55	60.85
416.74	77.24
416.93	46.81
417.12	42.13
417.31	0.00
417.50	7.02
417.69	0.00
417.88	72.56
418.07	102.98
418.26	2.34
418.45	0.00
418.64	44.47
418.83	25.75
419.02	56.17
419.21	39.79
419.39	0.00
419.58	84.26
419.77	32.77
419.96	51.49
420.15	91.28
420.34	7.02
420.53	11.70
420.72	0.00
420.91	28.09
421.10	0.00
421.29	25.75
421.48	95.96
421.67	51.49
421.86	110.01
422.05	49.15
422.24	140.43
422.43	0.00
422.61	53.83
422.80	32.77
422.99	37.45
423.18	4.68
423.37	46.81
423.56	28.09
423.75	42.13
423.94	0.00
424.13	39.79
424.32	124.05
424.50	0.00
424.69	14.04
424.88	2.34
425.07	51.49
425.26	86.60
425.45	81.92
425.64	98.30
425.83	53.83
426.01	18.72
426.20	0.00
426.39	32.77
426.58	14.04
426.77	7.02
426.96	67.88
427.15	100.64
427.33	16.38
427.52	0.00
427.71	72.56
427.90	60.85
428.09	93.62
428.28	18.72
428.46	0.00
428.65	67.88
428.84	65.54
429.03	39.79
429.22	0.00
429.40	0.00
429.59	60.85
429.78	16.38
429.97	2.34
430.16	67.88
430.34	23.41
430.53	2.34
430.72	23.41
430.91	95.96
431.10	42.13
431.28	23.41
431.47	0.00
431.66	49.15
431.85	2.34
432.03	9.36
432.22	56.17
432.41	4.68
432.60	14.04
432.79	25.75
432.97	0.00
433.16	0.00
433.35	49.15
433.54	23.41
433.72	0.00
433.91	4.68
434.10	28.09
434.28	0.00
434.47	7.02
434.66	0.00
434.85	88.94
435.03	100.64
435.22	25.75
435.41	0.00
435.59	4.68
435.78	9.36
435.97	72.56
436.16	0.00
436.34	0.00
436.53	46.81
436.72	42.13
436.90	11.70
437.09	65.54
437.28	0.00
437.46	37.45
437.65	44.47
437.84	65.54
438.02	30.43
438.21	42.13
438.40	2.34
438.58	0.00
438.77	39.79
438.96	14.04
439.14	30.43
439.33	56.17
439.52	14.04
439.70	93.62
439.89	21.06
440.08	16.38
440.26	65.54
440.45	35.11
440.63	0.00
440.82	42.13
441.01	72.56
441.19	37.45
441.38	60.85
441.57	0.00
441.75	42.13
441.94	37.45
442.12	0.00
442.31	0.00
442.50	44.47
442.68	0.00
442.87	39.79
443.05	18.72
443.24	53.83
443.43	58.51
443.61	4.68
443.80	32.77
443.98	58.51
444.17	0.00
444.35	51.49
444.54	79.58
444.73	30.43
444.91	32.77
445.10	0.00
445.28	4.68
445.47	0.00
445.65	35.11
445.84	0.00
446.02	25.75
446.21	65.54
446.39	72.56
446.58	0.00
446.77	42.13
446.95	86.60
447.14	0.00
447.32	11.70
447.51	0.00
447.69	30.43
447.88	28.09
448.06	0.00
448.25	23.41
448.43	0.00
448.62	65.54
448.80	35.11
448.99	56.17
449.17	28.09
449.36	11.70
449.54	0.00
449.73	35.11
449.91	37.45
450.10	25.75
450.28	23.41
450.46	0.00
450.65	67.88
450.83	84.26
451.02	32.77
451.20	0.00
451.39	37.45
451.57	9.36
451.76	18.72
451.94	65.54
452.13	67.88
452.31	77.24
452.49	4.68
452.68	51.49
452.86	51.49
453.05	7.02
453.23	0.00
453.42	77.24
453.60	0.00
453.78	46.81
453.97	0.00
454.15	4.68
454.34	0.00
454.52	0.00
454.70	30.43
454.89	39.79
455.07	70.22
455.26	65.54
455.44	70.22
455.62	0.00
455.81	30.43
455.99	70.22
456.17	58.51
456.36	42.13
456.54	0.00
456.73	145.11
456.91	23.41
457.09	0.00
457.28	23.41
457.46	74.90
457.64	84.26
457.83	42.13
458.01	0.00
458.19	65.54
458.38	51.49
458.56	30.43
458.74	30.43
458.93	0.00
459.11	0.00
459.29	46.81
459.48	35.11
459.66	28.09
459.84	39.79
460.03	28.09
460.21	0.00
460.39	0.00
460.57	49.15
460.76	51.49
460.94	23.41
461.12	0.00
461.31	51.49
461.49	81.92
461.67	63.19
461.85	25.75
462.04	70.22
462.22	77.24
462.40	0.00
462.59	0.00
462.77	14.04
462.95	70.22
463.13	0.00
463.32	21.06
463.50	0.00
463.68	46.81
463.86	51.49
464.05	56.17
464.23	32.77
464.41	42.13
464.59	65.54
464.78	44.47
464.96	0.00
465.14	30.43
465.32	65.54
465.50	81.92
465.69	49.15
465.87	30.43
466.05	72.56
466.23	60.85
466.41	0.00
466.60	0.00
466.78	51.49
466.96	44.47
467.14	74.90
467.32	14.04
467.51	32.77
467.69	0.00
467.87	23.41
468.05	28.09
468.23	79.58
468.41	23.41
468.60	79.58
468.78	0.00
468.96	25.75
469.14	0.00
469.32	32.77
469.50	0.00
469.69	67.88
469.87	95.96
470.05	51.49
470.23	30.43
470.41	25.75
470.59	74.90
470.77	42.13
470.95	25.75
471.14	0.00
471.32	44.47
471.50	18.72
471.68	93.62
471.86	49.15
472.04	4.68
472.22	18.72
472.40	0.00
472.58	0.00
472.77	65.54
472.95	67.88
473.13	74.90
473.31	79.58
473.49	18.72
473.67	0.00
473.85	67.88
474.03	25.75
474.21	0.00
474.39	51.49
474.57	14.04
474.75	23.41
474.93	35.11
475.12	39.79
475.30	44.47
475.48	46.81
475.66	88.94
475.84	0.00
476.02	53.83
476.20	44.47
476.38	84.26
476.56	18.72
476.74	28.09
476.92	28.09
477.10	30.43
477.28	32.77
477.46	84.26
477.64	56.17
477.82	98.30
478.00	0.00
478.18	42.13
478.36	0.00
478.54	65.54
478.72	0.00
478.90	0.00
479.08	0.00
479.26	46.81
479.44	95.96
479.62	4.68
479.80	0.00
479.98	0.00
480.16	14.04
480.34	4.68
480.52	105.32
480.70	0.00
480.88	81.92
481.06	53.83
481.24	21.06
481.41	46.81
481.59	9.36
481.77	81.92
481.95	0.00
482.13	21.06
482.31	11.70
482.49	0.00
482.67	18.72
482.85	74.90
483.03	18.72
483.21	0.00
483.39	39.79
483.57	32.77
483.74	74.90
483.92	42.13
484.10	37.45
484.28	0.00
484.46	74.90
484.64	67.88
484.82	81.92
485.00	65.54
485.18	0.00
485.35	4.68
485.53	0.00
485.71	56.17
485.89	0.00
486.07	4.68
486.25	65.54
486.43	49.15
486.61	58.51
486.78	2.34
486.96	56.17
487.14	11.70
487.32	14.04
487.50	37.45
487.68	18.72
487.85	9.36
488.03	23.41
488.21	18.72
488.39	65.54
488.57	42.13
488.75	25.75
488.92	9.36
489.10	88.94
489.28	46.81
489.46	0.00
489.64	32.77
489.81	53.83
489.99	0.00
490.17	0.00
490.35	28.09
490.53	67.88
490.70	0.00
490.88	60.85
491.06	0.00
491.24	0.00
491.41	39.79
491.59	53.83
491.77	42.13
491.95	56.17
492.13	23.41
492.30	39.79
492.48	72.56
492.66	25.75
492.84	35.11
493.01	35.11
493.19	67.88
493.37	84.26
493.54	18.72
493.72	7.02
493.90	39.79
494.08	16.38
494.25	53.83
494.43	42.13
494.61	65.54
494.79	65.54
494.96	0.00
495.14	79.58
495.32	114.69
495.49	35.11
495.67	30.43
495.85	84.26
496.02	28.09
496.20	58.51
496.38	30.43
496.55	32.77
496.73	42.13
496.91	46.81
497.09	105.32
497.26	9.36
497.44	0.00
497.62	0.00
497.79	65.54
497.97	72.56
498.14	46.81
498.32	0.00
498.50	74.90
498.67	37.45
498.85	60.85
499.03	79.58
499.20	53.83
499.38	0.00
499.56	25.75
499.73	67.88
499.91	28.09
500.08	79.58
500.26	81.92
500.44	112.35
500.61	16.38
500.79	77.24
500.97	23.41
501.14	23.41
501.32	28.09
501.49	0.00
501.67	72.56
501.84	0.00
502.02	18.72
502.20	79.58
502.37	79.58
502.55	88.94
502.72	21.06
502.90	53.83
503.07	42.13
503.25	49.15
503.43	112.35
503.60	39.79
503.78	18.72
503.95	0.00
504.13	11.70
504.30	60.85
504.48	32.77
504.65	44.47
504.83	11.70
505.01	0.00
505.18	42.13
505.36	63.19
505.53	32.77
505.71	25.75
505.88	60.85
506.06	46.81
506.23	44.47
506.41	0.00
506.58	102.98
506.76	0.00
506.93	63.19
507.11	63.19
507.28	44.47
507.46	30.43
507.63	23.41
507.81	60.85
507.98	23.41
508.16	11.70
508.33	0.00
508.50	58.51
508.68	91.28
508.85	65.54
509.03	58.51
509.20	9.36
509.38	30.43
509.55	21.06
509.73	58.51
509.90	63.19
510.08	51.49
510.25	23.41
510.42	0.00
510.60	0.00
510.77	93.62
510.95	65.54
511.12	46.81
511.30	42.13
511.47	16.38
511.64	63.19
511.82	28.09
511.99	9.36
512.17	30.43
512.34	0.00
512.51	56.17
512.69	35.11
512.86	9.36
513.04	63.19
513.21	88.94
513.38	74.90
513.56	0.00
513.73	0.00
513.90	70.22
514.08	46.81
514.25	95.96
514.43	30.43
514.60	86.60
514.77	30.43
514.95	44.47
515.12	105.32
515.29	39.79
515.47	42.13
515.64	14.04
515.81	4.68
515.99	88.94
516.16	51.49
516.33	0.00
516.51	98.30
516.68	67.88
516.85	2.34
517.03	0.00
517.20	72.56
517.37	98.30
517.54	11.70
517.72	60.85
517.89	9.36
518.06	70.22
518.24	7.02
518.41	56.17
518.58	18.72
518.75	53.83
518.93	21.06
519.10	65.54
519.27	100.64
519.45	9.36
519.62	7.02
519.79	16.38
519.96	65.54
520.14	42.13
520.31	39.79
520.48	74.90
520.65	37.45
520.83	0.00
521.00	86.60
521.17	21.06
521.34	23.41
521.52	32.77
521.69	84.26
521.86	60.85
522.03	46.81
522.20	56.17
522.38	25.75
522.55	63.19
522.72	16.38
522.89	18.72
523.07	58.51
523.24	35.11
523.41	0.00
523.58	0.00
523.75	56.17
523.92	23.41
524.10	70.22
524.27	23.41
524.44	4.68
524.61	100.64
524.78	39.79
524.96	30.43
525.13	7.02
525.30	100.64
525.47	49.15
525.64	2.34
525.81	86.60
525.98	49.15
526.16	21.06
526.33	0.00
526.50	21.06
526.67	14.04
526.84	18.72
527.01	11.70
527.18	51.49
527.36	42.13
527.53	37.45
527.70	9.36
527.87	18.72
528.04	51.49
528.21	9.36
528.38	32.77
528.55	60.85
528.72	9.36
528.89	23.41
529.07	35.11
529.24	0.00
529.41	74.90
529.58	35.11
529.75	51.49
529.92	18.72
530.09	58.51
530.26	32.77
530.43	105.32
530.60	74.90
530.77	35.11
530.94	21.06
531.11	0.00
531.28	60.85
531.46	58.51
531.63	91.28
531.80	39.79
531.97	72.56
532.14	16.38
532.31	53.83
532.48	58.51
532.65	28.09
532.82	42.13
532.99	56.17
533.16	9.36
533.33	72.56
533.50	56.17
533.67	11.70
533.84	49.15
534.01	16.38
534.18	72.56
534.35	46.81
534.52	14.04
534.69	0.00
534.86	51.49
535.03	18.72
535.20	35.11
535.37	86.60
535.54	0.00
535.71	88.94
535.88	16.38
536.05	70.22
536.22	32.77
536.38	25.75
536.55	16.38
536.72	51.49
536.89	77.24
537.06	44.47
537.23	56.17
537.40	35.11
537.57	72.56
537.74	42.13
537.91	93.62
538.08	84.26
538.25	4.68
538.42	0.00
538.59	35.11
538.75	37.45
538.92	7.02
539.09	72.56
539.26	30.43
539.43	35.11
539.60	154.48
539.77	114.69
539.94	51.49
540.11	30.43
540.28	42.13
540.44	49.15
540.61	14.04
540.78	49.15
540.95	63.19
541.12	39.79
541.29	30.43
541.46	35.11
541.62	102.98
541.79	42.13
541.96	65.54
542.13	42.13
542.30	35.11
542.47	7.02
542.63	4.68
542.80	0.00
542.97	56.17
543.14	46.81
543.31	51.49
543.48	51.49
543.64	93.62
543.81	51.49
543.98	25.75
544.15	77.24
544.32	32.77
544.48	35.11
544.65	91.28
544.82	79.58
544.99	39.79
545.16	23.41
545.32	11.70
545.49	0.00
545.66	70.22
545.83	58.51
546.00	11.70
546.16	4.68
546.33	28.09
546.50	0.00
546.67	60.85
546.83	32.77
547.00	70.22
547.17	110.01
547.34	49.15
547.50	70.22
547.67	32.77
547.84	56.17
548.00	86.60
548.17	46.81
548.34	46.81
548.51	0.00
548.67	21.06
548.84	70.22
549.01	16.38
549.18	56.17
549.34	86.60
549.51	93.62
549.68	28.09
549.84	0.00
550.01	28.09
550.18	79.58
550.34	65.54
550.51	30.43
550.68	56.17
550.84	0.00
551.01	0.00
551.18	23.41
551.34	7.02
551.51	11.70
551.68	95.96
551.84	18.72
552.01	44.47
552.18	133.41
552.34	0.00
552.51	60.85
552.68	18.72
552.84	72.56
553.01	9.36
553.18	60.85
553.34	72.56
553.51	67.88
553.67	56.17
553.84	25.75
554.01	0.00
554.17	53.83
554.34	98.30
554.51	86.60
554.67	74.90
554.84	16.38
555.00	4.68
555.17	100.64
555.33	35.11
555.50	25.75
555.67	18.72
555.83	18.72
556.00	93.62
556.16	0.00
556.33	88.94
556.50	105.32
556.66	46.81
556.83	0.00
556.99	72.56
557.16	56.17
557.32	0.00
557.49	4.68
557.65	93.62
557.82	46.81
557.98	60.85
558.15	88.94
558.32	44.47
558.48	37.45
558.65	2.34
558.81	0.00
558.98	32.77
559.14	65.54
559.31	25.75
559.47	42.13
559.64	35.11
559.80	0.00
559.97	86.60
560.13	28.09
560.30	30.43
560.46	58.51
560.63	21.06
560.79	21.06
560.96	32.77
561.12	63.19
561.29	35.11
561.45	72.56
561.61	63.19
561.78	72.56
561.94	11.70
562.11	25.75
562.27	60.85
562.44	84.26
562.60	60.85
562.77	37.45
562.93	49.15
563.10	53.83
563.26	51.49
563.42	9.36
563.59	0.00
563.75	30.43
563.92	35.11
564.08	21.06
564.24	11.70
564.41	49.15
564.57	32.77
564.74	72.56
564.90	7.02
565.07	37.45
565.23	42.13
565.39	46.81
565.56	51.49
565.72	0.00
565.88	18.72
566.05	70.22
566.21	25.75
566.38	18.72
566.54	79.58
566.70	63.19
566.87	79.58
567.03	58.51
567.19	25.75
567.36	37.45
567.52	37.45
567.68	44.47
567.85	18.72
568.01	35.11
568.17	14.04
568.34	39.79
568.50	14.04
568.66	28.09
568.83	51.49
568.99	124.05
569.15	18.72
569.32	0.00
569.48	51.49
569.64	7.02
569.81	18.72
569.97	70.22
570.13	65.54
570.30	51.49
570.46	74.90
570.62	67.88
570.78	4.68
570.95	0.00
571.11	79.58
571.27	81.92
571.43	56.17
571.60	32.77
571.76	49.15
571.92	32.77
572.09	56.17
572.25	114.69
572.41	49.15
572.57	25.75
572.74	11.70
572.90	18.72
573.06	124.05
573.22	79.58
573.38	16.38
573.55	37.45
573.71	37.45
573.87	0.00
574.03	65.54
574.20	0.00
574.36	102.98
574.52	102.98
574.68	44.47
574.84	25.75
575.01	2.34
575.17	46.81
575.33	35.11
575.49	51.49
575.65	39.79
575.82	35.11
575.98	93.62
576.14	70.22
576.30	2.34
576.46	37.45
576.62	105.32
576.79	0.00
576.95	0.00
577.11	23.41
577.27	84.26
577.43	112.35
577.59	102.98
577.75	86.60
577.92	14.04
578.08	0.00
578.24	56.17
578.40	93.62
578.56	2.34
578.72	35.11
578.88	58.51
579.04	0.00
579.21	7.02
579.37	51.49
579.53	91.28
579.69	53.83
579.85	21.06
580.01	65.54
580.17	0.00
580.33	49.15
580.49	72.56
580.65	110.01
580.82	91.28
580.98	42.13
581.14	49.15
581.30	107.66
581.46	37.45
581.62	18.72
581.78	39.79
581.94	0.00
582.10	65.54
582.26	42.13
582.42	79.58
582.58	0.00
582.74	14.04
582.90	32.77
583.06	65.54
583.22	28.09
583.38	98.30
583.54	67.88
583.70	2.34
583.86	79.58
584.02	72.56
584.18	112.35
584.34	163.84
584.50	175.54
584.66	1139.84
584.82	2363.94
584.98	3304.84
585.14	3176.11
585.30	1928.60
585.46	1165.59
585.62	704.50
585.78	355.76
585.94	140.43
586.10	110.01
586.26	117.03
586.42	81.92
586.58	0.00
586.74	0.00
586.90	58.51
587.06	102.98
587.22	95.96
587.38	110.01
587.54	58.51
587.70	168.52
587.86	297.25
588.02	273.84
588.18	180.22
588.34	145.11
588.49	63.19
588.65	121.71
588.81	53.83
588.97	63.19
589.13	9.36
589.29	0.00
589.45	173.20
589.61	91.28
589.77	42.13
589.93	9.36
590.08	79.58
590.24	65.54
590.40	86.60
590.56	79.58
590.72	35.11
590.88	37.45
591.04	30.43
591.20	0.00
591.35	100.64
591.51	60.85
591.67	46.81
591.83	63.19
591.99	138.09
592.15	77.24
592.31	42.13
592.46	21.06
592.62	39.79
592.78	51.49
592.94	35.11
593.10	65.54
593.26	32.77
593.41	0.00
593.57	70.22
593.73	86.60
593.89	140.43
594.05	320.65
594.20	521.94
594.36	477.47
594.52	301.93
594.68	124.05
594.84	135.75
594.99	161.50
595.15	0.00
595.31	51.49
595.47	124.05
595.62	25.75
595.78	70.22
595.94	23.41
596.10	14.04
596.25	23.41
596.41	9.36
596.57	4.68
596.73	86.60
596.88	95.96
597.04	77.24
597.20	194.26
597.36	119.37
597.51	100.64
597.67	53.83
597.83	65.54
597.99	105.32
598.14	84.26
598.30	65.54
598.46	14.04
598.61	51.49
598.77	14.04
598.93	49.15
599.09	49.15
599.24	46.81
599.40	121.71
599.56	14.04
599.71	28.09
599.87	0.00
600.03	86.60
600.18	95.96
600.34	70.22
600.50	77.24
600.65	35.11
600.81	56.17
600.97	46.81
601.12	37.45
601.28	11.70
601.44	56.17
601.59	46.81
601.75	0.00
601.91	0.00
602.06	2.34
602.22	32.77
602.37	7.02
602.53	163.84
602.69	114.69
602.84	177.88
603.00	147.45
603.16	114.69
603.31	58.51
603.47	72.56
603.62	32.77
603.78	84.26
603.94	70.22
604.09	30.43
604.25	74.90
604.40	39.79
604.56	77.24
604.71	65.54
604.87	9.36
605.03	32.77
605.18	23.41
605.34	23.41
605.49	58.51
605.65	56.17
605.80	0.00
605.96	30.43
606.12	114.69
606.27	67.88
606.43	49.15
606.58	58.51
606.74	110.01
606.89	161.50
607.05	325.33
607.20	444.70
607.36	404.91
607.51	285.55
607.67	154.48
607.82	105.32
607.98	0.00
608.13	16.38
608.29	37.45
608.44	63.19
608.60	25.75
608.75	93.62
608.91	42.13
609.06	327.68
609.22	503.22
609.37	713.86
609.53	575.77
609.68	404.91
609.84	299.59
609.99	196.60
610.15	152.13
610.30	16.38
610.46	9.36
610.61	105.32
610.76	0.00
610.92	42.13
611.07	58.51
611.23	100.64
611.38	86.60
611.54	7.02
611.69	56.17
611.84	74.90
612.00	65.54
612.15	42.13
612.31	77.24
612.46	9.36
612.62	86.60
612.77	107.66
612.92	58.51
613.08	65.54
613.23	25.75
613.39	0.00
613.54	114.69
613.69	271.50
613.85	613.22
614.00	938.55
614.15	1057.92
614.31	779.40
614.46	554.71
614.62	353.42
614.77	248.10
614.92	135.75
615.08	72.56
615.23	98.30
615.38	56.17
615.54	65.54
615.69	121.71
615.84	126.39
616.00	262.14
616.15	376.83
616.30	210.65
616.46	156.82
616.61	149.79
616.76	159.16
616.92	0.00
617.07	0.00
617.22	65.54
617.37	18.72
617.53	88.94
617.68	25.75
617.83	0.00
617.99	28.09
618.14	53.83
618.29	14.04
618.45	0.00
618.60	2.34
618.75	39.79
618.90	70.22
619.06	9.36
619.21	23.41
619.36	0.00
619.51	28.09
619.67	28.09
619.82	65.54
619.97	0.00
620.12	46.81
620.28	0.00
620.43	105.32
620.58	37.45
620.73	72.56
620.89	74.90
621.04	16.38
621.19	124.05
621.34	124.05
621.49	299.59
621.65	229.37
621.80	131.07
621.95	49.15
622.10	49.15
622.25	91.28
622.41	39.79
622.56	128.73
622.71	39.79
622.86	63.19
623.01	23.41
623.16	30.43
623.32	0.00
623.47	21.06
623.62	11.70
623.77	7.02
623.92	21.06
624.07	4.68
624.23	32.77
624.38	70.22
624.53	74.90
624.68	0.00
624.83	11.70
624.98	74.90
625.13	7.02
625.29	67.88
625.44	42.13
625.59	51.49
625.74	42.13
625.89	51.49
626.04	156.82
626.19	304.27
626.34	517.26
626.49	615.56
626.65	493.85
626.80	374.49
626.95	271.50
627.10	182.56
627.25	110.01
627.40	93.62
627.55	77.24
627.70	63.19
627.85	95.96
628.00	28.09
628.15	70.22
628.30	4.68
628.45	4.68
628.60	51.49
628.76	18.72
628.91	107.66
629.06	128.73
629.21	100.64
629.36	95.96
629.51	23.41
629.66	51.49
629.81	72.56
629.96	117.03
630.11	145.11
630.26	182.56
630.41	156.82
630.56	184.90
630.71	126.39
630.86	58.51
631.01	35.11
631.16	28.09
631.31	49.15
631.46	30.43
631.61	88.94
631.76	23.41
631.91	65.54
632.06	100.64
632.21	0.00
632.36	81.92
632.51	32.77
632.66	28.09
632.81	88.94
632.96	241.08
633.10	449.38
633.25	421.30
633.40	332.36
633.55	201.29
633.70	140.43
633.85	126.39
634.00	124.05
634.15	105.32
634.30	11.70
634.45	0.00
634.60	18.72
634.75	4.68
634.90	65.54
635.05	63.19
635.19	65.54
635.34	67.88
635.49	79.58
635.64	11.70
635.79	25.75
635.94	98.30
636.09	30.43
636.24	0.00
636.39	65.54
636.53	0.00
636.68	74.90
636.83	0.00
636.98	77.24
637.13	0.00
637.28	63.19
637.43	60.85
637.57	86.60
637.72	145.11
637.87	493.85
638.02	622.58
638.17	741.95
638.32	561.73
638.46	423.64
638.61	271.50
638.76	142.77
638.91	84.26
639.06	65.54
639.20	56.17
639.35	39.79
639.50	117.03
639.65	292.57
639.80	669.39
639.94	1036.86
640.09	1069.62
640.24	819.19
640.39	615.56
640.54	369.80
640.68	182.56
640.83	107.66
640.98	44.47
641.13	16.38
641.27	74.90
641.42	18.72
641.57	81.92
641.72	74.90
641.86	46.81
642.01	70.22
642.16	86.60
642.31	32.77
642.45	142.77
642.60	84.26
642.75	93.62
642.90	0.00
643.04	23.41
643.19	95.96
643.34	58.51
643.48	49.15
643.63	53.83
643.78	16.38
643.93	49.15
644.07	0.00
644.22	98.30
644.37	56.17
644.51	74.90
644.66	28.09
644.81	0.00
644.95	93.62
645.10	49.15
645.25	102.98
645.39	11.70
645.54	21.06
645.69	28.09
645.83	25.75
645.98	67.88
646.13	14.04
646.27	2.34
646.42	133.41
646.57	28.09
646.71	0.00
646.86	11.70
647.00	18.72
647.15	88.94
647.30	4.68
647.44	23.41
647.59	25.75
647.74	107.66
647.88	65.54
648.03	0.00
648.17	58.51
648.32	46.81
648.47	65.54
648.61	74.90
648.76	28.09
648.90	14.04
649.05	91.28
649.20	86.60
649.34	77.24
649.49	95.96
649.63	74.90
649.78	60.85
649.92	0.00
650.07	81.92
650.21	322.99
650.36	519.60
650.51	547.69
650.65	519.60
650.80	325.33
650.94	259.80
651.09	205.97
651.23	119.37
651.38	49.15
651.52	79.58
651.67	0.00
651.81	65.54
651.96	21.06
652.10	2.34
652.25	9.36
652.39	58.51
652.54	30.43
652.68	21.06
652.83	128.73
652.97	175.54
653.12	241.08
653.26	201.29
653.41	168.52
653.55	159.16
653.70	145.11
653.84	149.79
653.99	16.38
654.13	0.00
654.27	14.04
654.42	49.15
654.56	91.28
654.71	28.09
654.85	53.83
655.00	44.47
655.14	49.15
655.29	72.56
655.43	30.43
655.57	77.24
655.72	0.00
655.86	0.00
656.01	21.06
656.15	0.00
656.30	35.11
656.44	0.00
656.58	72.56
656.73	0.00
656.87	0.00
657.01	0.00
657.16	0.00
657.30	46.81
657.45	56.17
657.59	0.00
657.73	51.49
657.88	0.00
658.02	49.15
658.16	93.62
658.31	98.30
658.45	44.47
658.60	14.04
658.74	35.11
658.88	7.02
659.03	42.13
659.17	84.26
659.31	58.51
659.46	110.01
659.60	245.76
659.74	294.91
659.89	248.10
660.03	210.65
660.17	205.97
660.32	119.37
660.46	74.90
660.60	30.43
660.74	70.22
660.89	32.77
661.03	95.96
661.17	30.43
661.32	0.00
661.46	56.17
661.60	23.41
661.74	32.77
661.89	32.77
662.03	4.68
662.17	14.04
662.31	14.04
662.46	93.62
662.60	46.81
662.74	42.13
662.88	42.13
663.03	4.68
663.17	30.43
663.31	86.60
663.45	46.81
663.60	11.70
663.74	11.70
663.88	28.09
664.02	30.43
664.17	58.51
664.31	30.43
664.45	51.49
664.59	67.88
664.73	67.88
664.88	88.94
665.02	49.15
665.16	30.43
665.30	65.54
665.44	32.77
665.59	21.06
665.73	9.36
665.87	0.00
666.01	35.11
666.15	42.13
666.29	102.98
666.44	70.22
666.58	67.88
666.72	81.92
666.86	91.28
667.00	77.24
667.14	16.38
667.28	77.24
667.43	285.55
667.57	444.70
667.71	519.60
667.85	435.34
667.99	318.31
668.13	194.26
668.27	198.95
668.41	126.39
668.56	42.13
668.70	35.11
668.84	37.45
668.98	70.22
669.12	65.54
669.26	88.94
669.40	37.45
669.54	65.54
669.68	49.15
669.82	0.00
669.96	70.22
670.10	44.47
670.25	65.54
670.39	9.36
670.53	0.00
670.67	16.38
670.81	51.49
670.95	0.00
671.09	72.56
671.23	163.84
671.37	245.76
671.51	315.97
671.65	320.65
671.79	285.55
671.93	182.56
672.07	81.92
672.21	14.04
672.35	35.11
672.49	121.71
672.63	2.34
672.77	23.41
672.91	0.00
673.05	35.11
673.19	0.00
673.33	0.00
673.47	23.41
673.61	14.04
673.75	0.00
673.89	0.00
674.03	35.11
674.17	70.22
674.31	74.90
674.45	39.79
674.59	39.79
674.73	0.00
674.87	0.00
675.01	58.51
675.15	37.45
675.29	74.90
675.43	91.28
675.56	56.17
675.70	42.13
675.84	44.47
675.98	56.17
676.12	42.13
676.26	23.41
676.40	39.79
676.54	28.09
676.68	60.85
676.82	0.00
676.96	2.34
677.10	4.68
677.23	16.38
677.37	46.81
677.51	0.00
677.65	65.54
677.79	0.00
677.93	53.83
678.07	28.09
678.21	91.28
678.34	65.54
678.48	0.00
678.62	7.02
678.76	32.77
678.90	0.00
679.04	49.15
679.18	0.00
679.31	42.13
679.45	65.54
679.59	9.36
679.73	4.68
679.87	105.32
680.00	0.00
680.14	4.68
680.28	25.75
680.42	37.45
680.56	0.00
680.70	37.45
680.83	30.43
680.97	0.00
681.11	42.13
681.25	30.43
681.39	0.00
681.52	42.13
681.66	60.85
681.80	100.64
681.94	74.90
682.07	58.51
682.21	28.09
682.35	70.22
682.49	23.41
682.62	11.70
682.76	23.41
682.90	84.26
683.04	42.13
683.17	84.26
683.31	0.00
683.45	81.92
683.59	79.58
683.72	0.00
683.86	70.22
684.00	84.26
684.13	67.88
684.27	39.79
684.41	23.41
684.55	23.41
684.68	37.45
684.82	93.62
684.96	0.00
685.09	51.49
685.23	23.41
685.37	102.98
685.50	105.32
685.64	0.00
685.78	0.00
685.91	79.58
686.05	16.38
686.19	51.49
686.32	0.00
686.46	56.17
686.60	37.45
686.73	81.92
686.87	100.64
687.01	46.81
687.14	7.02
687.28	0.00
687.42	14.04
687.55	0.00
687.69	14.04
687.82	119.37
687.96	18.72
688.10	0.00
688.23	0.00
688.37	18.72
688.50	65.54
688.64	49.15
688.78	4.68
688.91	42.13
689.05	0.00
689.18	49.15
689.32	51.49
689.46	84.26
689.59	51.49
689.73	14.04
689.86	23.41
690.00	25.75
690.13	32.77
690.27	0.00
690.41	35.11
690.54	25.75
690.68	74.90
690.81	56.17
690.95	42.13
691.08	42.13
691.22	63.19
691.35	0.00
691.49	16.38
691.62	21.06
691.76	0.00
691.89	110.01
692.03	0.00
692.16	39.79
692.30	60.85
692.43	100.64
692.57	133.41
692.70	238.73
692.84	182.56
692.97	245.76
693.11	229.37
693.24	128.73
693.38	100.64
693.51	107.66
693.65	102.98
693.78	67.88
693.92	32.77
694.05	0.00
694.19	25.75
694.32	11.70
694.45	0.00
694.59	23.41
694.72	0.00
694.86	0.00
694.99	0.00
695.13	81.92
695.26	98.30
695.39	0.00
695.53	72.56
695.66	0.00
695.80	98.30
695.93	25.75
696.07	11.70
696.20	56.17
696.33	65.54
696.47	46.81
696.60	93.62
696.73	46.81
696.87	39.79
697.00	93.62
697.14	0.00
697.27	63.19
697.40	44.47
697.54	23.41
697.67	91.28
697.80	4.68
697.94	51.49
698.07	74.90
698.21	49.15
698.34	7.02
698.47	72.56
698.61	49.15
698.74	46.81
698.87	25.75
699.01	9.36
699.14	88.94
699.27	72.56
699.40	56.17
699.54	14.04
699.67	21.06
699.80	84.26
699.94	35.11
700.07	21.06
700.20	0.00
700.34	28.09
700.47	0.00
700.60	49.15
700.73	0.00
700.87	0.00
701.00	4.68
701.13	0.00
701.26	0.00
701.40	30.43
701.53	0.00
701.66	0.00
701.79	16.38
701.93	79.58
702.06	77.24
702.19	21.06
702.32	7.02
702.46	21.06
702.59	35.11
702.72	133.41
702.85	56.17
702.99	299.59
703.12	379.17
703.25	550.03
703.38	421.30
703.51	287.89
703.65	294.91
703.78	175.54
703.91	142.77
704.04	77.24
704.17	56.17
704.31	0.00
704.44	0.00
704.57	0.00
704.70	65.54
704.83	67.88
704.96	25.75
705.10	7.02
705.23	117.03
>>>>>End Processed Spectral Data<<<<<
