SpectraSuite Data File
++++++++++++++++++++++++++++++++++++
Date: Fri Oct 04 12:13:26 GMT-05:00 2013
User: price-jones
Dark Spectrum Present: No
Reference Spectrum Present: No
Number of Sampled Component Spectra: 1
Spectrometers: USB2+H05261
Integration Time (usec): 10000 (USB2+H05261)
Spectra Averaged: 1 (USB2+H05261)
Boxcar Smoothing: 0 (USB2+H05261)
Correct for Electrical Dark: No (USB2+H05261)
Strobe/Lamp Enabled: No (USB2+H05261)
Correct for Detector Non-linearity: No (USB2+H05261)
Correct for Stray Light: No (USB2+H05261)
Number of Pixels in Processed Spectrum: 2048
>>>>>Begin Processed Spectral Data<<<<<
365.73	91.28
365.92	91.28
366.12	91.28
366.32	0.00
366.52	0.00
366.72	0.00
366.91	0.00
367.11	0.00
367.31	0.00
367.51	0.00
367.70	0.00
367.90	0.00
368.10	0.00
368.30	0.00
368.49	0.00
368.69	0.00
368.89	0.00
369.09	0.00
369.28	0.00
369.48	0.00
369.68	0.00
369.87	0.00
370.07	0.00
370.27	0.00
370.47	0.00
370.66	0.00
370.86	0.00
371.06	0.00
371.25	0.00
371.45	32.77
371.65	7.02
371.84	0.00
372.04	0.00
372.24	0.00
372.44	0.00
372.63	0.00
372.83	30.43
373.03	18.72
373.22	0.00
373.42	0.00
373.62	11.70
373.81	0.00
374.01	49.15
374.21	72.56
374.40	0.00
374.60	65.54
374.79	70.22
374.99	21.06
375.19	0.00
375.38	0.00
375.58	21.06
375.78	49.15
375.97	70.22
376.17	65.54
376.37	32.77
376.56	65.54
376.76	23.41
376.95	60.85
377.15	14.04
377.35	2.34
377.54	16.38
377.74	0.00
377.93	46.81
378.13	60.85
378.33	0.00
378.52	63.19
378.72	0.00
378.91	9.36
379.11	28.09
379.31	0.00
379.50	0.00
379.70	35.11
379.89	56.17
380.09	0.00
380.28	28.09
380.48	25.75
380.68	30.43
380.87	0.00
381.07	16.38
381.26	4.68
381.46	0.00
381.65	28.09
381.85	53.83
382.04	0.00
382.24	0.00
382.43	37.45
382.63	0.00
382.83	4.68
383.02	23.41
383.22	30.43
383.41	44.47
383.61	0.00
383.80	14.04
384.00	30.43
384.19	0.00
384.39	14.04
384.58	39.79
384.78	37.45
384.97	0.00
385.17	58.51
385.36	9.36
385.56	49.15
385.75	7.02
385.95	79.58
386.14	0.00
386.34	56.17
386.53	28.09
386.72	74.90
386.92	0.00
387.11	0.00
387.31	0.00
387.50	0.00
387.70	0.00
387.89	30.43
388.09	112.35
388.28	53.83
388.48	18.72
388.67	51.49
388.86	56.17
389.06	0.00
389.25	23.41
389.45	25.75
389.64	46.81
389.84	30.43
390.03	23.41
390.22	0.00
390.42	67.88
390.61	0.00
390.81	0.00
391.00	51.49
391.19	72.56
391.39	0.00
391.58	28.09
391.78	11.70
391.97	16.38
392.16	18.72
392.36	95.96
392.55	39.79
392.75	42.13
392.94	51.49
393.13	70.22
393.33	0.00
393.52	7.02
393.71	0.00
393.91	53.83
394.10	18.72
394.29	25.75
394.49	9.36
394.68	0.00
394.88	11.70
395.07	51.49
395.26	56.17
395.46	35.11
395.65	4.68
395.84	0.00
396.04	84.26
396.23	32.77
396.42	32.77
396.62	35.11
396.81	37.45
397.00	81.92
397.19	79.58
397.39	28.09
397.58	70.22
397.77	21.06
397.97	37.45
398.16	14.04
398.35	51.49
398.55	14.04
398.74	11.70
398.93	44.47
399.12	0.00
399.32	32.77
399.51	0.00
399.70	0.00
399.90	53.83
400.09	0.00
400.28	4.68
400.47	51.49
400.67	35.11
400.86	14.04
401.05	53.83
401.24	11.70
401.44	2.34
401.63	14.04
401.82	28.09
402.01	23.41
402.21	7.02
402.40	0.00
402.59	28.09
402.78	44.47
402.97	9.36
403.17	35.11
403.36	0.00
403.55	60.85
403.74	30.43
403.93	53.83
404.13	14.04
404.32	14.04
404.51	56.17
404.70	23.41
404.89	88.94
405.09	32.77
405.28	0.00
405.47	18.72
405.66	39.79
405.85	0.00
406.05	65.54
406.24	0.00
406.43	0.00
406.62	95.96
406.81	23.41
407.00	42.13
407.20	58.51
407.39	0.00
407.58	35.11
407.77	49.15
407.96	35.11
408.15	53.83
408.34	30.43
408.54	44.47
408.73	23.41
408.92	56.17
409.11	0.00
409.30	79.58
409.49	0.00
409.68	70.22
409.87	28.09
410.07	0.00
410.26	2.34
410.45	28.09
410.64	35.11
410.83	37.45
411.02	86.60
411.21	16.38
411.40	21.06
411.59	74.90
411.78	65.54
411.98	67.88
412.17	30.43
412.36	53.83
412.55	74.90
412.74	0.00
412.93	30.43
413.12	0.00
413.31	0.00
413.50	0.00
413.69	39.79
413.88	53.83
414.07	117.03
414.26	35.11
414.45	0.00
414.64	39.79
414.83	14.04
415.02	16.38
415.22	4.68
415.41	58.51
415.60	28.09
415.79	86.60
415.98	2.34
416.17	11.70
416.36	79.58
416.55	51.49
416.74	7.02
416.93	16.38
417.12	72.56
417.31	37.45
417.50	49.15
417.69	0.00
417.88	0.00
418.07	28.09
418.26	51.49
418.45	93.62
418.64	0.00
418.83	37.45
419.02	53.83
419.21	9.36
419.39	11.70
419.58	0.00
419.77	0.00
419.96	0.00
420.15	65.54
420.34	42.13
420.53	0.00
420.72	44.47
420.91	42.13
421.10	0.00
421.29	4.68
421.48	0.00
421.67	9.36
421.86	25.75
422.05	51.49
422.24	72.56
422.43	0.00
422.61	0.00
422.80	46.81
422.99	105.32
423.18	53.83
423.37	35.11
423.56	0.00
423.75	79.58
423.94	42.13
424.13	14.04
424.32	86.60
424.50	77.24
424.69	119.37
424.88	46.81
425.07	39.79
425.26	63.19
425.45	53.83
425.64	21.06
425.83	21.06
426.01	28.09
426.20	25.75
426.39	9.36
426.58	4.68
426.77	7.02
426.96	81.92
427.15	37.45
427.33	30.43
427.52	42.13
427.71	14.04
427.90	18.72
428.09	28.09
428.28	42.13
428.46	0.00
428.65	35.11
428.84	11.70
429.03	121.71
429.22	30.43
429.40	56.17
429.59	60.85
429.78	86.60
429.97	37.45
430.16	25.75
430.34	44.47
430.53	42.13
430.72	100.64
430.91	37.45
431.10	42.13
431.28	32.77
431.47	49.15
431.66	53.83
431.85	32.77
432.03	0.00
432.22	102.98
432.41	11.70
432.60	25.75
432.79	53.83
432.97	35.11
433.16	42.13
433.35	0.00
433.54	51.49
433.72	58.51
433.91	0.00
434.10	51.49
434.28	23.41
434.47	79.58
434.66	0.00
434.85	4.68
435.03	9.36
435.22	37.45
435.41	30.43
435.59	32.77
435.78	0.00
435.97	60.85
436.16	0.00
436.34	53.83
436.53	84.26
436.72	49.15
436.90	42.13
437.09	23.41
437.28	46.81
437.46	39.79
437.65	110.01
437.84	14.04
438.02	30.43
438.21	46.81
438.40	0.00
438.58	58.51
438.77	39.79
438.96	70.22
439.14	0.00
439.33	81.92
439.52	91.28
439.70	37.45
439.89	39.79
440.08	35.11
440.26	23.41
440.45	11.70
440.63	0.00
440.82	0.00
441.01	28.09
441.19	63.19
441.38	0.00
441.57	84.26
441.75	18.72
441.94	14.04
442.12	23.41
442.31	0.00
442.50	9.36
442.68	58.51
442.87	0.00
443.05	44.47
443.24	4.68
443.43	72.56
443.61	100.64
443.80	23.41
443.98	53.83
444.17	37.45
444.35	58.51
444.54	0.00
444.73	84.26
444.91	39.79
445.10	46.81
445.28	63.19
445.47	95.96
445.65	0.00
445.84	0.00
446.02	0.00
446.21	0.00
446.39	23.41
446.58	18.72
446.77	44.47
446.95	77.24
447.14	23.41
447.32	0.00
447.51	2.34
447.69	70.22
447.88	93.62
448.06	14.04
448.25	2.34
448.43	49.15
448.62	18.72
448.80	21.06
448.99	98.30
449.17	74.90
449.36	53.83
449.54	100.64
449.73	42.13
449.91	0.00
450.10	86.60
450.28	25.75
450.46	67.88
450.65	18.72
450.83	67.88
451.02	21.06
451.20	25.75
451.39	63.19
451.57	0.00
451.76	4.68
451.94	142.77
452.13	60.85
452.31	0.00
452.49	49.15
452.68	72.56
452.86	60.85
453.05	0.00
453.23	93.62
453.42	32.77
453.60	7.02
453.78	46.81
453.97	23.41
454.15	7.02
454.34	0.00
454.52	51.49
454.70	0.00
454.89	39.79
455.07	18.72
455.26	7.02
455.44	37.45
455.62	14.04
455.81	11.70
455.99	25.75
456.17	39.79
456.36	58.51
456.54	0.00
456.73	32.77
456.91	72.56
457.09	25.75
457.28	37.45
457.46	51.49
457.64	0.00
457.83	0.00
458.01	46.81
458.19	16.38
458.38	60.85
458.56	0.00
458.74	39.79
458.93	53.83
459.11	21.06
459.29	81.92
459.48	49.15
459.66	32.77
459.84	100.64
460.03	30.43
460.21	23.41
460.39	49.15
460.57	44.47
460.76	67.88
460.94	35.11
461.12	51.49
461.31	30.43
461.49	2.34
461.67	9.36
461.85	35.11
462.04	0.00
462.22	119.37
462.40	63.19
462.59	28.09
462.77	32.77
462.95	28.09
463.13	4.68
463.32	42.13
463.50	25.75
463.68	16.38
463.86	0.00
464.05	28.09
464.23	0.00
464.41	18.72
464.59	0.00
464.78	39.79
464.96	9.36
465.14	0.00
465.32	79.58
465.50	30.43
465.69	32.77
465.87	67.88
466.05	32.77
466.23	23.41
466.41	98.30
466.60	74.90
466.78	60.85
466.96	0.00
467.14	49.15
467.32	37.45
467.51	16.38
467.69	0.00
467.87	95.96
468.05	98.30
468.23	21.06
468.41	51.49
468.60	2.34
468.78	16.38
468.96	44.47
469.14	0.00
469.32	84.26
469.50	28.09
469.69	9.36
469.87	35.11
470.05	23.41
470.23	25.75
470.41	51.49
470.59	56.17
470.77	0.00
470.95	39.79
471.14	138.09
471.32	112.35
471.50	9.36
471.68	65.54
471.86	14.04
472.04	51.49
472.22	65.54
472.40	53.83
472.58	28.09
472.77	44.47
472.95	79.58
473.13	0.00
473.31	77.24
473.49	14.04
473.67	32.77
473.85	51.49
474.03	39.79
474.21	25.75
474.39	46.81
474.57	39.79
474.75	16.38
474.93	84.26
475.12	4.68
475.30	11.70
475.48	4.68
475.66	39.79
475.84	21.06
476.02	0.00
476.20	51.49
476.38	0.00
476.56	4.68
476.74	30.43
476.92	0.00
477.10	18.72
477.28	11.70
477.46	100.64
477.64	0.00
477.82	46.81
478.00	16.38
478.18	0.00
478.36	93.62
478.54	11.70
478.72	4.68
478.90	63.19
479.08	49.15
479.26	0.00
479.44	2.34
479.62	18.72
479.80	67.88
479.98	42.13
480.16	42.13
480.34	49.15
480.52	84.26
480.70	0.00
480.88	4.68
481.06	21.06
481.24	9.36
481.41	0.00
481.59	53.83
481.77	2.34
481.95	119.37
482.13	28.09
482.31	81.92
482.49	60.85
482.67	77.24
482.85	42.13
483.03	51.49
483.21	23.41
483.39	30.43
483.57	16.38
483.74	105.32
483.92	16.38
484.10	21.06
484.28	63.19
484.46	42.13
484.64	46.81
484.82	0.00
485.00	70.22
485.18	32.77
485.35	25.75
485.53	0.00
485.71	0.00
485.89	30.43
486.07	44.47
486.25	88.94
486.43	98.30
486.61	67.88
486.78	126.39
486.96	0.00
487.14	14.04
487.32	58.51
487.50	88.94
487.68	4.68
487.85	16.38
488.03	23.41
488.21	7.02
488.39	46.81
488.57	39.79
488.75	65.54
488.92	117.03
489.10	51.49
489.28	44.47
489.46	0.00
489.64	23.41
489.81	91.28
489.99	81.92
490.17	16.38
490.35	53.83
490.53	65.54
490.70	81.92
490.88	37.45
491.06	39.79
491.24	0.00
491.41	58.51
491.59	51.49
491.77	14.04
491.95	72.56
492.13	72.56
492.30	95.96
492.48	84.26
492.66	58.51
492.84	11.70
493.01	23.41
493.19	39.79
493.37	32.77
493.54	65.54
493.72	84.26
493.90	77.24
494.08	51.49
494.25	56.17
494.43	21.06
494.61	14.04
494.79	30.43
494.96	72.56
495.14	74.90
495.32	0.00
495.49	93.62
495.67	37.45
495.85	0.00
496.02	37.45
496.20	35.11
496.38	42.13
496.55	23.41
496.73	67.88
496.91	53.83
497.09	35.11
497.26	32.77
497.44	84.26
497.62	18.72
497.79	65.54
497.97	42.13
498.14	0.00
498.32	0.00
498.50	30.43
498.67	18.72
498.85	42.13
499.03	2.34
499.20	0.00
499.38	37.45
499.56	9.36
499.73	49.15
499.91	23.41
500.08	39.79
500.26	56.17
500.44	25.75
500.61	21.06
500.79	0.00
500.97	11.70
501.14	51.49
501.32	0.00
501.49	53.83
501.67	53.83
501.84	32.77
502.02	4.68
502.20	46.81
502.37	42.13
502.55	91.28
502.72	81.92
502.90	93.62
503.07	0.00
503.25	42.13
503.43	16.38
503.60	77.24
503.78	46.81
503.95	58.51
504.13	11.70
504.30	58.51
504.48	2.34
504.65	39.79
504.83	16.38
505.01	0.00
505.18	7.02
505.36	70.22
505.53	42.13
505.71	65.54
505.88	77.24
506.06	56.17
506.23	21.06
506.41	25.75
506.58	14.04
506.76	93.62
506.93	18.72
507.11	46.81
507.28	58.51
507.46	0.00
507.63	51.49
507.81	0.00
507.98	0.00
508.16	93.62
508.33	37.45
508.50	32.77
508.68	0.00
508.85	0.00
509.03	88.94
509.20	23.41
509.38	0.00
509.55	14.04
509.73	32.77
509.90	102.98
510.08	23.41
510.25	32.77
510.42	44.47
510.60	56.17
510.77	4.68
510.95	25.75
511.12	0.00
511.30	0.00
511.47	37.45
511.64	39.79
511.82	0.00
511.99	72.56
512.17	65.54
512.34	51.49
512.51	53.83
512.69	44.47
512.86	18.72
513.04	32.77
513.21	70.22
513.38	18.72
513.56	11.70
513.73	58.51
513.90	37.45
514.08	86.60
514.25	14.04
514.43	37.45
514.60	51.49
514.77	14.04
514.95	70.22
515.12	23.41
515.29	28.09
515.47	39.79
515.64	11.70
515.81	44.47
515.99	0.00
516.16	32.77
516.33	37.45
516.51	46.81
516.68	16.38
516.85	105.32
517.03	46.81
517.20	88.94
517.37	65.54
517.54	35.11
517.72	28.09
517.89	32.77
518.06	32.77
518.24	42.13
518.41	74.90
518.58	2.34
518.75	67.88
518.93	49.15
519.10	9.36
519.27	0.00
519.45	42.13
519.62	16.38
519.79	84.26
519.96	28.09
520.14	0.00
520.31	74.90
520.48	112.35
520.65	100.64
520.83	74.90
521.00	98.30
521.17	46.81
521.34	28.09
521.52	86.60
521.69	58.51
521.86	91.28
522.03	53.83
522.20	39.79
522.38	49.15
522.55	70.22
522.72	63.19
522.89	28.09
523.07	0.00
523.24	0.00
523.41	65.54
523.58	67.88
523.75	79.58
523.92	28.09
524.10	21.06
524.27	9.36
524.44	28.09
524.61	58.51
524.78	2.34
524.96	53.83
525.13	9.36
525.30	88.94
525.47	25.75
525.64	60.85
525.81	74.90
525.98	58.51
526.16	23.41
526.33	14.04
526.50	25.75
526.67	91.28
526.84	98.30
527.01	4.68
527.18	49.15
527.36	110.01
527.53	46.81
527.70	37.45
527.87	67.88
528.04	11.70
528.21	77.24
528.38	37.45
528.55	30.43
528.72	2.34
528.89	9.36
529.07	84.26
529.24	56.17
529.41	70.22
529.58	44.47
529.75	58.51
529.92	0.00
530.09	63.19
530.26	84.26
530.43	72.56
530.60	70.22
530.77	28.09
530.94	42.13
531.11	56.17
531.28	65.54
531.46	56.17
531.63	67.88
531.80	51.49
531.97	79.58
532.14	9.36
532.31	18.72
532.48	60.85
532.65	23.41
532.82	21.06
532.99	42.13
533.16	67.88
533.33	9.36
533.50	53.83
533.67	70.22
533.84	51.49
534.01	23.41
534.18	30.43
534.35	56.17
534.52	28.09
534.69	51.49
534.86	91.28
535.03	32.77
535.20	44.47
535.37	0.00
535.54	18.72
535.71	65.54
535.88	30.43
536.05	25.75
536.22	0.00
536.38	98.30
536.55	0.00
536.72	63.19
536.89	0.00
537.06	67.88
537.23	11.70
537.40	4.68
537.57	35.11
537.74	121.71
537.91	44.47
538.08	0.00
538.25	28.09
538.42	42.13
538.59	88.94
538.75	23.41
538.92	0.00
539.09	72.56
539.26	0.00
539.43	21.06
539.60	30.43
539.77	30.43
539.94	30.43
540.11	37.45
540.28	39.79
540.44	56.17
540.61	18.72
540.78	28.09
540.95	25.75
541.12	49.15
541.29	51.49
541.46	7.02
541.62	51.49
541.79	72.56
541.96	0.00
542.13	0.00
542.30	60.85
542.47	16.38
542.63	53.83
542.80	65.54
542.97	21.06
543.14	23.41
543.31	56.17
543.48	32.77
543.64	0.00
543.81	0.00
543.98	51.49
544.15	7.02
544.32	0.00
544.48	49.15
544.65	11.70
544.82	93.62
544.99	30.43
545.16	7.02
545.32	53.83
545.49	46.81
545.66	14.04
545.83	58.51
546.00	51.49
546.16	0.00
546.33	98.30
546.50	51.49
546.67	53.83
546.83	58.51
547.00	70.22
547.17	32.77
547.34	0.00
547.50	74.90
547.67	18.72
547.84	42.13
548.00	117.03
548.17	117.03
548.34	60.85
548.51	58.51
548.67	105.32
548.84	58.51
549.01	91.28
549.18	35.11
549.34	0.00
549.51	49.15
549.68	0.00
549.84	72.56
550.01	56.17
550.18	70.22
550.34	112.35
550.51	0.00
550.68	70.22
550.84	79.58
551.01	39.79
551.18	42.13
551.34	0.00
551.51	32.77
551.68	81.92
551.84	65.54
552.01	11.70
552.18	30.43
552.34	105.32
552.51	65.54
552.68	39.79
552.84	0.00
553.01	91.28
553.18	114.69
553.34	60.85
553.51	49.15
553.67	72.56
553.84	60.85
554.01	67.88
554.17	46.81
554.34	58.51
554.51	37.45
554.67	74.90
554.84	28.09
555.00	102.98
555.17	0.00
555.33	0.00
555.50	46.81
555.67	0.00
555.83	11.70
556.00	25.75
556.16	23.41
556.33	53.83
556.50	74.90
556.66	81.92
556.83	2.34
556.99	21.06
557.16	0.00
557.32	56.17
557.49	42.13
557.65	93.62
557.82	21.06
557.98	30.43
558.15	58.51
558.32	84.26
558.48	0.00
558.65	25.75
558.81	0.00
558.98	0.00
559.14	39.79
559.31	77.24
559.47	11.70
559.64	30.43
559.80	49.15
559.97	79.58
560.13	65.54
560.30	91.28
560.46	77.24
560.63	60.85
560.79	14.04
560.96	81.92
561.12	16.38
561.29	0.00
561.45	25.75
561.61	44.47
561.78	86.60
561.94	44.47
562.11	39.79
562.27	25.75
562.44	58.51
562.60	60.85
562.77	63.19
562.93	4.68
563.10	65.54
563.26	72.56
563.42	42.13
563.59	39.79
563.75	95.96
563.92	9.36
564.08	65.54
564.24	0.00
564.41	91.28
564.57	11.70
564.74	0.00
564.90	21.06
565.07	14.04
565.23	102.98
565.39	25.75
565.56	77.24
565.72	58.51
565.88	72.56
566.05	42.13
566.21	0.00
566.38	0.00
566.54	88.94
566.70	18.72
566.87	44.47
567.03	23.41
567.19	56.17
567.36	0.00
567.52	0.00
567.68	63.19
567.85	39.79
568.01	25.75
568.17	65.54
568.34	30.43
568.50	117.03
568.66	21.06
568.83	86.60
568.99	7.02
569.15	65.54
569.32	79.58
569.48	21.06
569.64	79.58
569.81	91.28
569.97	119.37
570.13	39.79
570.30	9.36
570.46	72.56
570.62	0.00
570.78	53.83
570.95	65.54
571.11	18.72
571.27	18.72
571.43	0.00
571.60	114.69
571.76	39.79
571.92	23.41
572.09	30.43
572.25	39.79
572.41	88.94
572.57	65.54
572.74	105.32
572.90	18.72
573.06	0.00
573.22	0.00
573.38	37.45
573.55	77.24
573.71	51.49
573.87	0.00
574.03	60.85
574.20	37.45
574.36	74.90
574.52	72.56
574.68	0.00
574.84	23.41
575.01	42.13
575.17	98.30
575.33	58.51
575.49	74.90
575.65	23.41
575.82	79.58
575.98	0.00
576.14	7.02
576.30	49.15
576.46	42.13
576.62	9.36
576.79	23.41
576.95	0.00
577.11	114.69
577.27	0.00
577.43	0.00
577.59	39.79
577.75	67.88
577.92	0.00
578.08	44.47
578.24	11.70
578.40	30.43
578.56	42.13
578.72	9.36
578.88	58.51
579.04	0.00
579.21	23.41
579.37	23.41
579.53	42.13
579.69	4.68
579.85	44.47
580.01	67.88
580.17	16.38
580.33	58.51
580.49	88.94
580.65	121.71
580.82	0.00
580.98	25.75
581.14	11.70
581.30	44.47
581.46	84.26
581.62	58.51
581.78	32.77
581.94	44.47
582.10	0.00
582.26	35.11
582.42	58.51
582.58	28.09
582.74	14.04
582.90	35.11
583.06	72.56
583.22	25.75
583.38	58.51
583.54	60.85
583.70	91.28
583.86	91.28
584.02	30.43
584.18	72.56
584.34	30.43
584.50	60.85
584.66	77.24
584.82	102.98
584.98	81.92
585.14	110.01
585.30	128.73
585.46	65.54
585.62	42.13
585.78	110.01
585.94	11.70
586.10	0.00
586.26	0.00
586.42	9.36
586.58	72.56
586.74	74.90
586.90	2.34
587.06	0.00
587.22	98.30
587.38	88.94
587.54	7.02
587.70	39.79
587.86	72.56
588.02	112.35
588.18	30.43
588.34	0.00
588.49	42.13
588.65	46.81
588.81	84.26
588.97	0.00
589.13	86.60
589.29	58.51
589.45	0.00
589.61	0.00
589.77	32.77
589.93	0.00
590.08	37.45
590.24	21.06
590.40	30.43
590.56	79.58
590.72	56.17
590.88	74.90
591.04	53.83
591.20	53.83
591.35	0.00
591.51	65.54
591.67	95.96
591.83	0.00
591.99	77.24
592.15	100.64
592.31	51.49
592.46	0.00
592.62	32.77
592.78	46.81
592.94	51.49
593.10	2.34
593.26	0.00
593.41	18.72
593.57	51.49
593.73	25.75
593.89	42.13
594.05	0.00
594.20	0.00
594.36	21.06
594.52	49.15
594.68	9.36
594.84	35.11
594.99	30.43
595.15	67.88
595.31	2.34
595.47	46.81
595.62	70.22
595.78	42.13
595.94	21.06
596.10	0.00
596.25	32.77
596.41	9.36
596.57	0.00
596.73	65.54
596.88	18.72
597.04	44.47
597.20	0.00
597.36	46.81
597.51	91.28
597.67	53.83
597.83	44.47
597.99	4.68
598.14	121.71
598.30	110.01
598.46	56.17
598.61	60.85
598.77	0.00
598.93	49.15
599.09	49.15
599.24	9.36
599.40	88.94
599.56	14.04
599.71	56.17
599.87	60.85
600.03	46.81
600.18	28.09
600.34	32.77
600.50	49.15
600.65	14.04
600.81	56.17
600.97	79.58
601.12	53.83
601.28	124.05
601.44	9.36
601.59	67.88
601.75	84.26
601.91	28.09
602.06	28.09
602.22	0.00
602.37	63.19
602.53	32.77
602.69	49.15
602.84	58.51
603.00	9.36
603.16	0.00
603.31	77.24
603.47	72.56
603.62	44.47
603.78	28.09
603.94	39.79
604.09	39.79
604.25	0.00
604.40	14.04
604.56	0.00
604.71	44.47
604.87	46.81
605.03	0.00
605.18	0.00
605.34	84.26
605.49	79.58
605.65	86.60
605.80	2.34
605.96	16.38
606.12	28.09
606.27	70.22
606.43	42.13
606.58	42.13
606.74	46.81
606.89	28.09
607.05	84.26
607.20	23.41
607.36	28.09
607.51	0.00
607.67	35.11
607.82	60.85
607.98	7.02
608.13	0.00
608.29	91.28
608.44	70.22
608.60	77.24
608.75	46.81
608.91	44.47
609.06	79.58
609.22	49.15
609.37	46.81
609.53	86.60
609.68	105.32
609.84	100.64
609.99	32.77
610.15	28.09
610.30	74.90
610.46	58.51
610.61	51.49
610.76	42.13
610.92	0.00
611.07	18.72
611.23	67.88
611.38	63.19
611.54	0.00
611.69	0.00
611.84	0.00
612.00	65.54
612.15	49.15
612.31	32.77
612.46	39.79
612.62	35.11
612.77	67.88
612.92	18.72
613.08	53.83
613.23	74.90
613.39	30.43
613.54	105.32
613.69	7.02
613.85	42.13
614.00	28.09
614.15	37.45
614.31	56.17
614.46	51.49
614.62	72.56
614.77	21.06
614.92	7.02
615.08	107.66
615.23	21.06
615.38	86.60
615.54	37.45
615.69	11.70
615.84	56.17
616.00	4.68
616.15	0.00
616.30	53.83
616.46	4.68
616.61	95.96
616.76	0.00
616.92	4.68
617.07	51.49
617.22	16.38
617.37	28.09
617.53	9.36
617.68	70.22
617.83	0.00
617.99	0.00
618.14	4.68
618.29	35.11
618.45	9.36
618.60	16.38
618.75	21.06
618.90	53.83
619.06	0.00
619.21	53.83
619.36	63.19
619.51	18.72
619.67	25.75
619.82	32.77
619.97	86.60
620.12	28.09
620.28	88.94
620.43	42.13
620.58	0.00
620.73	0.00
620.89	25.75
621.04	0.00
621.19	0.00
621.34	58.51
621.49	42.13
621.65	16.38
621.80	0.00
621.95	21.06
622.10	65.54
622.25	67.88
622.41	53.83
622.56	60.85
622.71	53.83
622.86	35.11
623.01	0.00
623.16	42.13
623.32	18.72
623.47	74.90
623.62	0.00
623.77	53.83
623.92	65.54
624.07	30.43
624.23	25.75
624.38	23.41
624.53	0.00
624.68	42.13
624.83	112.35
624.98	4.68
625.13	35.11
625.29	79.58
625.44	0.00
625.59	0.00
625.74	9.36
625.89	79.58
626.04	60.85
626.19	77.24
626.34	74.90
626.49	0.00
626.65	37.45
626.80	21.06
626.95	86.60
627.10	60.85
627.25	51.49
627.40	7.02
627.55	102.98
627.70	11.70
627.85	28.09
628.00	30.43
628.15	21.06
628.30	0.00
628.45	14.04
628.60	35.11
628.76	56.17
628.91	2.34
629.06	0.00
629.21	16.38
629.36	49.15
629.51	0.00
629.66	23.41
629.81	39.79
629.96	42.13
630.11	58.51
630.26	0.00
630.41	100.64
630.56	37.45
630.71	88.94
630.86	56.17
631.01	14.04
631.16	0.00
631.31	23.41
631.46	11.70
631.61	21.06
631.76	37.45
631.91	72.56
632.06	28.09
632.21	49.15
632.36	39.79
632.51	93.62
632.66	16.38
632.81	98.30
632.96	42.13
633.10	37.45
633.25	56.17
633.40	16.38
633.55	23.41
633.70	60.85
633.85	23.41
634.00	58.51
634.15	23.41
634.30	88.94
634.45	16.38
634.60	67.88
634.75	30.43
634.90	14.04
635.05	9.36
635.19	0.00
635.34	46.81
635.49	0.00
635.64	11.70
635.79	77.24
635.94	65.54
636.09	0.00
636.24	14.04
636.39	0.00
636.53	2.34
636.68	7.02
636.83	42.13
636.98	37.45
637.13	107.66
637.28	39.79
637.43	0.00
637.57	14.04
637.72	53.83
637.87	25.75
638.02	14.04
638.17	16.38
638.32	42.13
638.46	0.00
638.61	51.49
638.76	18.72
638.91	0.00
639.06	35.11
639.20	9.36
639.35	14.04
639.50	23.41
639.65	53.83
639.80	72.56
639.94	46.81
640.09	84.26
640.24	37.45
640.39	53.83
640.54	37.45
640.68	102.98
640.83	0.00
640.98	28.09
641.13	0.00
641.27	70.22
641.42	72.56
641.57	0.00
641.72	28.09
641.86	81.92
642.01	28.09
642.16	79.58
642.31	25.75
642.45	60.85
642.60	30.43
642.75	0.00
642.90	0.00
643.04	9.36
643.19	0.00
643.34	49.15
643.48	0.00
643.63	2.34
643.78	67.88
643.93	0.00
644.07	51.49
644.22	32.77
644.37	4.68
644.51	2.34
644.66	35.11
644.81	4.68
644.95	46.81
645.10	30.43
645.25	0.00
645.39	42.13
645.54	49.15
645.69	7.02
645.83	42.13
645.98	0.00
646.13	39.79
646.27	0.00
646.42	93.62
646.57	0.00
646.71	58.51
646.86	74.90
647.00	77.24
647.15	58.51
647.30	0.00
647.44	7.02
647.59	51.49
647.74	4.68
647.88	0.00
648.03	63.19
648.17	49.15
648.32	21.06
648.47	0.00
648.61	11.70
648.76	0.00
648.90	49.15
649.05	60.85
649.20	21.06
649.34	53.83
649.49	60.85
649.63	70.22
649.78	65.54
649.92	39.79
650.07	28.09
650.21	39.79
650.36	79.58
650.51	53.83
650.65	42.13
650.80	46.81
650.94	88.94
651.09	0.00
651.23	23.41
651.38	0.00
651.52	0.00
651.67	0.00
651.81	0.00
651.96	37.45
652.10	25.75
652.25	35.11
652.39	25.75
652.54	37.45
652.68	25.75
652.83	102.98
652.97	0.00
653.12	70.22
653.26	88.94
653.41	0.00
653.55	11.70
653.70	60.85
653.84	0.00
653.99	30.43
654.13	11.70
654.27	0.00
654.42	37.45
654.56	2.34
654.71	7.02
654.85	0.00
655.00	18.72
655.14	9.36
655.29	21.06
655.43	23.41
655.57	51.49
655.72	0.00
655.86	0.00
656.01	28.09
656.15	0.00
656.30	28.09
656.44	32.77
656.58	0.00
656.73	60.85
656.87	49.15
657.01	46.81
657.16	74.90
657.30	42.13
657.45	0.00
657.59	11.70
657.73	28.09
657.88	51.49
658.02	91.28
658.16	84.26
658.31	42.13
658.45	23.41
658.60	32.77
658.74	51.49
658.88	79.58
659.03	0.00
659.17	0.00
659.31	0.00
659.46	93.62
659.60	60.85
659.74	25.75
659.89	14.04
660.03	0.00
660.17	93.62
660.32	46.81
660.46	32.77
660.60	9.36
660.74	28.09
660.89	60.85
661.03	35.11
661.17	4.68
661.32	0.00
661.46	56.17
661.60	32.77
661.74	65.54
661.89	0.00
662.03	60.85
662.17	0.00
662.31	117.03
662.46	53.83
662.60	42.13
662.74	49.15
662.88	4.68
663.03	11.70
663.17	60.85
663.31	74.90
663.45	0.00
663.60	0.00
663.74	21.06
663.88	72.56
664.02	81.92
664.17	79.58
664.31	0.00
664.45	65.54
664.59	21.06
664.73	28.09
664.88	23.41
665.02	32.77
665.16	32.77
665.30	51.49
665.44	46.81
665.59	0.00
665.73	18.72
665.87	11.70
666.01	32.77
666.15	93.62
666.29	0.00
666.44	0.00
666.58	119.37
666.72	18.72
666.86	0.00
667.00	88.94
667.14	4.68
667.28	25.75
667.43	30.43
667.57	65.54
667.71	23.41
667.85	39.79
667.99	30.43
668.13	56.17
668.27	63.19
668.41	11.70
668.56	0.00
668.70	114.69
668.84	2.34
668.98	0.00
669.12	28.09
669.26	72.56
669.40	49.15
669.54	67.88
669.68	56.17
669.82	70.22
669.96	81.92
670.10	0.00
670.25	42.13
670.39	23.41
670.53	9.36
670.67	18.72
670.81	72.56
670.95	74.90
671.09	95.96
671.23	23.41
671.37	56.17
671.51	84.26
671.65	56.17
671.79	102.98
671.93	65.54
672.07	51.49
672.21	63.19
672.35	0.00
672.49	0.00
672.63	42.13
672.77	138.09
672.91	133.41
673.05	7.02
673.19	32.77
673.33	49.15
673.47	9.36
673.61	7.02
673.75	0.00
673.89	86.60
674.03	63.19
674.17	39.79
674.31	67.88
674.45	25.75
674.59	0.00
674.73	51.49
674.87	81.92
675.01	11.70
675.15	21.06
675.29	0.00
675.43	0.00
675.56	0.00
675.70	70.22
675.84	65.54
675.98	65.54
676.12	53.83
676.26	18.72
676.40	81.92
676.54	0.00
676.68	42.13
676.82	35.11
676.96	77.24
677.10	105.32
677.23	35.11
677.37	0.00
677.51	42.13
677.65	84.26
677.79	44.47
677.93	51.49
678.07	14.04
678.21	60.85
678.34	0.00
678.48	0.00
678.62	44.47
678.76	91.28
678.90	4.68
679.04	81.92
679.18	0.00
679.31	0.00
679.45	7.02
679.59	42.13
679.73	98.30
679.87	9.36
680.00	30.43
680.14	49.15
680.28	0.00
680.42	0.00
680.56	56.17
680.70	46.81
680.83	0.00
680.97	44.47
681.11	91.28
681.25	56.17
681.39	49.15
681.52	0.00
681.66	32.77
681.80	93.62
681.94	35.11
682.07	39.79
682.21	0.00
682.35	81.92
682.49	0.00
682.62	88.94
682.76	30.43
682.90	49.15
683.04	65.54
683.17	0.00
683.31	46.81
683.45	0.00
683.59	46.81
683.72	77.24
683.86	11.70
684.00	46.81
684.13	23.41
684.27	79.58
684.41	70.22
684.55	0.00
684.68	0.00
684.82	16.38
684.96	35.11
685.09	79.58
685.23	65.54
685.37	2.34
685.50	35.11
685.64	72.56
685.78	9.36
685.91	21.06
686.05	35.11
686.19	32.77
686.32	0.00
686.46	2.34
686.60	7.02
686.73	0.00
686.87	30.43
687.01	0.00
687.14	32.77
687.28	0.00
687.42	4.68
687.55	77.24
687.69	58.51
687.82	7.02
687.96	42.13
688.10	0.00
688.23	91.28
688.37	28.09
688.50	0.00
688.64	53.83
688.78	53.83
688.91	37.45
689.05	25.75
689.18	0.00
689.32	72.56
689.46	0.00
689.59	91.28
689.73	0.00
689.86	37.45
690.00	18.72
690.13	23.41
690.27	51.49
690.41	4.68
690.54	23.41
690.68	23.41
690.81	51.49
690.95	32.77
691.08	79.58
691.22	0.00
691.35	0.00
691.49	28.09
691.62	9.36
691.76	11.70
691.89	74.90
692.03	14.04
692.16	2.34
692.30	72.56
692.43	0.00
692.57	56.17
692.70	0.00
692.84	39.79
692.97	74.90
693.11	91.28
693.24	7.02
693.38	0.00
693.51	49.15
693.65	67.88
693.78	44.47
693.92	37.45
694.05	0.00
694.19	39.79
694.32	25.75
694.45	37.45
694.59	58.51
694.72	37.45
694.86	18.72
694.99	35.11
695.13	14.04
695.26	49.15
695.39	39.79
695.53	74.90
695.66	28.09
695.80	51.49
695.93	4.68
696.07	0.00
696.20	23.41
696.33	2.34
696.47	32.77
696.60	0.00
696.73	60.85
696.87	53.83
697.00	74.90
697.14	35.11
697.27	51.49
697.40	67.88
697.54	4.68
697.67	30.43
697.80	39.79
697.94	49.15
698.07	53.83
698.21	0.00
698.34	30.43
698.47	0.00
698.61	21.06
698.74	42.13
698.87	23.41
699.01	72.56
699.14	63.19
699.27	25.75
699.40	28.09
699.54	4.68
699.67	46.81
699.80	37.45
699.94	0.00
700.07	4.68
700.20	0.00
700.34	0.00
700.47	16.38
700.60	21.06
700.73	53.83
700.87	7.02
701.00	88.94
701.13	32.77
701.26	4.68
701.40	9.36
701.53	11.70
701.66	0.00
701.79	0.00
701.93	18.72
702.06	14.04
702.19	4.68
702.32	0.00
702.46	28.09
702.59	0.00
702.72	32.77
702.85	56.17
702.99	14.04
703.12	23.41
703.25	9.36
703.38	44.47
703.51	60.85
703.65	77.24
703.78	2.34
703.91	21.06
704.04	49.15
704.17	74.90
704.31	0.00
704.44	44.47
704.57	95.96
704.70	9.36
704.83	0.00
704.96	28.09
705.10	16.38
705.23	60.85
>>>>>End Processed Spectral Data<<<<<
