SpectraSuite Data File
++++++++++++++++++++++++++++++++++++
Date: Fri Oct 04 12:13:42 GMT-05:00 2013
User: price-jones
Dark Spectrum Present: No
Reference Spectrum Present: No
Number of Sampled Component Spectra: 1
Spectrometers: USB2+H05261
Integration Time (usec): 10000 (USB2+H05261)
Spectra Averaged: 1 (USB2+H05261)
Boxcar Smoothing: 0 (USB2+H05261)
Correct for Electrical Dark: No (USB2+H05261)
Strobe/Lamp Enabled: No (USB2+H05261)
Correct for Detector Non-linearity: No (USB2+H05261)
Correct for Stray Light: No (USB2+H05261)
Number of Pixels in Processed Spectrum: 2048
>>>>>Begin Processed Spectral Data<<<<<
365.73	0.00
365.92	0.00
366.12	0.00
366.32	0.00
366.52	0.00
366.72	0.00
366.91	0.00
367.11	0.00
367.31	0.00
367.51	0.00
367.70	0.00
367.90	0.00
368.10	0.00
368.30	0.00
368.49	0.00
368.69	0.00
368.89	0.00
369.09	0.00
369.28	0.00
369.48	0.00
369.68	0.00
369.87	0.00
370.07	0.00
370.27	0.00
370.47	0.00
370.66	0.00
370.86	0.00
371.06	0.00
371.25	0.00
371.45	0.00
371.65	0.00
371.84	0.00
372.04	7.02
372.24	46.81
372.44	21.06
372.63	16.38
372.83	0.00
373.03	11.70
373.22	21.06
373.42	21.06
373.62	7.02
373.81	23.41
374.01	35.11
374.21	74.90
374.40	51.49
374.60	23.41
374.79	0.00
374.99	7.02
375.19	21.06
375.38	18.72
375.58	53.83
375.78	95.96
375.97	77.24
376.17	37.45
376.37	0.00
376.56	32.77
376.76	18.72
376.95	53.83
377.15	0.00
377.35	84.26
377.54	65.54
377.74	51.49
377.93	65.54
378.13	0.00
378.33	0.00
378.52	0.00
378.72	0.00
378.91	0.00
379.11	0.00
379.31	30.43
379.50	11.70
379.70	60.85
379.89	0.00
380.09	0.00
380.28	42.13
380.48	44.47
380.68	42.13
380.87	9.36
381.07	16.38
381.26	65.54
381.46	9.36
381.65	7.02
381.85	0.00
382.04	0.00
382.24	28.09
382.43	4.68
382.63	0.00
382.83	79.58
383.02	42.13
383.22	4.68
383.41	0.00
383.61	0.00
383.80	0.00
384.00	42.13
384.19	7.02
384.39	51.49
384.58	63.19
384.78	0.00
384.97	39.79
385.17	49.15
385.36	35.11
385.56	0.00
385.75	11.70
385.95	23.41
386.14	67.88
386.34	77.24
386.53	65.54
386.72	0.00
386.92	16.38
387.11	23.41
387.31	93.62
387.50	53.83
387.70	0.00
387.89	25.75
388.09	49.15
388.28	37.45
388.48	44.47
388.67	0.00
388.86	18.72
389.06	7.02
389.25	4.68
389.45	11.70
389.64	65.54
389.84	16.38
390.03	93.62
390.22	0.00
390.42	42.13
390.61	0.00
390.81	32.77
391.00	0.00
391.19	0.00
391.39	0.00
391.58	35.11
391.78	14.04
391.97	0.00
392.16	0.00
392.36	60.85
392.55	37.45
392.75	0.00
392.94	23.41
393.13	0.00
393.33	56.17
393.52	18.72
393.71	72.56
393.91	2.34
394.10	7.02
394.29	51.49
394.49	133.41
394.68	21.06
394.88	18.72
395.07	0.00
395.26	0.00
395.46	67.88
395.65	4.68
395.84	0.00
396.04	56.17
396.23	53.83
396.42	23.41
396.62	23.41
396.81	46.81
397.00	0.00
397.19	32.77
397.39	65.54
397.58	11.70
397.77	0.00
397.97	39.79
398.16	0.00
398.35	28.09
398.55	11.70
398.74	2.34
398.93	30.43
399.12	49.15
399.32	2.34
399.51	0.00
399.70	0.00
399.90	21.06
400.09	0.00
400.28	0.00
400.47	0.00
400.67	70.22
400.86	37.45
401.05	56.17
401.24	51.49
401.44	51.49
401.63	95.96
401.82	79.58
402.01	37.45
402.21	2.34
402.40	44.47
402.59	0.00
402.78	0.00
402.97	74.90
403.17	32.77
403.36	49.15
403.55	11.70
403.74	98.30
403.93	49.15
404.13	39.79
404.32	32.77
404.51	0.00
404.70	77.24
404.89	4.68
405.09	63.19
405.28	0.00
405.47	18.72
405.66	0.00
405.85	67.88
406.05	14.04
406.24	39.79
406.43	0.00
406.62	0.00
406.81	72.56
407.00	44.47
407.20	42.13
407.39	0.00
407.58	49.15
407.77	93.62
407.96	0.00
408.15	0.00
408.34	0.00
408.54	65.54
408.73	0.00
408.92	67.88
409.11	23.41
409.30	56.17
409.49	65.54
409.68	102.98
409.87	23.41
410.07	0.00
410.26	32.77
410.45	0.00
410.64	25.75
410.83	39.79
411.02	56.17
411.21	35.11
411.40	39.79
411.59	46.81
411.78	2.34
411.98	11.70
412.17	98.30
412.36	0.00
412.55	0.00
412.74	42.13
412.93	7.02
413.12	37.45
413.31	39.79
413.50	58.51
413.69	37.45
413.88	23.41
414.07	7.02
414.26	44.47
414.45	28.09
414.64	37.45
414.83	63.19
415.02	58.51
415.22	39.79
415.41	128.73
415.60	72.56
415.79	0.00
415.98	91.28
416.17	105.32
416.36	0.00
416.55	65.54
416.74	23.41
416.93	9.36
417.12	93.62
417.31	56.17
417.50	0.00
417.69	67.88
417.88	86.60
418.07	67.88
418.26	21.06
418.45	60.85
418.64	11.70
418.83	65.54
419.02	0.00
419.21	0.00
419.39	0.00
419.58	0.00
419.77	0.00
419.96	84.26
420.15	63.19
420.34	0.00
420.53	0.00
420.72	77.24
420.91	39.79
421.10	81.92
421.29	95.96
421.48	23.41
421.67	91.28
421.86	0.00
422.05	0.00
422.24	0.00
422.43	0.00
422.61	11.70
422.80	58.51
422.99	35.11
423.18	98.30
423.37	93.62
423.56	56.17
423.75	28.09
423.94	46.81
424.13	21.06
424.32	53.83
424.50	70.22
424.69	0.00
424.88	14.04
425.07	51.49
425.26	21.06
425.45	65.54
425.64	23.41
425.83	16.38
426.01	35.11
426.20	72.56
426.39	11.70
426.58	0.00
426.77	37.45
426.96	72.56
427.15	35.11
427.33	16.38
427.52	74.90
427.71	30.43
427.90	56.17
428.09	39.79
428.28	49.15
428.46	91.28
428.65	14.04
428.84	91.28
429.03	77.24
429.22	25.75
429.40	32.77
429.59	25.75
429.78	46.81
429.97	53.83
430.16	110.01
430.34	56.17
430.53	42.13
430.72	67.88
430.91	84.26
431.10	35.11
431.28	25.75
431.47	81.92
431.66	37.45
431.85	98.30
432.03	32.77
432.22	91.28
432.41	93.62
432.60	30.43
432.79	67.88
432.97	58.51
433.16	30.43
433.35	60.85
433.54	44.47
433.72	0.00
433.91	0.00
434.10	18.72
434.28	81.92
434.47	95.96
434.66	53.83
434.85	53.83
435.03	7.02
435.22	67.88
435.41	21.06
435.59	4.68
435.78	23.41
435.97	9.36
436.16	44.47
436.34	70.22
436.53	105.32
436.72	39.79
436.90	0.00
437.09	0.00
437.28	25.75
437.46	4.68
437.65	9.36
437.84	18.72
438.02	0.00
438.21	51.49
438.40	0.00
438.58	81.92
438.77	102.98
438.96	91.28
439.14	7.02
439.33	7.02
439.52	35.11
439.70	88.94
439.89	91.28
440.08	37.45
440.26	25.75
440.45	0.00
440.63	35.11
440.82	138.09
441.01	98.30
441.19	9.36
441.38	63.19
441.57	46.81
441.75	95.96
441.94	0.00
442.12	49.15
442.31	91.28
442.50	93.62
442.68	72.56
442.87	91.28
443.05	72.56
443.24	119.37
443.43	63.19
443.61	98.30
443.80	84.26
443.98	79.58
444.17	74.90
444.35	117.03
444.54	51.49
444.73	51.49
444.91	35.11
445.10	49.15
445.28	44.47
445.47	77.24
445.65	37.45
445.84	0.00
446.02	67.88
446.21	65.54
446.39	114.69
446.58	51.49
446.77	39.79
446.95	37.45
447.14	88.94
447.32	67.88
447.51	9.36
447.69	67.88
447.88	37.45
448.06	84.26
448.25	67.88
448.43	28.09
448.62	60.85
448.80	77.24
448.99	86.60
449.17	4.68
449.36	79.58
449.54	121.71
449.73	2.34
449.91	42.13
450.10	18.72
450.28	60.85
450.46	11.70
450.65	88.94
450.83	53.83
451.02	30.43
451.20	21.06
451.39	42.13
451.57	42.13
451.76	46.81
451.94	70.22
452.13	0.00
452.31	58.51
452.49	0.00
452.68	58.51
452.86	107.66
453.05	32.77
453.23	126.39
453.42	88.94
453.60	67.88
453.78	2.34
453.97	46.81
454.15	65.54
454.34	60.85
454.52	37.45
454.70	42.13
454.89	9.36
455.07	56.17
455.26	0.00
455.44	114.69
455.62	51.49
455.81	53.83
455.99	100.64
456.17	51.49
456.36	39.79
456.54	35.11
456.73	0.00
456.91	2.34
457.09	102.98
457.28	23.41
457.46	63.19
457.64	65.54
457.83	53.83
458.01	65.54
458.19	0.00
458.38	84.26
458.56	25.75
458.74	100.64
458.93	30.43
459.11	25.75
459.29	105.32
459.48	42.13
459.66	21.06
459.84	77.24
460.03	42.13
460.21	105.32
460.39	21.06
460.57	107.66
460.76	25.75
460.94	84.26
461.12	37.45
461.31	63.19
461.49	30.43
461.67	60.85
461.85	93.62
462.04	42.13
462.22	81.92
462.40	44.47
462.59	70.22
462.77	37.45
462.95	74.90
463.13	18.72
463.32	46.81
463.50	49.15
463.68	51.49
463.86	0.00
464.05	39.79
464.23	86.60
464.41	56.17
464.59	18.72
464.78	77.24
464.96	42.13
465.14	98.30
465.32	0.00
465.50	72.56
465.69	63.19
465.87	102.98
466.05	56.17
466.23	23.41
466.41	21.06
466.60	7.02
466.78	65.54
466.96	86.60
467.14	81.92
467.32	46.81
467.51	72.56
467.69	105.32
467.87	18.72
468.05	0.00
468.23	28.09
468.41	70.22
468.60	30.43
468.78	81.92
468.96	128.73
469.14	114.69
469.32	16.38
469.50	23.41
469.69	14.04
469.87	7.02
470.05	58.51
470.23	44.47
470.41	86.60
470.59	60.85
470.77	25.75
470.95	63.19
471.14	72.56
471.32	42.13
471.50	56.17
471.68	44.47
471.86	0.00
472.04	67.88
472.22	135.75
472.40	49.15
472.58	95.96
472.77	56.17
472.95	25.75
473.13	121.71
473.31	70.22
473.49	58.51
473.67	25.75
473.85	88.94
474.03	46.81
474.21	149.79
474.39	84.26
474.57	11.70
474.75	93.62
474.93	74.90
475.12	74.90
475.30	84.26
475.48	67.88
475.66	72.56
475.84	35.11
476.02	98.30
476.20	37.45
476.38	100.64
476.56	79.58
476.74	110.01
476.92	93.62
477.10	105.32
477.28	44.47
477.46	84.26
477.64	25.75
477.82	30.43
478.00	23.41
478.18	0.00
478.36	14.04
478.54	140.43
478.72	91.28
478.90	37.45
479.08	74.90
479.26	95.96
479.44	4.68
479.62	21.06
479.80	0.00
479.98	9.36
480.16	67.88
480.34	93.62
480.52	65.54
480.70	91.28
480.88	70.22
481.06	32.77
481.24	72.56
481.41	44.47
481.59	112.35
481.77	110.01
481.95	16.38
482.13	88.94
482.31	119.37
482.49	60.85
482.67	74.90
482.85	140.43
483.03	77.24
483.21	53.83
483.39	16.38
483.57	9.36
483.74	49.15
483.92	107.66
484.10	39.79
484.28	74.90
484.46	49.15
484.64	81.92
484.82	93.62
485.00	0.00
485.18	93.62
485.35	91.28
485.53	88.94
485.71	42.13
485.89	84.26
486.07	65.54
486.25	30.43
486.43	152.13
486.61	2.34
486.78	102.98
486.96	42.13
487.14	28.09
487.32	112.35
487.50	95.96
487.68	56.17
487.85	70.22
488.03	28.09
488.21	18.72
488.39	173.20
488.57	0.00
488.75	46.81
488.92	86.60
489.10	84.26
489.28	102.98
489.46	0.00
489.64	46.81
489.81	173.20
489.99	23.41
490.17	65.54
490.35	112.35
490.53	77.24
490.70	53.83
490.88	93.62
491.06	98.30
491.24	117.03
491.41	100.64
491.59	58.51
491.77	58.51
491.95	30.43
492.13	98.30
492.30	4.68
492.48	114.69
492.66	84.26
492.84	77.24
493.01	63.19
493.19	46.81
493.37	88.94
493.54	60.85
493.72	67.88
493.90	72.56
494.08	67.88
494.25	95.96
494.43	65.54
494.61	159.16
494.79	140.43
494.96	67.88
495.14	65.54
495.32	105.32
495.49	119.37
495.67	121.71
495.85	51.49
496.02	140.43
496.20	84.26
496.38	84.26
496.55	60.85
496.73	88.94
496.91	32.77
497.09	0.00
497.26	65.54
497.44	79.58
497.62	25.75
497.79	11.70
497.97	65.54
498.14	23.41
498.32	81.92
498.50	135.75
498.67	107.66
498.85	112.35
499.03	65.54
499.20	147.45
499.38	74.90
499.56	58.51
499.73	112.35
499.91	100.64
500.08	105.32
500.26	173.20
500.44	63.19
500.61	77.24
500.79	105.32
500.97	0.00
501.14	102.98
501.32	88.94
501.49	84.26
501.67	121.71
501.84	60.85
502.02	77.24
502.20	18.72
502.37	58.51
502.55	56.17
502.72	154.48
502.90	145.11
503.07	51.49
503.25	86.60
503.43	46.81
503.60	81.92
503.78	65.54
503.95	35.11
504.13	166.18
504.30	74.90
504.48	65.54
504.65	147.45
504.83	86.60
505.01	30.43
505.18	131.07
505.36	93.62
505.53	88.94
505.71	86.60
505.88	51.49
506.06	74.90
506.23	35.11
506.41	128.73
506.58	51.49
506.76	53.83
506.93	72.56
507.11	117.03
507.28	65.54
507.46	105.32
507.63	53.83
507.81	91.28
507.98	161.50
508.16	88.94
508.33	72.56
508.50	58.51
508.68	81.92
508.85	88.94
509.03	49.15
509.20	107.66
509.38	63.19
509.55	53.83
509.73	81.92
509.90	126.39
510.08	112.35
510.25	81.92
510.42	28.09
510.60	74.90
510.77	79.58
510.95	105.32
511.12	98.30
511.30	91.28
511.47	67.88
511.64	81.92
511.82	138.09
511.99	126.39
512.17	56.17
512.34	65.54
512.51	63.19
512.69	126.39
512.86	88.94
513.04	81.92
513.21	88.94
513.38	65.54
513.56	79.58
513.73	84.26
513.90	58.51
514.08	110.01
514.25	81.92
514.43	74.90
514.60	110.01
514.77	145.11
514.95	65.54
515.12	121.71
515.29	77.24
515.47	86.60
515.64	110.01
515.81	51.49
515.99	100.64
516.16	63.19
516.33	58.51
516.51	110.01
516.68	79.58
516.85	0.00
517.03	28.09
517.20	131.07
517.37	67.88
517.54	133.41
517.72	138.09
517.89	147.45
518.06	86.60
518.24	84.26
518.41	135.75
518.58	105.32
518.75	70.22
518.93	56.17
519.10	145.11
519.27	112.35
519.45	49.15
519.62	140.43
519.79	53.83
519.96	93.62
520.14	84.26
520.31	110.01
520.48	35.11
520.65	84.26
520.83	154.48
521.00	65.54
521.17	88.94
521.34	107.66
521.52	86.60
521.69	124.05
521.86	67.88
522.03	95.96
522.20	56.17
522.38	88.94
522.55	21.06
522.72	77.24
522.89	149.79
523.07	67.88
523.24	95.96
523.41	81.92
523.58	140.43
523.75	91.28
523.92	25.75
524.10	93.62
524.27	74.90
524.44	7.02
524.61	126.39
524.78	70.22
524.96	2.34
525.13	72.56
525.30	128.73
525.47	49.15
525.64	121.71
525.81	117.03
525.98	107.66
526.16	102.98
526.33	0.00
526.50	51.49
526.67	112.35
526.84	102.98
527.01	51.49
527.18	63.19
527.36	163.84
527.53	60.85
527.70	53.83
527.87	72.56
528.04	42.13
528.21	133.41
528.38	98.30
528.55	102.98
528.72	100.64
528.89	72.56
529.07	37.45
529.24	70.22
529.41	100.64
529.58	93.62
529.75	100.64
529.92	70.22
530.09	63.19
530.26	46.81
530.43	149.79
530.60	53.83
530.77	145.11
530.94	63.19
531.11	77.24
531.28	60.85
531.46	16.38
531.63	63.19
531.80	77.24
531.97	100.64
532.14	65.54
532.31	35.11
532.48	81.92
532.65	98.30
532.82	77.24
532.99	112.35
533.16	21.06
533.33	119.37
533.50	119.37
533.67	70.22
533.84	58.51
534.01	28.09
534.18	56.17
534.35	32.77
534.52	126.39
534.69	93.62
534.86	25.75
535.03	67.88
535.20	81.92
535.37	2.34
535.54	112.35
535.71	131.07
535.88	107.66
536.05	95.96
536.22	114.69
536.38	163.84
536.55	147.45
536.72	119.37
536.89	91.28
537.06	67.88
537.23	149.79
537.40	65.54
537.57	93.62
537.74	81.92
537.91	84.26
538.08	100.64
538.25	44.47
538.42	98.30
538.59	105.32
538.75	133.41
538.92	35.11
539.09	98.30
539.26	81.92
539.43	133.41
539.60	142.77
539.77	84.26
539.94	28.09
540.11	72.56
540.28	51.49
540.44	65.54
540.61	70.22
540.78	119.37
540.95	124.05
541.12	58.51
541.29	93.62
541.46	79.58
541.62	163.84
541.79	88.94
541.96	56.17
542.13	44.47
542.30	72.56
542.47	60.85
542.63	56.17
542.80	25.75
542.97	56.17
543.14	39.79
543.31	100.64
543.48	58.51
543.64	39.79
543.81	9.36
543.98	114.69
544.15	58.51
544.32	79.58
544.48	39.79
544.65	77.24
544.82	107.66
544.99	63.19
545.16	142.77
545.32	58.51
545.49	77.24
545.66	0.00
545.83	140.43
546.00	126.39
546.16	121.71
546.33	58.51
546.50	86.60
546.67	79.58
546.83	65.54
547.00	124.05
547.17	60.85
547.34	67.88
547.50	119.37
547.67	117.03
547.84	46.81
548.00	39.79
548.17	105.32
548.34	133.41
548.51	95.96
548.67	105.32
548.84	60.85
549.01	131.07
549.18	98.30
549.34	128.73
549.51	100.64
549.68	9.36
549.84	102.98
550.01	72.56
550.18	67.88
550.34	119.37
550.51	110.01
550.68	91.28
550.84	142.77
551.01	84.26
551.18	98.30
551.34	77.24
551.51	135.75
551.68	65.54
551.84	117.03
552.01	112.35
552.18	74.90
552.34	56.17
552.51	37.45
552.68	65.54
552.84	112.35
553.01	60.85
553.18	58.51
553.34	39.79
553.51	0.00
553.67	70.22
553.84	25.75
554.01	84.26
554.17	56.17
554.34	105.32
554.51	114.69
554.67	81.92
554.84	72.56
555.00	93.62
555.17	79.58
555.33	138.09
555.50	121.71
555.67	63.19
555.83	37.45
556.00	117.03
556.16	67.88
556.33	42.13
556.50	119.37
556.66	23.41
556.83	95.96
556.99	93.62
557.16	86.60
557.32	77.24
557.49	110.01
557.65	131.07
557.82	98.30
557.98	39.79
558.15	95.96
558.32	70.22
558.48	44.47
558.65	63.19
558.81	56.17
558.98	88.94
559.14	102.98
559.31	67.88
559.47	63.19
559.64	121.71
559.80	53.83
559.97	93.62
560.13	133.41
560.30	16.38
560.46	63.19
560.63	51.49
560.79	72.56
560.96	110.01
561.12	74.90
561.29	81.92
561.45	100.64
561.61	105.32
561.78	119.37
561.94	86.60
562.11	51.49
562.27	117.03
562.44	67.88
562.60	100.64
562.77	142.77
562.93	70.22
563.10	77.24
563.26	58.51
563.42	168.52
563.59	67.88
563.75	21.06
563.92	42.13
564.08	49.15
564.24	95.96
564.41	140.43
564.57	30.43
564.74	77.24
564.90	126.39
565.07	100.64
565.23	39.79
565.39	124.05
565.56	32.77
565.72	102.98
565.88	58.51
566.05	93.62
566.21	100.64
566.38	79.58
566.54	70.22
566.70	124.05
566.87	124.05
567.03	121.71
567.19	128.73
567.36	91.28
567.52	86.60
567.68	42.13
567.85	121.71
568.01	23.41
568.17	70.22
568.34	112.35
568.50	81.92
568.66	72.56
568.83	79.58
568.99	138.09
569.15	100.64
569.32	95.96
569.48	37.45
569.64	133.41
569.81	110.01
569.97	105.32
570.13	117.03
570.30	11.70
570.46	39.79
570.62	67.88
570.78	70.22
570.95	35.11
571.11	98.30
571.27	105.32
571.43	98.30
571.60	0.00
571.76	91.28
571.92	84.26
572.09	91.28
572.25	107.66
572.41	88.94
572.57	60.85
572.74	58.51
572.90	133.41
573.06	121.71
573.22	44.47
573.38	74.90
573.55	147.45
573.71	46.81
573.87	35.11
574.03	37.45
574.20	102.98
574.36	135.75
574.52	74.90
574.68	107.66
574.84	84.26
575.01	91.28
575.17	53.83
575.33	70.22
575.49	86.60
575.65	60.85
575.82	149.79
575.98	91.28
576.14	95.96
576.30	58.51
576.46	100.64
576.62	14.04
576.79	77.24
576.95	147.45
577.11	117.03
577.27	88.94
577.43	81.92
577.59	4.68
577.75	91.28
577.92	42.13
578.08	25.75
578.24	133.41
578.40	79.58
578.56	72.56
578.72	70.22
578.88	117.03
579.04	65.54
579.21	98.30
579.37	112.35
579.53	110.01
579.69	9.36
579.85	102.98
580.01	84.26
580.17	0.00
580.33	147.45
580.49	121.71
580.65	56.17
580.82	67.88
580.98	58.51
581.14	93.62
581.30	128.73
581.46	91.28
581.62	105.32
581.78	84.26
581.94	72.56
582.10	173.20
582.26	119.37
582.42	56.17
582.58	114.69
582.74	65.54
582.90	154.48
583.06	112.35
583.22	74.90
583.38	25.75
583.54	117.03
583.70	117.03
583.86	72.56
584.02	60.85
584.18	93.62
584.34	72.56
584.50	107.66
584.66	77.24
584.82	56.17
584.98	44.47
585.14	49.15
585.30	42.13
585.46	88.94
585.62	44.47
585.78	28.09
585.94	117.03
586.10	88.94
586.26	39.79
586.42	72.56
586.58	86.60
586.74	105.32
586.90	79.58
587.06	51.49
587.22	81.92
587.38	161.50
587.54	81.92
587.70	112.35
587.86	53.83
588.02	140.43
588.18	107.66
588.34	56.17
588.49	88.94
588.65	0.00
588.81	0.00
588.97	126.39
589.13	91.28
589.29	60.85
589.45	79.58
589.61	46.81
589.77	81.92
589.93	91.28
590.08	28.09
590.24	35.11
590.40	102.98
590.56	81.92
590.72	0.00
590.88	84.26
591.04	131.07
591.20	60.85
591.35	79.58
591.51	84.26
591.67	51.49
591.83	44.47
591.99	2.34
592.15	65.54
592.31	0.00
592.46	23.41
592.62	65.54
592.78	11.70
592.94	138.09
593.10	79.58
593.26	25.75
593.41	107.66
593.57	44.47
593.73	44.47
593.89	56.17
594.05	88.94
594.20	60.85
594.36	53.83
594.52	21.06
594.68	28.09
594.84	119.37
594.99	105.32
595.15	30.43
595.31	70.22
595.47	117.03
595.62	60.85
595.78	42.13
595.94	184.90
596.10	0.00
596.25	95.96
596.41	112.35
596.57	131.07
596.73	37.45
596.88	133.41
597.04	21.06
597.20	49.15
597.36	35.11
597.51	39.79
597.67	44.47
597.83	70.22
597.99	79.58
598.14	60.85
598.30	93.62
598.46	110.01
598.61	98.30
598.77	88.94
598.93	56.17
599.09	32.77
599.24	37.45
599.40	72.56
599.56	46.81
599.71	51.49
599.87	21.06
600.03	49.15
600.18	32.77
600.34	100.64
600.50	98.30
600.65	65.54
600.81	60.85
600.97	65.54
601.12	105.32
601.28	51.49
601.44	112.35
601.59	81.92
601.75	114.69
601.91	95.96
602.06	77.24
602.22	65.54
602.37	105.32
602.53	46.81
602.69	110.01
602.84	154.48
603.00	74.90
603.16	18.72
603.31	119.37
603.47	142.77
603.62	100.64
603.78	95.96
603.94	42.13
604.09	95.96
604.25	84.26
604.40	98.30
604.56	86.60
604.71	37.45
604.87	107.66
605.03	91.28
605.18	117.03
605.34	30.43
605.49	46.81
605.65	74.90
605.80	81.92
605.96	131.07
606.12	65.54
606.27	184.90
606.43	147.45
606.58	81.92
606.74	70.22
606.89	114.69
607.05	39.79
607.20	91.28
607.36	0.00
607.51	44.47
607.67	67.88
607.82	91.28
607.98	77.24
608.13	112.35
608.29	93.62
608.44	77.24
608.60	74.90
608.75	128.73
608.91	95.96
609.06	72.56
609.22	42.13
609.37	56.17
609.53	46.81
609.68	86.60
609.84	121.71
609.99	23.41
610.15	119.37
610.30	70.22
610.46	0.00
610.61	0.00
610.76	44.47
610.92	72.56
611.07	72.56
611.23	35.11
611.38	44.47
611.54	72.56
611.69	30.43
611.84	88.94
612.00	81.92
612.15	91.28
612.31	117.03
612.46	84.26
612.62	14.04
612.77	56.17
612.92	49.15
613.08	88.94
613.23	39.79
613.39	77.24
613.54	79.58
613.69	140.43
613.85	32.77
614.00	110.01
614.15	112.35
614.31	58.51
614.46	42.13
614.62	46.81
614.77	21.06
614.92	51.49
615.08	0.00
615.23	163.84
615.38	77.24
615.54	107.66
615.69	98.30
615.84	25.75
616.00	44.47
616.15	44.47
616.30	23.41
616.46	110.01
616.61	72.56
616.76	124.05
616.92	95.96
617.07	72.56
617.22	159.16
617.37	25.75
617.53	81.92
617.68	147.45
617.83	58.51
617.99	35.11
618.14	102.98
618.29	84.26
618.45	70.22
618.60	70.22
618.75	51.49
618.90	58.51
619.06	53.83
619.21	91.28
619.36	49.15
619.51	25.75
619.67	28.09
619.82	163.84
619.97	84.26
620.12	65.54
620.28	44.47
620.43	30.43
620.58	25.75
620.73	79.58
620.89	58.51
621.04	4.68
621.19	91.28
621.34	44.47
621.49	14.04
621.65	30.43
621.80	117.03
621.95	84.26
622.10	7.02
622.25	170.86
622.41	49.15
622.56	74.90
622.71	105.32
622.86	77.24
623.01	93.62
623.16	37.45
623.32	44.47
623.47	0.00
623.62	53.83
623.77	0.00
623.92	53.83
624.07	124.05
624.23	53.83
624.38	56.17
624.53	30.43
624.68	37.45
624.83	107.66
624.98	25.75
625.13	81.92
625.29	93.62
625.44	23.41
625.59	117.03
625.74	25.75
625.89	121.71
626.04	93.62
626.19	49.15
626.34	60.85
626.49	49.15
626.65	88.94
626.80	77.24
626.95	35.11
627.10	32.77
627.25	46.81
627.40	28.09
627.55	35.11
627.70	86.60
627.85	4.68
628.00	77.24
628.15	14.04
628.30	145.11
628.45	117.03
628.60	30.43
628.76	67.88
628.91	84.26
629.06	67.88
629.21	2.34
629.36	42.13
629.51	0.00
629.66	60.85
629.81	77.24
629.96	56.17
630.11	58.51
630.26	102.98
630.41	42.13
630.56	42.13
630.71	39.79
630.86	35.11
631.01	56.17
631.16	35.11
631.31	56.17
631.46	70.22
631.61	79.58
631.76	86.60
631.91	88.94
632.06	91.28
632.21	63.19
632.36	60.85
632.51	30.43
632.66	4.68
632.81	128.73
632.96	128.73
633.10	30.43
633.25	117.03
633.40	84.26
633.55	49.15
633.70	149.79
633.85	77.24
634.00	37.45
634.15	35.11
634.30	58.51
634.45	124.05
634.60	79.58
634.75	44.47
634.90	37.45
635.05	65.54
635.19	28.09
635.34	0.00
635.49	37.45
635.64	138.09
635.79	44.47
635.94	30.43
636.09	30.43
636.24	0.00
636.39	0.00
636.53	0.00
636.68	53.83
636.83	93.62
636.98	79.58
637.13	42.13
637.28	42.13
637.43	65.54
637.57	49.15
637.72	72.56
637.87	77.24
638.02	60.85
638.17	30.43
638.32	79.58
638.46	0.00
638.61	42.13
638.76	77.24
638.91	51.49
639.06	56.17
639.20	18.72
639.35	95.96
639.50	53.83
639.65	30.43
639.80	79.58
639.94	110.01
640.09	77.24
640.24	147.45
640.39	21.06
640.54	30.43
640.68	72.56
640.83	51.49
640.98	30.43
641.13	51.49
641.27	28.09
641.42	56.17
641.57	9.36
641.72	77.24
641.86	60.85
642.01	91.28
642.16	0.00
642.31	39.79
642.45	0.00
642.60	74.90
642.75	21.06
642.90	32.77
643.04	70.22
643.19	60.85
643.34	124.05
643.48	70.22
643.63	93.62
643.78	30.43
643.93	93.62
644.07	53.83
644.22	95.96
644.37	140.43
644.51	102.98
644.66	121.71
644.81	42.13
644.95	25.75
645.10	53.83
645.25	98.30
645.39	14.04
645.54	0.00
645.69	39.79
645.83	138.09
645.98	0.00
646.13	114.69
646.27	46.81
646.42	65.54
646.57	30.43
646.71	72.56
646.86	100.64
647.00	28.09
647.15	42.13
647.30	37.45
647.44	42.13
647.59	51.49
647.74	67.88
647.88	46.81
648.03	67.88
648.17	16.38
648.32	84.26
648.47	93.62
648.61	44.47
648.76	46.81
648.90	84.26
649.05	63.19
649.20	53.83
649.34	35.11
649.49	102.98
649.63	53.83
649.78	105.32
649.92	42.13
650.07	56.17
650.21	30.43
650.36	28.09
650.51	53.83
650.65	67.88
650.80	65.54
650.94	46.81
651.09	0.00
651.23	16.38
651.38	37.45
651.52	37.45
651.67	28.09
651.81	11.70
651.96	121.71
652.10	42.13
652.25	72.56
652.39	72.56
652.54	11.70
652.68	70.22
652.83	32.77
652.97	65.54
653.12	0.00
653.26	9.36
653.41	77.24
653.55	49.15
653.70	56.17
653.84	44.47
653.99	77.24
654.13	91.28
654.27	67.88
654.42	98.30
654.56	58.51
654.71	23.41
654.85	42.13
655.00	32.77
655.14	0.00
655.29	60.85
655.43	4.68
655.57	39.79
655.72	9.36
655.86	51.49
656.01	53.83
656.15	39.79
656.30	93.62
656.44	149.79
656.58	77.24
656.73	51.49
656.87	107.66
657.01	77.24
657.16	74.90
657.30	0.00
657.45	95.96
657.59	86.60
657.73	53.83
657.88	32.77
658.02	63.19
658.16	114.69
658.31	93.62
658.45	117.03
658.60	28.09
658.74	23.41
658.88	56.17
659.03	72.56
659.17	0.00
659.31	74.90
659.46	30.43
659.60	65.54
659.74	44.47
659.89	16.38
660.03	126.39
660.17	46.81
660.32	4.68
660.46	42.13
660.60	9.36
660.74	35.11
660.89	72.56
661.03	84.26
661.17	84.26
661.32	56.17
661.46	145.11
661.60	81.92
661.74	60.85
661.89	46.81
662.03	4.68
662.17	63.19
662.31	44.47
662.46	93.62
662.60	53.83
662.74	91.28
662.88	121.71
663.03	117.03
663.17	0.00
663.31	86.60
663.45	0.00
663.60	46.81
663.74	23.41
663.88	25.75
664.02	60.85
664.17	112.35
664.31	37.45
664.45	30.43
664.59	25.75
664.73	25.75
664.88	70.22
665.02	88.94
665.16	112.35
665.30	110.01
665.44	72.56
665.59	88.94
665.73	44.47
665.87	30.43
666.01	72.56
666.15	51.49
666.29	100.64
666.44	35.11
666.58	102.98
666.72	102.98
666.86	58.51
667.00	81.92
667.14	14.04
667.28	25.75
667.43	44.47
667.57	81.92
667.71	25.75
667.85	7.02
667.99	81.92
668.13	32.77
668.27	0.00
668.41	114.69
668.56	25.75
668.70	53.83
668.84	42.13
668.98	35.11
669.12	58.51
669.26	65.54
669.40	74.90
669.54	0.00
669.68	32.77
669.82	86.60
669.96	110.01
670.10	39.79
670.25	42.13
670.39	49.15
670.53	39.79
670.67	77.24
670.81	11.70
670.95	46.81
671.09	49.15
671.23	18.72
671.37	91.28
671.51	67.88
671.65	100.64
671.79	84.26
671.93	0.00
672.07	0.00
672.21	0.00
672.35	9.36
672.49	39.79
672.63	32.77
672.77	30.43
672.91	44.47
673.05	37.45
673.19	0.00
673.33	56.17
673.47	42.13
673.61	25.75
673.75	44.47
673.89	28.09
674.03	0.00
674.17	32.77
674.31	60.85
674.45	88.94
674.59	84.26
674.73	51.49
674.87	32.77
675.01	39.79
675.15	44.47
675.29	58.51
675.43	0.00
675.56	44.47
675.70	67.88
675.84	65.54
675.98	93.62
676.12	37.45
676.26	81.92
676.40	98.30
676.54	28.09
676.68	42.13
676.82	58.51
676.96	32.77
677.10	51.49
677.23	18.72
677.37	0.00
677.51	35.11
677.65	107.66
677.79	53.83
677.93	56.17
678.07	4.68
678.21	107.66
678.34	46.81
678.48	0.00
678.62	93.62
678.76	91.28
678.90	21.06
679.04	28.09
679.18	67.88
679.31	63.19
679.45	67.88
679.59	7.02
679.73	37.45
679.87	0.00
680.00	88.94
680.14	114.69
680.28	63.19
680.42	63.19
680.56	58.51
680.70	35.11
680.83	65.54
680.97	74.90
681.11	0.00
681.25	58.51
681.39	0.00
681.52	65.54
681.66	112.35
681.80	60.85
681.94	77.24
682.07	28.09
682.21	23.41
682.35	67.88
682.49	65.54
682.62	39.79
682.76	88.94
682.90	23.41
683.04	42.13
683.17	21.06
683.31	4.68
683.45	88.94
683.59	88.94
683.72	44.47
683.86	126.39
684.00	63.19
684.13	65.54
684.27	74.90
684.41	72.56
684.55	25.75
684.68	16.38
684.82	86.60
684.96	14.04
685.09	70.22
685.23	86.60
685.37	79.58
685.50	42.13
685.64	46.81
685.78	42.13
685.91	25.75
686.05	53.83
686.19	46.81
686.32	65.54
686.46	63.19
686.60	0.00
686.73	35.11
686.87	18.72
687.01	91.28
687.14	77.24
687.28	74.90
687.42	25.75
687.55	95.96
687.69	18.72
687.82	86.60
687.96	88.94
688.10	72.56
688.23	0.00
688.37	51.49
688.50	58.51
688.64	35.11
688.78	42.13
688.91	23.41
689.05	28.09
689.18	51.49
689.32	60.85
689.46	35.11
689.59	58.51
689.73	37.45
689.86	0.00
690.00	105.32
690.13	37.45
690.27	11.70
690.41	7.02
690.54	0.00
690.68	0.00
690.81	46.81
690.95	30.43
691.08	0.00
691.22	0.00
691.35	110.01
691.49	0.00
691.62	14.04
691.76	42.13
691.89	9.36
692.03	21.06
692.16	46.81
692.30	44.47
692.43	4.68
692.57	44.47
692.70	18.72
692.84	0.00
692.97	79.58
693.11	0.00
693.24	100.64
693.38	91.28
693.51	28.09
693.65	39.79
693.78	46.81
693.92	9.36
694.05	51.49
694.19	30.43
694.32	0.00
694.45	44.47
694.59	60.85
694.72	39.79
694.86	46.81
694.99	35.11
695.13	30.43
695.26	2.34
695.39	4.68
695.53	74.90
695.66	0.00
695.80	53.83
695.93	0.00
696.07	39.79
696.20	46.81
696.33	39.79
696.47	0.00
696.60	0.00
696.73	35.11
696.87	53.83
697.00	63.19
697.14	77.24
697.27	4.68
697.40	25.75
697.54	46.81
697.67	79.58
697.80	39.79
697.94	0.00
698.07	49.15
698.21	16.38
698.34	114.69
698.47	18.72
698.61	86.60
698.74	56.17
698.87	0.00
699.01	18.72
699.14	0.00
699.27	114.69
699.40	46.81
699.54	42.13
699.67	35.11
699.80	74.90
699.94	0.00
700.07	28.09
700.20	0.00
700.34	39.79
700.47	28.09
700.60	0.00
700.73	30.43
700.87	4.68
701.00	14.04
701.13	42.13
701.26	79.58
701.40	56.17
701.53	0.00
701.66	0.00
701.79	37.45
701.93	74.90
702.06	133.41
702.19	72.56
702.32	42.13
702.46	28.09
702.59	42.13
702.72	30.43
702.85	2.34
702.99	0.00
703.12	9.36
703.25	0.00
703.38	18.72
703.51	51.49
703.65	16.38
703.78	145.11
703.91	63.19
704.04	63.19
704.17	0.00
704.31	0.00
704.44	18.72
704.57	32.77
704.70	44.47
704.83	128.73
704.96	65.54
705.10	0.00
705.23	0.00
>>>>>End Processed Spectral Data<<<<<
