SpectraSuite Data File
++++++++++++++++++++++++++++++++++++
Date: Fri Oct 04 12:13:35 GMT-05:00 2013
User: price-jones
Dark Spectrum Present: No
Reference Spectrum Present: No
Number of Sampled Component Spectra: 1
Spectrometers: USB2+H05261
Integration Time (usec): 10000 (USB2+H05261)
Spectra Averaged: 1 (USB2+H05261)
Boxcar Smoothing: 0 (USB2+H05261)
Correct for Electrical Dark: No (USB2+H05261)
Strobe/Lamp Enabled: No (USB2+H05261)
Correct for Detector Non-linearity: No (USB2+H05261)
Correct for Stray Light: No (USB2+H05261)
Number of Pixels in Processed Spectrum: 2048
>>>>>Begin Processed Spectral Data<<<<<
365.73	65.54
365.92	65.54
366.12	65.54
366.32	0.00
366.52	0.00
366.72	0.00
366.91	0.00
367.11	0.00
367.31	0.00
367.51	0.00
367.70	0.00
367.90	0.00
368.10	0.00
368.30	0.00
368.49	0.00
368.69	0.00
368.89	0.00
369.09	0.00
369.28	0.00
369.48	0.00
369.68	0.00
369.87	0.00
370.07	0.00
370.27	0.00
370.47	0.00
370.66	0.00
370.86	0.00
371.06	0.00
371.25	0.00
371.45	0.00
371.65	0.00
371.84	60.85
372.04	79.58
372.24	0.00
372.44	65.54
372.63	63.19
372.83	42.13
373.03	51.49
373.22	0.00
373.42	0.00
373.62	23.41
373.81	0.00
374.01	0.00
374.21	65.54
374.40	28.09
374.60	28.09
374.79	23.41
374.99	30.43
375.19	11.70
375.38	46.81
375.58	39.79
375.78	0.00
375.97	63.19
376.17	25.75
376.37	74.90
376.56	58.51
376.76	49.15
376.95	16.38
377.15	95.96
377.35	28.09
377.54	0.00
377.74	23.41
377.93	46.81
378.13	44.47
378.33	16.38
378.52	18.72
378.72	0.00
378.91	56.17
379.11	23.41
379.31	0.00
379.50	0.00
379.70	0.00
379.89	0.00
380.09	23.41
380.28	0.00
380.48	0.00
380.68	35.11
380.87	25.75
381.07	37.45
381.26	93.62
381.46	63.19
381.65	0.00
381.85	74.90
382.04	63.19
382.24	93.62
382.43	25.75
382.63	0.00
382.83	58.51
383.02	0.00
383.22	11.70
383.41	0.00
383.61	65.54
383.80	25.75
384.00	51.49
384.19	44.47
384.39	42.13
384.58	0.00
384.78	0.00
384.97	42.13
385.17	44.47
385.36	0.00
385.56	0.00
385.75	110.01
385.95	63.19
386.14	0.00
386.34	0.00
386.53	91.28
386.72	112.35
386.92	37.45
387.11	0.00
387.31	0.00
387.50	9.36
387.70	0.00
387.89	32.77
388.09	0.00
388.28	32.77
388.48	42.13
388.67	51.49
388.86	58.51
389.06	18.72
389.25	79.58
389.45	117.03
389.64	49.15
389.84	0.00
390.03	28.09
390.22	0.00
390.42	18.72
390.61	0.00
390.81	14.04
391.00	42.13
391.19	9.36
391.39	23.41
391.58	91.28
391.78	35.11
391.97	32.77
392.16	60.85
392.36	0.00
392.55	0.00
392.75	74.90
392.94	4.68
393.13	25.75
393.33	42.13
393.52	25.75
393.71	67.88
393.91	49.15
394.10	0.00
394.29	0.00
394.49	56.17
394.68	16.38
394.88	9.36
395.07	14.04
395.26	0.00
395.46	0.00
395.65	39.79
395.84	30.43
396.04	46.81
396.23	44.47
396.42	18.72
396.62	37.45
396.81	16.38
397.00	56.17
397.19	11.70
397.39	39.79
397.58	51.49
397.77	60.85
397.97	46.81
398.16	11.70
398.35	60.85
398.55	74.90
398.74	0.00
398.93	0.00
399.12	102.98
399.32	0.00
399.51	0.00
399.70	18.72
399.90	49.15
400.09	28.09
400.28	53.83
400.47	74.90
400.67	88.94
400.86	25.75
401.05	49.15
401.24	49.15
401.44	0.00
401.63	21.06
401.82	88.94
402.01	0.00
402.21	53.83
402.40	32.77
402.59	88.94
402.78	70.22
402.97	77.24
403.17	58.51
403.36	102.98
403.55	51.49
403.74	0.00
403.93	30.43
404.13	0.00
404.32	44.47
404.51	7.02
404.70	110.01
404.89	39.79
405.09	28.09
405.28	79.58
405.47	23.41
405.66	0.00
405.85	49.15
406.05	14.04
406.24	30.43
406.43	63.19
406.62	35.11
406.81	0.00
407.00	25.75
407.20	0.00
407.39	16.38
407.58	0.00
407.77	67.88
407.96	0.00
408.15	42.13
408.34	0.00
408.54	98.30
408.73	0.00
408.92	0.00
409.11	18.72
409.30	2.34
409.49	67.88
409.68	58.51
409.87	0.00
410.07	72.56
410.26	53.83
410.45	0.00
410.64	0.00
410.83	9.36
411.02	0.00
411.21	86.60
411.40	0.00
411.59	37.45
411.78	84.26
411.98	72.56
412.17	0.00
412.36	81.92
412.55	46.81
412.74	65.54
412.93	56.17
413.12	49.15
413.31	23.41
413.50	0.00
413.69	30.43
413.88	79.58
414.07	46.81
414.26	0.00
414.45	0.00
414.64	53.83
414.83	25.75
415.02	0.00
415.22	105.32
415.41	30.43
415.60	30.43
415.79	56.17
415.98	74.90
416.17	0.00
416.36	0.00
416.55	11.70
416.74	21.06
416.93	4.68
417.12	9.36
417.31	58.51
417.50	7.02
417.69	28.09
417.88	23.41
418.07	56.17
418.26	74.90
418.45	35.11
418.64	37.45
418.83	0.00
419.02	60.85
419.21	9.36
419.39	0.00
419.58	42.13
419.77	51.49
419.96	37.45
420.15	28.09
420.34	0.00
420.53	35.11
420.72	114.69
420.91	63.19
421.10	0.00
421.29	42.13
421.48	0.00
421.67	79.58
421.86	0.00
422.05	0.00
422.24	58.51
422.43	140.43
422.61	23.41
422.80	23.41
422.99	18.72
423.18	79.58
423.37	18.72
423.56	56.17
423.75	16.38
423.94	0.00
424.13	11.70
424.32	14.04
424.50	30.43
424.69	77.24
424.88	16.38
425.07	53.83
425.26	11.70
425.45	46.81
425.64	84.26
425.83	18.72
426.01	0.00
426.20	23.41
426.39	124.05
426.58	21.06
426.77	81.92
426.96	28.09
427.15	14.04
427.33	14.04
427.52	0.00
427.71	28.09
427.90	0.00
428.09	28.09
428.28	0.00
428.46	0.00
428.65	46.81
428.84	25.75
429.03	32.77
429.22	60.85
429.40	0.00
429.59	9.36
429.78	44.47
429.97	23.41
430.16	37.45
430.34	0.00
430.53	25.75
430.72	39.79
430.91	25.75
431.10	30.43
431.28	14.04
431.47	32.77
431.66	42.13
431.85	51.49
432.03	77.24
432.22	95.96
432.41	53.83
432.60	39.79
432.79	44.47
432.97	67.88
433.16	32.77
433.35	21.06
433.54	42.13
433.72	81.92
433.91	42.13
434.10	32.77
434.28	37.45
434.47	102.98
434.66	37.45
434.85	51.49
435.03	65.54
435.22	98.30
435.41	0.00
435.59	23.41
435.78	56.17
435.97	56.17
436.16	11.70
436.34	86.60
436.53	2.34
436.72	11.70
436.90	4.68
437.09	35.11
437.28	58.51
437.46	42.13
437.65	65.54
437.84	53.83
438.02	91.28
438.21	23.41
438.40	0.00
438.58	28.09
438.77	126.39
438.96	74.90
439.14	49.15
439.33	46.81
439.52	0.00
439.70	39.79
439.89	72.56
440.08	112.35
440.26	114.69
440.45	30.43
440.63	53.83
440.82	58.51
441.01	86.60
441.19	79.58
441.38	72.56
441.57	102.98
441.75	58.51
441.94	102.98
442.12	63.19
442.31	0.00
442.50	105.32
442.68	86.60
442.87	42.13
443.05	102.98
443.24	42.13
443.43	0.00
443.61	0.00
443.80	53.83
443.98	0.00
444.17	21.06
444.35	56.17
444.54	65.54
444.73	77.24
444.91	88.94
445.10	46.81
445.28	88.94
445.47	7.02
445.65	102.98
445.84	25.75
446.02	56.17
446.21	0.00
446.39	60.85
446.58	49.15
446.77	105.32
446.95	126.39
447.14	107.66
447.32	35.11
447.51	0.00
447.69	65.54
447.88	70.22
448.06	25.75
448.25	0.00
448.43	39.79
448.62	0.00
448.80	49.15
448.99	60.85
449.17	105.32
449.36	105.32
449.54	0.00
449.73	23.41
449.91	42.13
450.10	0.00
450.28	56.17
450.46	98.30
450.65	0.00
450.83	77.24
451.02	81.92
451.20	14.04
451.39	60.85
451.57	25.75
451.76	98.30
451.94	9.36
452.13	14.04
452.31	53.83
452.49	74.90
452.68	51.49
452.86	93.62
453.05	14.04
453.23	65.54
453.42	88.94
453.60	0.00
453.78	72.56
453.97	18.72
454.15	63.19
454.34	56.17
454.52	60.85
454.70	117.03
454.89	9.36
455.07	11.70
455.26	32.77
455.44	11.70
455.62	46.81
455.81	30.43
455.99	67.88
456.17	32.77
456.36	81.92
456.54	58.51
456.73	86.60
456.91	105.32
457.09	98.30
457.28	110.01
457.46	53.83
457.64	58.51
457.83	35.11
458.01	39.79
458.19	110.01
458.38	65.54
458.56	42.13
458.74	56.17
458.93	25.75
459.11	39.79
459.29	53.83
459.48	56.17
459.66	51.49
459.84	67.88
460.03	11.70
460.21	74.90
460.39	7.02
460.57	63.19
460.76	21.06
460.94	93.62
461.12	0.00
461.31	65.54
461.49	70.22
461.67	0.00
461.85	70.22
462.04	100.64
462.22	98.30
462.40	37.45
462.59	100.64
462.77	18.72
462.95	72.56
463.13	4.68
463.32	0.00
463.50	56.17
463.68	0.00
463.86	0.00
464.05	18.72
464.23	42.13
464.41	126.39
464.59	112.35
464.78	2.34
464.96	60.85
465.14	14.04
465.32	72.56
465.50	51.49
465.69	56.17
465.87	32.77
466.05	42.13
466.23	77.24
466.41	37.45
466.60	81.92
466.78	49.15
466.96	65.54
467.14	49.15
467.32	93.62
467.51	110.01
467.69	119.37
467.87	53.83
468.05	42.13
468.23	0.00
468.41	25.75
468.60	140.43
468.78	30.43
468.96	100.64
469.14	65.54
469.32	114.69
469.50	0.00
469.69	46.81
469.87	0.00
470.05	18.72
470.23	56.17
470.41	88.94
470.59	16.38
470.77	93.62
470.95	28.09
471.14	0.00
471.32	72.56
471.50	2.34
471.68	0.00
471.86	56.17
472.04	35.11
472.22	100.64
472.40	37.45
472.58	72.56
472.77	58.51
472.95	70.22
473.13	79.58
473.31	37.45
473.49	7.02
473.67	63.19
473.85	119.37
474.03	67.88
474.21	32.77
474.39	39.79
474.57	117.03
474.75	70.22
474.93	9.36
475.12	42.13
475.30	0.00
475.48	58.51
475.66	91.28
475.84	46.81
476.02	79.58
476.20	0.00
476.38	81.92
476.56	154.48
476.74	98.30
476.92	0.00
477.10	70.22
477.28	84.26
477.46	0.00
477.64	93.62
477.82	114.69
478.00	46.81
478.18	93.62
478.36	46.81
478.54	124.05
478.72	37.45
478.90	60.85
479.08	0.00
479.26	16.38
479.44	86.60
479.62	112.35
479.80	107.66
479.98	14.04
480.16	81.92
480.34	56.17
480.52	39.79
480.70	77.24
480.88	110.01
481.06	58.51
481.24	135.75
481.41	105.32
481.59	51.49
481.77	145.11
481.95	46.81
482.13	81.92
482.31	63.19
482.49	81.92
482.67	53.83
482.85	42.13
483.03	119.37
483.21	81.92
483.39	124.05
483.57	21.06
483.74	49.15
483.92	58.51
484.10	72.56
484.28	119.37
484.46	37.45
484.64	81.92
484.82	42.13
485.00	32.77
485.18	63.19
485.35	63.19
485.53	39.79
485.71	18.72
485.89	25.75
486.07	11.70
486.25	81.92
486.43	53.83
486.61	49.15
486.78	65.54
486.96	63.19
487.14	70.22
487.32	74.90
487.50	42.13
487.68	124.05
487.85	65.54
488.03	60.85
488.21	135.75
488.39	126.39
488.57	121.71
488.75	86.60
488.92	91.28
489.10	70.22
489.28	107.66
489.46	51.49
489.64	86.60
489.81	72.56
489.99	114.69
490.17	100.64
490.35	124.05
490.53	0.00
490.70	98.30
490.88	72.56
491.06	124.05
491.24	32.77
491.41	44.47
491.59	107.66
491.77	119.37
491.95	126.39
492.13	65.54
492.30	65.54
492.48	126.39
492.66	11.70
492.84	53.83
493.01	110.01
493.19	28.09
493.37	140.43
493.54	149.79
493.72	74.90
493.90	11.70
494.08	98.30
494.25	58.51
494.43	60.85
494.61	67.88
494.79	42.13
494.96	100.64
495.14	145.11
495.32	95.96
495.49	67.88
495.67	51.49
495.85	86.60
496.02	93.62
496.20	70.22
496.38	9.36
496.55	21.06
496.73	74.90
496.91	0.00
497.09	46.81
497.26	35.11
497.44	95.96
497.62	117.03
497.79	39.79
497.97	102.98
498.14	93.62
498.32	124.05
498.50	119.37
498.67	46.81
498.85	114.69
499.03	112.35
499.20	58.51
499.38	100.64
499.56	2.34
499.73	65.54
499.91	133.41
500.08	117.03
500.26	37.45
500.44	18.72
500.61	84.26
500.79	110.01
500.97	84.26
501.14	135.75
501.32	58.51
501.49	145.11
501.67	21.06
501.84	91.28
502.02	0.00
502.20	77.24
502.37	117.03
502.55	70.22
502.72	100.64
502.90	126.39
503.07	67.88
503.25	91.28
503.43	114.69
503.60	105.32
503.78	44.47
503.95	88.94
504.13	39.79
504.30	67.88
504.48	77.24
504.65	112.35
504.83	84.26
505.01	142.77
505.18	72.56
505.36	93.62
505.53	121.71
505.71	88.94
505.88	79.58
506.06	0.00
506.23	2.34
506.41	77.24
506.58	23.41
506.76	32.77
506.93	88.94
507.11	128.73
507.28	124.05
507.46	56.17
507.63	67.88
507.81	70.22
507.98	72.56
508.16	81.92
508.33	119.37
508.50	37.45
508.68	53.83
508.85	70.22
509.03	77.24
509.20	58.51
509.38	112.35
509.55	35.11
509.73	93.62
509.90	95.96
510.08	56.17
510.25	42.13
510.42	30.43
510.60	142.77
510.77	124.05
510.95	70.22
511.12	105.32
511.30	0.00
511.47	114.69
511.64	56.17
511.82	140.43
511.99	51.49
512.17	79.58
512.34	126.39
512.51	60.85
512.69	56.17
512.86	60.85
513.04	37.45
513.21	0.00
513.38	0.00
513.56	46.81
513.73	65.54
513.90	79.58
514.08	46.81
514.25	93.62
514.43	67.88
514.60	63.19
514.77	91.28
514.95	70.22
515.12	67.88
515.29	53.83
515.47	100.64
515.64	88.94
515.81	100.64
515.99	51.49
516.16	4.68
516.33	105.32
516.51	88.94
516.68	60.85
516.85	135.75
517.03	105.32
517.20	65.54
517.37	72.56
517.54	77.24
517.72	49.15
517.89	147.45
518.06	145.11
518.24	88.94
518.41	32.77
518.58	135.75
518.75	86.60
518.93	93.62
519.10	46.81
519.27	84.26
519.45	77.24
519.62	44.47
519.79	79.58
519.96	138.09
520.14	72.56
520.31	98.30
520.48	79.58
520.65	131.07
520.83	163.84
521.00	58.51
521.17	56.17
521.34	53.83
521.52	98.30
521.69	0.00
521.86	154.48
522.03	121.71
522.20	88.94
522.38	72.56
522.55	42.13
522.72	44.47
522.89	30.43
523.07	44.47
523.24	30.43
523.41	194.26
523.58	138.09
523.75	42.13
523.92	100.64
524.10	98.30
524.27	25.75
524.44	56.17
524.61	70.22
524.78	56.17
524.96	112.35
525.13	46.81
525.30	86.60
525.47	72.56
525.64	7.02
525.81	117.03
525.98	84.26
526.16	133.41
526.33	84.26
526.50	39.79
526.67	124.05
526.84	72.56
527.01	79.58
527.18	67.88
527.36	46.81
527.53	53.83
527.70	107.66
527.87	16.38
528.04	65.54
528.21	81.92
528.38	67.88
528.55	88.94
528.72	149.79
528.89	119.37
529.07	56.17
529.24	65.54
529.41	124.05
529.58	81.92
529.75	131.07
529.92	32.77
530.09	79.58
530.26	58.51
530.43	21.06
530.60	60.85
530.77	100.64
530.94	93.62
531.11	135.75
531.28	124.05
531.46	117.03
531.63	25.75
531.80	84.26
531.97	117.03
532.14	91.28
532.31	67.88
532.48	70.22
532.65	32.77
532.82	140.43
532.99	84.26
533.16	105.32
533.33	53.83
533.50	100.64
533.67	93.62
533.84	65.54
534.01	79.58
534.18	124.05
534.35	117.03
534.52	98.30
534.69	84.26
534.86	100.64
535.03	138.09
535.20	51.49
535.37	42.13
535.54	95.96
535.71	53.83
535.88	79.58
536.05	58.51
536.22	56.17
536.38	107.66
536.55	39.79
536.72	86.60
536.89	110.01
537.06	86.60
537.23	145.11
537.40	81.92
537.57	84.26
537.74	70.22
537.91	67.88
538.08	100.64
538.25	126.39
538.42	107.66
538.59	107.66
538.75	65.54
538.92	95.96
539.09	112.35
539.26	112.35
539.43	88.94
539.60	124.05
539.77	88.94
539.94	25.75
540.11	77.24
540.28	126.39
540.44	16.38
540.61	102.98
540.78	102.98
540.95	81.92
541.12	56.17
541.29	51.49
541.46	32.77
541.62	42.13
541.79	53.83
541.96	58.51
542.13	63.19
542.30	39.79
542.47	91.28
542.63	86.60
542.80	98.30
542.97	37.45
543.14	121.71
543.31	77.24
543.48	100.64
543.64	107.66
543.81	100.64
543.98	114.69
544.15	95.96
544.32	131.07
544.48	49.15
544.65	98.30
544.82	60.85
544.99	91.28
545.16	107.66
545.32	0.00
545.49	37.45
545.66	79.58
545.83	49.15
546.00	81.92
546.16	135.75
546.33	74.90
546.50	72.56
546.67	140.43
546.83	81.92
547.00	58.51
547.17	58.51
547.34	74.90
547.50	35.11
547.67	86.60
547.84	135.75
548.00	23.41
548.17	91.28
548.34	138.09
548.51	95.96
548.67	65.54
548.84	161.50
549.01	140.43
549.18	131.07
549.34	81.92
549.51	56.17
549.68	95.96
549.84	72.56
550.01	23.41
550.18	117.03
550.34	60.85
550.51	21.06
550.68	100.64
550.84	117.03
551.01	79.58
551.18	102.98
551.34	67.88
551.51	84.26
551.68	77.24
551.84	60.85
552.01	70.22
552.18	126.39
552.34	70.22
552.51	145.11
552.68	72.56
552.84	81.92
553.01	58.51
553.18	86.60
553.34	35.11
553.51	30.43
553.67	42.13
553.84	205.97
554.01	74.90
554.17	49.15
554.34	117.03
554.51	105.32
554.67	112.35
554.84	175.54
555.00	72.56
555.17	95.96
555.33	121.71
555.50	60.85
555.67	65.54
555.83	117.03
556.00	53.83
556.16	124.05
556.33	39.79
556.50	119.37
556.66	100.64
556.83	11.70
556.99	107.66
557.16	107.66
557.32	138.09
557.49	60.85
557.65	119.37
557.82	49.15
557.98	72.56
558.15	72.56
558.32	124.05
558.48	21.06
558.65	77.24
558.81	14.04
558.98	149.79
559.14	119.37
559.31	88.94
559.47	117.03
559.64	42.13
559.80	77.24
559.97	93.62
560.13	56.17
560.30	32.77
560.46	56.17
560.63	74.90
560.79	100.64
560.96	39.79
561.12	119.37
561.29	60.85
561.45	60.85
561.61	60.85
561.78	102.98
561.94	67.88
562.11	107.66
562.27	42.13
562.44	79.58
562.60	91.28
562.77	72.56
562.93	105.32
563.10	91.28
563.26	126.39
563.42	72.56
563.59	112.35
563.75	46.81
563.92	135.75
564.08	30.43
564.24	128.73
564.41	35.11
564.57	84.26
564.74	39.79
564.90	102.98
565.07	65.54
565.23	14.04
565.39	145.11
565.56	32.77
565.72	51.49
565.88	217.67
566.05	32.77
566.21	18.72
566.38	105.32
566.54	67.88
566.70	79.58
566.87	117.03
567.03	98.30
567.19	25.75
567.36	77.24
567.52	4.68
567.68	28.09
567.85	91.28
568.01	53.83
568.17	84.26
568.34	65.54
568.50	65.54
568.66	86.60
568.83	93.62
568.99	112.35
569.15	42.13
569.32	14.04
569.48	28.09
569.64	58.51
569.81	93.62
569.97	37.45
570.13	37.45
570.30	39.79
570.46	84.26
570.62	32.77
570.78	58.51
570.95	56.17
571.11	63.19
571.27	70.22
571.43	51.49
571.60	131.07
571.76	105.32
571.92	23.41
572.09	23.41
572.25	39.79
572.41	86.60
572.57	91.28
572.74	79.58
572.90	39.79
573.06	98.30
573.22	173.20
573.38	126.39
573.55	86.60
573.71	63.19
573.87	35.11
574.03	46.81
574.20	79.58
574.36	128.73
574.52	4.68
574.68	35.11
574.84	119.37
575.01	60.85
575.17	39.79
575.33	0.00
575.49	58.51
575.65	60.85
575.82	49.15
575.98	84.26
576.14	114.69
576.30	114.69
576.46	58.51
576.62	95.96
576.79	152.13
576.95	86.60
577.11	63.19
577.27	65.54
577.43	65.54
577.59	56.17
577.75	77.24
577.92	117.03
578.08	32.77
578.24	77.24
578.40	166.18
578.56	112.35
578.72	77.24
578.88	138.09
579.04	88.94
579.21	42.13
579.37	126.39
579.53	86.60
579.69	114.69
579.85	110.01
580.01	44.47
580.17	102.98
580.33	135.75
580.49	81.92
580.65	23.41
580.82	102.98
580.98	121.71
581.14	93.62
581.30	121.71
581.46	107.66
581.62	135.75
581.78	32.77
581.94	114.69
582.10	93.62
582.26	46.81
582.42	49.15
582.58	84.26
582.74	105.32
582.90	0.00
583.06	63.19
583.22	72.56
583.38	25.75
583.54	51.49
583.70	58.51
583.86	107.66
584.02	72.56
584.18	42.13
584.34	18.72
584.50	77.24
584.66	105.32
584.82	67.88
584.98	102.98
585.14	74.90
585.30	39.79
585.46	119.37
585.62	102.98
585.78	28.09
585.94	93.62
586.10	23.41
586.26	112.35
586.42	100.64
586.58	63.19
586.74	102.98
586.90	67.88
587.06	79.58
587.22	79.58
587.38	128.73
587.54	9.36
587.70	84.26
587.86	74.90
588.02	110.01
588.18	98.30
588.34	42.13
588.49	0.00
588.65	65.54
588.81	70.22
588.97	112.35
589.13	51.49
589.29	63.19
589.45	77.24
589.61	42.13
589.77	30.43
589.93	51.49
590.08	39.79
590.24	126.39
590.40	93.62
590.56	74.90
590.72	110.01
590.88	53.83
591.04	88.94
591.20	60.85
591.35	37.45
591.51	30.43
591.67	58.51
591.83	86.60
591.99	60.85
592.15	0.00
592.31	67.88
592.46	81.92
592.62	56.17
592.78	140.43
592.94	39.79
593.10	86.60
593.26	51.49
593.41	46.81
593.57	0.00
593.73	21.06
593.89	16.38
594.05	4.68
594.20	42.13
594.36	0.00
594.52	70.22
594.68	112.35
594.84	93.62
594.99	74.90
595.15	0.00
595.31	173.20
595.47	32.77
595.62	9.36
595.78	67.88
595.94	25.75
596.10	119.37
596.25	98.30
596.41	77.24
596.57	21.06
596.73	117.03
596.88	98.30
597.04	128.73
597.20	72.56
597.36	9.36
597.51	95.96
597.67	60.85
597.83	23.41
597.99	46.81
598.14	81.92
598.30	67.88
598.46	0.00
598.61	21.06
598.77	35.11
598.93	88.94
599.09	84.26
599.24	11.70
599.40	14.04
599.56	117.03
599.71	88.94
599.87	11.70
600.03	84.26
600.18	121.71
600.34	30.43
600.50	102.98
600.65	77.24
600.81	51.49
600.97	105.32
601.12	65.54
601.28	119.37
601.44	74.90
601.59	0.00
601.75	98.30
601.91	126.39
602.06	70.22
602.22	86.60
602.37	93.62
602.53	72.56
602.69	70.22
602.84	88.94
603.00	56.17
603.16	126.39
603.31	0.00
603.47	30.43
603.62	53.83
603.78	70.22
603.94	84.26
604.09	84.26
604.25	77.24
604.40	49.15
604.56	60.85
604.71	95.96
604.87	60.85
605.03	63.19
605.18	44.47
605.34	46.81
605.49	124.05
605.65	30.43
605.80	51.49
605.96	65.54
606.12	77.24
606.27	72.56
606.43	81.92
606.58	102.98
606.74	112.35
606.89	49.15
607.05	32.77
607.20	84.26
607.36	60.85
607.51	105.32
607.67	98.30
607.82	49.15
607.98	105.32
608.13	56.17
608.29	124.05
608.44	4.68
608.60	63.19
608.75	18.72
608.91	93.62
609.06	98.30
609.22	32.77
609.37	49.15
609.53	81.92
609.68	0.00
609.84	63.19
609.99	119.37
610.15	105.32
610.30	95.96
610.46	112.35
610.61	95.96
610.76	58.51
610.92	95.96
611.07	77.24
611.23	88.94
611.38	49.15
611.54	67.88
611.69	46.81
611.84	81.92
612.00	100.64
612.15	0.00
612.31	23.41
612.46	30.43
612.62	65.54
612.77	95.96
612.92	65.54
613.08	65.54
613.23	93.62
613.39	74.90
613.54	56.17
613.69	28.09
613.85	107.66
614.00	149.79
614.15	133.41
614.31	56.17
614.46	65.54
614.62	114.69
614.77	30.43
614.92	35.11
615.08	91.28
615.23	100.64
615.38	128.73
615.54	23.41
615.69	37.45
615.84	18.72
616.00	74.90
616.15	58.51
616.30	110.01
616.46	56.17
616.61	140.43
616.76	93.62
616.92	28.09
617.07	79.58
617.22	100.64
617.37	14.04
617.53	65.54
617.68	60.85
617.83	124.05
617.99	126.39
618.14	72.56
618.29	84.26
618.45	60.85
618.60	11.70
618.75	74.90
618.90	67.88
619.06	81.92
619.21	79.58
619.36	30.43
619.51	53.83
619.67	37.45
619.82	0.00
619.97	105.32
620.12	4.68
620.28	79.58
620.43	0.00
620.58	0.00
620.73	0.00
620.89	11.70
621.04	110.01
621.19	51.49
621.34	74.90
621.49	77.24
621.65	88.94
621.80	74.90
621.95	142.77
622.10	119.37
622.25	95.96
622.41	53.83
622.56	42.13
622.71	72.56
622.86	93.62
623.01	51.49
623.16	65.54
623.32	23.41
623.47	32.77
623.62	42.13
623.77	100.64
623.92	39.79
624.07	95.96
624.23	102.98
624.38	46.81
624.53	51.49
624.68	60.85
624.83	58.51
624.98	70.22
625.13	42.13
625.29	23.41
625.44	7.02
625.59	28.09
625.74	79.58
625.89	63.19
626.04	46.81
626.19	93.62
626.34	16.38
626.49	77.24
626.65	98.30
626.80	35.11
626.95	53.83
627.10	84.26
627.25	86.60
627.40	30.43
627.55	30.43
627.70	37.45
627.85	58.51
628.00	16.38
628.15	114.69
628.30	84.26
628.45	79.58
628.60	44.47
628.76	53.83
628.91	105.32
629.06	124.05
629.21	81.92
629.36	14.04
629.51	18.72
629.66	67.88
629.81	0.00
629.96	102.98
630.11	56.17
630.26	65.54
630.41	63.19
630.56	74.90
630.71	84.26
630.86	30.43
631.01	37.45
631.16	11.70
631.31	91.28
631.46	0.00
631.61	51.49
631.76	60.85
631.91	44.47
632.06	70.22
632.21	67.88
632.36	79.58
632.51	0.00
632.66	175.54
632.81	98.30
632.96	28.09
633.10	81.92
633.25	25.75
633.40	60.85
633.55	0.00
633.70	79.58
633.85	67.88
634.00	46.81
634.15	51.49
634.30	58.51
634.45	18.72
634.60	56.17
634.75	70.22
634.90	65.54
635.05	23.41
635.19	93.62
635.34	53.83
635.49	51.49
635.64	53.83
635.79	58.51
635.94	0.00
636.09	79.58
636.24	32.77
636.39	18.72
636.53	53.83
636.68	39.79
636.83	37.45
636.98	79.58
637.13	86.60
637.28	28.09
637.43	60.85
637.57	11.70
637.72	23.41
637.87	65.54
638.02	46.81
638.17	60.85
638.32	49.15
638.46	23.41
638.61	72.56
638.76	112.35
638.91	79.58
639.06	49.15
639.20	72.56
639.35	51.49
639.50	58.51
639.65	60.85
639.80	56.17
639.94	67.88
640.09	93.62
640.24	117.03
640.39	56.17
640.54	46.81
640.68	60.85
640.83	63.19
640.98	53.83
641.13	84.26
641.27	23.41
641.42	7.02
641.57	112.35
641.72	63.19
641.86	11.70
642.01	65.54
642.16	25.75
642.31	9.36
642.45	74.90
642.60	44.47
642.75	0.00
642.90	72.56
643.04	74.90
643.19	58.51
643.34	79.58
643.48	86.60
643.63	18.72
643.78	30.43
643.93	119.37
644.07	133.41
644.22	53.83
644.37	74.90
644.51	42.13
644.66	58.51
644.81	88.94
644.95	65.54
645.10	91.28
645.25	0.00
645.39	11.70
645.54	114.69
645.69	0.00
645.83	30.43
645.98	28.09
646.13	46.81
646.27	0.00
646.42	42.13
646.57	7.02
646.71	81.92
646.86	56.17
647.00	70.22
647.15	105.32
647.30	65.54
647.44	35.11
647.59	37.45
647.74	28.09
647.88	39.79
648.03	79.58
648.17	84.26
648.32	32.77
648.47	39.79
648.61	32.77
648.76	58.51
648.90	28.09
649.05	14.04
649.20	65.54
649.34	67.88
649.49	98.30
649.63	58.51
649.78	93.62
649.92	81.92
650.07	63.19
650.21	28.09
650.36	65.54
650.51	79.58
650.65	79.58
650.80	67.88
650.94	128.73
651.09	86.60
651.23	32.77
651.38	67.88
651.52	0.00
651.67	105.32
651.81	58.51
651.96	98.30
652.10	25.75
652.25	102.98
652.39	51.49
652.54	67.88
652.68	30.43
652.83	110.01
652.97	81.92
653.12	28.09
653.26	0.00
653.41	51.49
653.55	23.41
653.70	60.85
653.84	60.85
653.99	23.41
654.13	0.00
654.27	14.04
654.42	51.49
654.56	65.54
654.71	84.26
654.85	30.43
655.00	11.70
655.14	2.34
655.29	110.01
655.43	84.26
655.57	56.17
655.72	28.09
655.86	32.77
656.01	77.24
656.15	11.70
656.30	53.83
656.44	58.51
656.58	72.56
656.73	58.51
656.87	0.00
657.01	0.00
657.16	37.45
657.30	53.83
657.45	30.43
657.59	63.19
657.73	44.47
657.88	95.96
658.02	102.98
658.16	58.51
658.31	135.75
658.45	84.26
658.60	46.81
658.74	4.68
658.88	39.79
659.03	74.90
659.17	91.28
659.31	56.17
659.46	67.88
659.60	74.90
659.74	81.92
659.89	25.75
660.03	53.83
660.17	131.07
660.32	93.62
660.46	49.15
660.60	51.49
660.74	7.02
660.89	95.96
661.03	79.58
661.17	0.00
661.32	44.47
661.46	86.60
661.60	81.92
661.74	63.19
661.89	32.77
662.03	0.00
662.17	30.43
662.31	30.43
662.46	39.79
662.60	28.09
662.74	79.58
662.88	107.66
663.03	44.47
663.17	88.94
663.31	88.94
663.45	46.81
663.60	58.51
663.74	32.77
663.88	49.15
664.02	42.13
664.17	25.75
664.31	42.13
664.45	25.75
664.59	53.83
664.73	63.19
664.88	49.15
665.02	39.79
665.16	0.00
665.30	30.43
665.44	86.60
665.59	77.24
665.73	42.13
665.87	35.11
666.01	128.73
666.15	81.92
666.29	67.88
666.44	138.09
666.58	42.13
666.72	30.43
666.86	51.49
667.00	56.17
667.14	0.00
667.28	91.28
667.43	53.83
667.57	32.77
667.71	44.47
667.85	16.38
667.99	53.83
668.13	91.28
668.27	28.09
668.41	58.51
668.56	58.51
668.70	18.72
668.84	65.54
668.98	72.56
669.12	28.09
669.26	0.00
669.40	107.66
669.54	9.36
669.68	58.51
669.82	88.94
669.96	0.00
670.10	110.01
670.25	0.00
670.39	58.51
670.53	53.83
670.67	105.32
670.81	102.98
670.95	72.56
671.09	77.24
671.23	100.64
671.37	35.11
671.51	77.24
671.65	49.15
671.79	46.81
671.93	77.24
672.07	0.00
672.21	42.13
672.35	30.43
672.49	0.00
672.63	79.58
672.77	0.00
672.91	74.90
673.05	39.79
673.19	46.81
673.33	32.77
673.47	49.15
673.61	37.45
673.75	60.85
673.89	93.62
674.03	4.68
674.17	21.06
674.31	2.34
674.45	9.36
674.59	56.17
674.73	0.00
674.87	51.49
675.01	35.11
675.15	30.43
675.29	32.77
675.43	23.41
675.56	53.83
675.70	110.01
675.84	0.00
675.98	93.62
676.12	93.62
676.26	74.90
676.40	88.94
676.54	30.43
676.68	49.15
676.82	124.05
676.96	77.24
677.10	37.45
677.23	79.58
677.37	7.02
677.51	44.47
677.65	84.26
677.79	0.00
677.93	93.62
678.07	119.37
678.21	70.22
678.34	0.00
678.48	28.09
678.62	91.28
678.76	16.38
678.90	28.09
679.04	7.02
679.18	25.75
679.31	65.54
679.45	42.13
679.59	53.83
679.73	63.19
679.87	51.49
680.00	16.38
680.14	126.39
680.28	110.01
680.42	2.34
680.56	0.00
680.70	93.62
680.83	56.17
680.97	77.24
681.11	65.54
681.25	51.49
681.39	0.00
681.52	37.45
681.66	37.45
681.80	114.69
681.94	58.51
682.07	14.04
682.21	0.00
682.35	91.28
682.49	0.00
682.62	42.13
682.76	67.88
682.90	32.77
683.04	0.00
683.17	60.85
683.31	53.83
683.45	39.79
683.59	0.00
683.72	35.11
683.86	7.02
684.00	11.70
684.13	21.06
684.27	7.02
684.41	21.06
684.55	35.11
684.68	0.00
684.82	95.96
684.96	46.81
685.09	58.51
685.23	86.60
685.37	72.56
685.50	44.47
685.64	95.96
685.78	49.15
685.91	0.00
686.05	117.03
686.19	53.83
686.32	77.24
686.46	70.22
686.60	37.45
686.73	14.04
686.87	18.72
687.01	70.22
687.14	0.00
687.28	35.11
687.42	107.66
687.55	44.47
687.69	65.54
687.82	32.77
687.96	0.00
688.10	86.60
688.23	0.00
688.37	11.70
688.50	0.00
688.64	67.88
688.78	44.47
688.91	18.72
689.05	60.85
689.18	0.00
689.32	70.22
689.46	0.00
689.59	65.54
689.73	0.00
689.86	107.66
690.00	37.45
690.13	30.43
690.27	0.00
690.41	0.00
690.54	65.54
690.68	56.17
690.81	39.79
690.95	18.72
691.08	58.51
691.22	7.02
691.35	32.77
691.49	9.36
691.62	56.17
691.76	81.92
691.89	30.43
692.03	65.54
692.16	18.72
692.30	86.60
692.43	0.00
692.57	28.09
692.70	0.00
692.84	46.81
692.97	46.81
693.11	51.49
693.24	72.56
693.38	16.38
693.51	37.45
693.65	81.92
693.78	28.09
693.92	124.05
694.05	14.04
694.19	7.02
694.32	21.06
694.45	16.38
694.59	21.06
694.72	32.77
694.86	46.81
694.99	39.79
695.13	72.56
695.26	11.70
695.39	35.11
695.53	84.26
695.66	11.70
695.80	44.47
695.93	37.45
696.07	95.96
696.20	49.15
696.33	42.13
696.47	21.06
696.60	14.04
696.73	81.92
696.87	0.00
697.00	74.90
697.14	0.00
697.27	0.00
697.40	28.09
697.54	84.26
697.67	84.26
697.80	21.06
697.94	37.45
698.07	0.00
698.21	60.85
698.34	0.00
698.47	72.56
698.61	53.83
698.74	0.00
698.87	2.34
699.01	32.77
699.14	9.36
699.27	39.79
699.40	0.00
699.54	11.70
699.67	35.11
699.80	44.47
699.94	0.00
700.07	4.68
700.20	18.72
700.34	46.81
700.47	25.75
700.60	25.75
700.73	0.00
700.87	32.77
701.00	28.09
701.13	58.51
701.26	49.15
701.40	37.45
701.53	0.00
701.66	65.54
701.79	63.19
701.93	0.00
702.06	74.90
702.19	14.04
702.32	105.32
702.46	9.36
702.59	30.43
702.72	0.00
702.85	39.79
702.99	74.90
703.12	37.45
703.25	63.19
703.38	16.38
703.51	49.15
703.65	9.36
703.78	4.68
703.91	0.00
704.04	0.00
704.17	2.34
704.31	30.43
704.44	28.09
704.57	46.81
704.70	7.02
704.83	70.22
704.96	0.00
705.10	39.79
705.23	53.83
>>>>>End Processed Spectral Data<<<<<
