SpectraSuite Data File
++++++++++++++++++++++++++++++++++++
Date: Fri Oct 04 12:13:44 GMT-05:00 2013
User: price-jones
Dark Spectrum Present: No
Reference Spectrum Present: No
Number of Sampled Component Spectra: 1
Spectrometers: USB2+H05261
Integration Time (usec): 10000 (USB2+H05261)
Spectra Averaged: 1 (USB2+H05261)
Boxcar Smoothing: 0 (USB2+H05261)
Correct for Electrical Dark: No (USB2+H05261)
Strobe/Lamp Enabled: No (USB2+H05261)
Correct for Detector Non-linearity: No (USB2+H05261)
Correct for Stray Light: No (USB2+H05261)
Number of Pixels in Processed Spectrum: 2048
>>>>>Begin Processed Spectral Data<<<<<
365.73	0.00
365.92	0.00
366.12	0.00
366.32	0.00
366.52	0.00
366.72	0.00
366.91	0.00
367.11	0.00
367.31	0.00
367.51	0.00
367.70	0.00
367.90	0.00
368.10	0.00
368.30	0.00
368.49	0.00
368.69	0.00
368.89	0.00
369.09	0.00
369.28	0.00
369.48	0.00
369.68	0.00
369.87	0.00
370.07	0.00
370.27	0.00
370.47	0.00
370.66	0.00
370.86	9.36
371.06	4.68
371.25	0.00
371.45	0.00
371.65	16.38
371.84	0.00
372.04	28.09
372.24	18.72
372.44	9.36
372.63	25.75
372.83	0.00
373.03	14.04
373.22	58.51
373.42	14.04
373.62	21.06
373.81	84.26
374.01	51.49
374.21	49.15
374.40	44.47
374.60	0.00
374.79	30.43
374.99	49.15
375.19	79.58
375.38	11.70
375.58	100.64
375.78	67.88
375.97	58.51
376.17	16.38
376.37	7.02
376.56	11.70
376.76	37.45
376.95	44.47
377.15	18.72
377.35	9.36
377.54	74.90
377.74	39.79
377.93	46.81
378.13	72.56
378.33	18.72
378.52	44.47
378.72	0.00
378.91	0.00
379.11	25.75
379.31	0.00
379.50	0.00
379.70	21.06
379.89	0.00
380.09	44.47
380.28	63.19
380.48	35.11
380.68	30.43
380.87	37.45
381.07	0.00
381.26	21.06
381.46	0.00
381.65	56.17
381.85	72.56
382.04	9.36
382.24	0.00
382.43	0.00
382.63	0.00
382.83	0.00
383.02	9.36
383.22	25.75
383.41	11.70
383.61	0.00
383.80	0.00
384.00	56.17
384.19	2.34
384.39	0.00
384.58	16.38
384.78	0.00
384.97	44.47
385.17	21.06
385.36	44.47
385.56	46.81
385.75	23.41
385.95	16.38
386.14	58.51
386.34	0.00
386.53	30.43
386.72	0.00
386.92	51.49
387.11	28.09
387.31	0.00
387.50	0.00
387.70	0.00
387.89	0.00
388.09	32.77
388.28	49.15
388.48	0.00
388.67	91.28
388.86	21.06
389.06	44.47
389.25	49.15
389.45	21.06
389.64	74.90
389.84	0.00
390.03	28.09
390.22	37.45
390.42	93.62
390.61	65.54
390.81	53.83
391.00	39.79
391.19	35.11
391.39	63.19
391.58	35.11
391.78	77.24
391.97	18.72
392.16	28.09
392.36	0.00
392.55	67.88
392.75	0.00
392.94	49.15
393.13	21.06
393.33	25.75
393.52	37.45
393.71	9.36
393.91	0.00
394.10	44.47
394.29	0.00
394.49	0.00
394.68	46.81
394.88	74.90
395.07	84.26
395.26	18.72
395.46	18.72
395.65	60.85
395.84	58.51
396.04	16.38
396.23	67.88
396.42	44.47
396.62	58.51
396.81	79.58
397.00	14.04
397.19	0.00
397.39	21.06
397.58	28.09
397.77	11.70
397.97	65.54
398.16	91.28
398.35	0.00
398.55	42.13
398.74	32.77
398.93	0.00
399.12	28.09
399.32	42.13
399.51	0.00
399.70	37.45
399.90	72.56
400.09	37.45
400.28	112.35
400.47	0.00
400.67	42.13
400.86	84.26
401.05	93.62
401.24	86.60
401.44	79.58
401.63	37.45
401.82	25.75
402.01	91.28
402.21	0.00
402.40	67.88
402.59	46.81
402.78	58.51
402.97	25.75
403.17	0.00
403.36	30.43
403.55	35.11
403.74	98.30
403.93	37.45
404.13	51.49
404.32	0.00
404.51	28.09
404.70	65.54
404.89	49.15
405.09	0.00
405.28	46.81
405.47	21.06
405.66	0.00
405.85	53.83
406.05	0.00
406.24	28.09
406.43	11.70
406.62	46.81
406.81	60.85
407.00	98.30
407.20	7.02
407.39	0.00
407.58	42.13
407.77	18.72
407.96	39.79
408.15	56.17
408.34	35.11
408.54	0.00
408.73	4.68
408.92	58.51
409.11	32.77
409.30	58.51
409.49	0.00
409.68	0.00
409.87	0.00
410.07	60.85
410.26	65.54
410.45	0.00
410.64	0.00
410.83	0.00
411.02	4.68
411.21	11.70
411.40	65.54
411.59	30.43
411.78	18.72
411.98	60.85
412.17	91.28
412.36	28.09
412.55	16.38
412.74	42.13
412.93	42.13
413.12	70.22
413.31	53.83
413.50	37.45
413.69	32.77
413.88	77.24
414.07	49.15
414.26	32.77
414.45	0.00
414.64	14.04
414.83	18.72
415.02	30.43
415.22	95.96
415.41	77.24
415.60	23.41
415.79	88.94
415.98	46.81
416.17	60.85
416.36	81.92
416.55	25.75
416.74	84.26
416.93	65.54
417.12	7.02
417.31	72.56
417.50	79.58
417.69	0.00
417.88	102.98
418.07	86.60
418.26	9.36
418.45	16.38
418.64	35.11
418.83	51.49
419.02	46.81
419.21	93.62
419.39	74.90
419.58	11.70
419.77	110.01
419.96	0.00
420.15	28.09
420.34	84.26
420.53	37.45
420.72	23.41
420.91	0.00
421.10	18.72
421.29	21.06
421.48	21.06
421.67	67.88
421.86	67.88
422.05	4.68
422.24	16.38
422.43	0.00
422.61	16.38
422.80	56.17
422.99	63.19
423.18	49.15
423.37	18.72
423.56	95.96
423.75	67.88
423.94	77.24
424.13	37.45
424.32	23.41
424.50	14.04
424.69	23.41
424.88	42.13
425.07	0.00
425.26	58.51
425.45	37.45
425.64	98.30
425.83	37.45
426.01	30.43
426.20	25.75
426.39	16.38
426.58	30.43
426.77	14.04
426.96	0.00
427.15	49.15
427.33	84.26
427.52	65.54
427.71	0.00
427.90	30.43
428.09	9.36
428.28	11.70
428.46	44.47
428.65	0.00
428.84	23.41
429.03	44.47
429.22	0.00
429.40	16.38
429.59	58.51
429.78	67.88
429.97	93.62
430.16	72.56
430.34	51.49
430.53	49.15
430.72	23.41
430.91	0.00
431.10	14.04
431.28	84.26
431.47	67.88
431.66	88.94
431.85	74.90
432.03	49.15
432.22	4.68
432.41	107.66
432.60	7.02
432.79	0.00
432.97	4.68
433.16	67.88
433.35	86.60
433.54	51.49
433.72	44.47
433.91	46.81
434.10	0.00
434.28	42.13
434.47	93.62
434.66	42.13
434.85	0.00
435.03	7.02
435.22	37.45
435.41	74.90
435.59	0.00
435.78	18.72
435.97	23.41
436.16	23.41
436.34	74.90
436.53	88.94
436.72	72.56
436.90	49.15
437.09	32.77
437.28	0.00
437.46	9.36
437.65	70.22
437.84	18.72
438.02	37.45
438.21	28.09
438.40	0.00
438.58	72.56
438.77	35.11
438.96	0.00
439.14	23.41
439.33	9.36
439.52	95.96
439.70	0.00
439.89	42.13
440.08	2.34
440.26	65.54
440.45	124.05
440.63	11.70
440.82	53.83
441.01	56.17
441.19	81.92
441.38	46.81
441.57	98.30
441.75	56.17
441.94	65.54
442.12	88.94
442.31	4.68
442.50	0.00
442.68	4.68
442.87	21.06
443.05	0.00
443.24	21.06
443.43	53.83
443.61	60.85
443.80	102.98
443.98	84.26
444.17	95.96
444.35	16.38
444.54	84.26
444.73	25.75
444.91	58.51
445.10	65.54
445.28	60.85
445.47	84.26
445.65	107.66
445.84	105.32
446.02	53.83
446.21	32.77
446.39	7.02
446.58	60.85
446.77	25.75
446.95	9.36
447.14	112.35
447.32	18.72
447.51	65.54
447.69	63.19
447.88	21.06
448.06	30.43
448.25	93.62
448.43	35.11
448.62	42.13
448.80	35.11
448.99	11.70
449.17	39.79
449.36	11.70
449.54	35.11
449.73	46.81
449.91	30.43
450.10	4.68
450.28	117.03
450.46	70.22
450.65	91.28
450.83	16.38
451.02	11.70
451.20	156.82
451.39	28.09
451.57	46.81
451.76	49.15
451.94	44.47
452.13	51.49
452.31	72.56
452.49	32.77
452.68	46.81
452.86	70.22
453.05	110.01
453.23	88.94
453.42	30.43
453.60	117.03
453.78	56.17
453.97	9.36
454.15	18.72
454.34	14.04
454.52	58.51
454.70	60.85
454.89	28.09
455.07	53.83
455.26	74.90
455.44	74.90
455.62	74.90
455.81	44.47
455.99	51.49
456.17	0.00
456.36	86.60
456.54	102.98
456.73	88.94
456.91	42.13
457.09	28.09
457.28	16.38
457.46	39.79
457.64	46.81
457.83	112.35
458.01	88.94
458.19	42.13
458.38	100.64
458.56	9.36
458.74	35.11
458.93	58.51
459.11	2.34
459.29	60.85
459.48	102.98
459.66	93.62
459.84	37.45
460.03	67.88
460.21	56.17
460.39	70.22
460.57	72.56
460.76	102.98
460.94	39.79
461.12	39.79
461.31	100.64
461.49	114.69
461.67	37.45
461.85	88.94
462.04	37.45
462.22	30.43
462.40	79.58
462.59	18.72
462.77	21.06
462.95	32.77
463.13	81.92
463.32	9.36
463.50	28.09
463.68	77.24
463.86	79.58
464.05	25.75
464.23	56.17
464.41	46.81
464.59	16.38
464.78	0.00
464.96	72.56
465.14	46.81
465.32	88.94
465.50	16.38
465.69	37.45
465.87	70.22
466.05	86.60
466.23	128.73
466.41	74.90
466.60	77.24
466.78	145.11
466.96	25.75
467.14	11.70
467.32	70.22
467.51	56.17
467.69	51.49
467.87	37.45
468.05	65.54
468.23	0.00
468.41	74.90
468.60	16.38
468.78	107.66
468.96	65.54
469.14	14.04
469.32	74.90
469.50	39.79
469.69	93.62
469.87	91.28
470.05	84.26
470.23	0.00
470.41	53.83
470.59	121.71
470.77	37.45
470.95	74.90
471.14	51.49
471.32	102.98
471.50	0.00
471.68	49.15
471.86	51.49
472.04	70.22
472.22	107.66
472.40	67.88
472.58	7.02
472.77	60.85
472.95	110.01
473.13	0.00
473.31	0.00
473.49	56.17
473.67	16.38
473.85	53.83
474.03	56.17
474.21	0.00
474.39	0.00
474.57	53.83
474.75	63.19
474.93	0.00
475.12	107.66
475.30	93.62
475.48	44.47
475.66	77.24
475.84	72.56
476.02	110.01
476.20	65.54
476.38	63.19
476.56	63.19
476.74	81.92
476.92	30.43
477.10	81.92
477.28	53.83
477.46	0.00
477.64	46.81
477.82	0.00
478.00	0.00
478.18	42.13
478.36	0.00
478.54	51.49
478.72	42.13
478.90	105.32
479.08	56.17
479.26	86.60
479.44	18.72
479.62	60.85
479.80	30.43
479.98	16.38
480.16	0.00
480.34	74.90
480.52	37.45
480.70	4.68
480.88	32.77
481.06	14.04
481.24	28.09
481.41	4.68
481.59	107.66
481.77	63.19
481.95	14.04
482.13	91.28
482.31	37.45
482.49	58.51
482.67	60.85
482.85	7.02
483.03	9.36
483.21	79.58
483.39	30.43
483.57	72.56
483.74	51.49
483.92	86.60
484.10	102.98
484.28	74.90
484.46	121.71
484.64	79.58
484.82	18.72
485.00	65.54
485.18	28.09
485.35	72.56
485.53	138.09
485.71	74.90
485.89	65.54
486.07	49.15
486.25	32.77
486.43	88.94
486.61	30.43
486.78	39.79
486.96	35.11
487.14	105.32
487.32	88.94
487.50	98.30
487.68	46.81
487.85	112.35
488.03	11.70
488.21	44.47
488.39	49.15
488.57	56.17
488.75	44.47
488.92	152.13
489.10	67.88
489.28	32.77
489.46	79.58
489.64	44.47
489.81	58.51
489.99	56.17
490.17	46.81
490.35	121.71
490.53	14.04
490.70	4.68
490.88	42.13
491.06	65.54
491.24	58.51
491.41	0.00
491.59	126.39
491.77	60.85
491.95	70.22
492.13	9.36
492.30	42.13
492.48	86.60
492.66	65.54
492.84	21.06
493.01	117.03
493.19	65.54
493.37	53.83
493.54	77.24
493.72	0.00
493.90	44.47
494.08	67.88
494.25	0.00
494.43	51.49
494.61	4.68
494.79	74.90
494.96	65.54
495.14	107.66
495.32	67.88
495.49	46.81
495.67	35.11
495.85	56.17
496.02	91.28
496.20	79.58
496.38	93.62
496.55	58.51
496.73	74.90
496.91	63.19
497.09	60.85
497.26	63.19
497.44	88.94
497.62	133.41
497.79	88.94
497.97	79.58
498.14	35.11
498.32	2.34
498.50	56.17
498.67	124.05
498.85	53.83
499.03	95.96
499.20	93.62
499.38	79.58
499.56	102.98
499.73	42.13
499.91	4.68
500.08	81.92
500.26	39.79
500.44	77.24
500.61	60.85
500.79	42.13
500.97	60.85
501.14	95.96
501.32	32.77
501.49	46.81
501.67	86.60
501.84	81.92
502.02	49.15
502.20	49.15
502.37	65.54
502.55	60.85
502.72	0.00
502.90	65.54
503.07	37.45
503.25	25.75
503.43	16.38
503.60	110.01
503.78	91.28
503.95	44.47
504.13	98.30
504.30	14.04
504.48	2.34
504.65	147.45
504.83	35.11
505.01	74.90
505.18	102.98
505.36	18.72
505.53	128.73
505.71	117.03
505.88	88.94
506.06	67.88
506.23	53.83
506.41	67.88
506.58	65.54
506.76	65.54
506.93	110.01
507.11	72.56
507.28	93.62
507.46	49.15
507.63	58.51
507.81	70.22
507.98	79.58
508.16	154.48
508.33	140.43
508.50	72.56
508.68	105.32
508.85	112.35
509.03	42.13
509.20	119.37
509.38	107.66
509.55	88.94
509.73	72.56
509.90	0.00
510.08	16.38
510.25	95.96
510.42	44.47
510.60	7.02
510.77	32.77
510.95	32.77
511.12	49.15
511.30	74.90
511.47	39.79
511.64	98.30
511.82	32.77
511.99	131.07
512.17	63.19
512.34	105.32
512.51	0.00
512.69	100.64
512.86	0.00
513.04	11.70
513.21	88.94
513.38	79.58
513.56	25.75
513.73	28.09
513.90	30.43
514.08	74.90
514.25	114.69
514.43	147.45
514.60	30.43
514.77	0.00
514.95	42.13
515.12	0.00
515.29	56.17
515.47	9.36
515.64	28.09
515.81	32.77
515.99	9.36
516.16	18.72
516.33	16.38
516.51	56.17
516.68	58.51
516.85	63.19
517.03	121.71
517.20	30.43
517.37	74.90
517.54	56.17
517.72	25.75
517.89	67.88
518.06	95.96
518.24	102.98
518.41	0.00
518.58	135.75
518.75	100.64
518.93	53.83
519.10	63.19
519.27	77.24
519.45	67.88
519.62	11.70
519.79	7.02
519.96	112.35
520.14	7.02
520.31	25.75
520.48	98.30
520.65	128.73
520.83	100.64
521.00	58.51
521.17	51.49
521.34	147.45
521.52	63.19
521.69	117.03
521.86	65.54
522.03	91.28
522.20	86.60
522.38	74.90
522.55	105.32
522.72	128.73
522.89	112.35
523.07	32.77
523.24	86.60
523.41	49.15
523.58	35.11
523.75	81.92
523.92	42.13
524.10	135.75
524.27	91.28
524.44	93.62
524.61	119.37
524.78	98.30
524.96	88.94
525.13	2.34
525.30	86.60
525.47	74.90
525.64	77.24
525.81	88.94
525.98	119.37
526.16	121.71
526.33	81.92
526.50	93.62
526.67	81.92
526.84	145.11
527.01	32.77
527.18	65.54
527.36	72.56
527.53	56.17
527.70	102.98
527.87	23.41
528.04	105.32
528.21	159.16
528.38	37.45
528.55	51.49
528.72	42.13
528.89	121.71
529.07	46.81
529.24	70.22
529.41	77.24
529.58	79.58
529.75	159.16
529.92	72.56
530.09	35.11
530.26	100.64
530.43	79.58
530.60	0.00
530.77	91.28
530.94	42.13
531.11	30.43
531.28	81.92
531.46	37.45
531.63	95.96
531.80	105.32
531.97	63.19
532.14	107.66
532.31	107.66
532.48	72.56
532.65	60.85
532.82	117.03
532.99	98.30
533.16	39.79
533.33	72.56
533.50	117.03
533.67	58.51
533.84	46.81
534.01	77.24
534.18	79.58
534.35	65.54
534.52	30.43
534.69	42.13
534.86	63.19
535.03	21.06
535.20	149.79
535.37	100.64
535.54	114.69
535.71	0.00
535.88	110.01
536.05	58.51
536.22	67.88
536.38	88.94
536.55	86.60
536.72	60.85
536.89	124.05
537.06	58.51
537.23	49.15
537.40	49.15
537.57	95.96
537.74	46.81
537.91	56.17
538.08	159.16
538.25	84.26
538.42	49.15
538.59	88.94
538.75	70.22
538.92	7.02
539.09	28.09
539.26	30.43
539.43	63.19
539.60	11.70
539.77	105.32
539.94	84.26
540.11	60.85
540.28	16.38
540.44	67.88
540.61	18.72
540.78	70.22
540.95	23.41
541.12	56.17
541.29	0.00
541.46	0.00
541.62	51.49
541.79	42.13
541.96	7.02
542.13	14.04
542.30	110.01
542.47	4.68
542.63	112.35
542.80	49.15
542.97	88.94
543.14	53.83
543.31	95.96
543.48	133.41
543.64	79.58
543.81	98.30
543.98	88.94
544.15	65.54
544.32	25.75
544.48	100.64
544.65	119.37
544.82	93.62
544.99	23.41
545.16	53.83
545.32	121.71
545.49	60.85
545.66	60.85
545.83	21.06
546.00	149.79
546.16	67.88
546.33	147.45
546.50	39.79
546.67	30.43
546.83	93.62
547.00	126.39
547.17	77.24
547.34	32.77
547.50	86.60
547.67	28.09
547.84	110.01
548.00	51.49
548.17	72.56
548.34	77.24
548.51	63.19
548.67	135.75
548.84	79.58
549.01	100.64
549.18	53.83
549.34	35.11
549.51	81.92
549.68	60.85
549.84	124.05
550.01	128.73
550.18	39.79
550.34	37.45
550.51	88.94
550.68	56.17
550.84	102.98
551.01	39.79
551.18	149.79
551.34	56.17
551.51	67.88
551.68	35.11
551.84	91.28
552.01	114.69
552.18	65.54
552.34	65.54
552.51	39.79
552.68	0.00
552.84	124.05
553.01	23.41
553.18	44.47
553.34	42.13
553.51	70.22
553.67	63.19
553.84	21.06
554.01	77.24
554.17	100.64
554.34	81.92
554.51	63.19
554.67	44.47
554.84	49.15
555.00	70.22
555.17	126.39
555.33	74.90
555.50	23.41
555.67	11.70
555.83	56.17
556.00	51.49
556.16	11.70
556.33	95.96
556.50	72.56
556.66	70.22
556.83	0.00
556.99	112.35
557.16	67.88
557.32	21.06
557.49	77.24
557.65	25.75
557.82	65.54
557.98	65.54
558.15	88.94
558.32	86.60
558.48	175.54
558.65	56.17
558.81	58.51
558.98	7.02
559.14	30.43
559.31	58.51
559.47	58.51
559.64	23.41
559.80	138.09
559.97	63.19
560.13	114.69
560.30	65.54
560.46	46.81
560.63	46.81
560.79	46.81
560.96	84.26
561.12	77.24
561.29	53.83
561.45	0.00
561.61	74.90
561.78	107.66
561.94	44.47
562.11	72.56
562.27	100.64
562.44	110.01
562.60	110.01
562.77	28.09
562.93	42.13
563.10	91.28
563.26	0.00
563.42	46.81
563.59	84.26
563.75	107.66
563.92	81.92
564.08	163.84
564.24	39.79
564.41	74.90
564.57	72.56
564.74	91.28
564.90	46.81
565.07	32.77
565.23	51.49
565.39	102.98
565.56	65.54
565.72	114.69
565.88	35.11
566.05	70.22
566.21	42.13
566.38	100.64
566.54	133.41
566.70	0.00
566.87	25.75
567.03	93.62
567.19	14.04
567.36	63.19
567.52	32.77
567.68	58.51
567.85	35.11
568.01	91.28
568.17	65.54
568.34	37.45
568.50	67.88
568.66	30.43
568.83	81.92
568.99	81.92
569.15	77.24
569.32	67.88
569.48	46.81
569.64	114.69
569.81	35.11
569.97	72.56
570.13	21.06
570.30	60.85
570.46	112.35
570.62	84.26
570.78	81.92
570.95	72.56
571.11	119.37
571.27	70.22
571.43	95.96
571.60	110.01
571.76	88.94
571.92	98.30
572.09	23.41
572.25	44.47
572.41	93.62
572.57	58.51
572.74	65.54
572.90	58.51
573.06	53.83
573.22	0.00
573.38	86.60
573.55	46.81
573.71	79.58
573.87	70.22
574.03	79.58
574.20	65.54
574.36	9.36
574.52	117.03
574.68	2.34
574.84	25.75
575.01	72.56
575.17	35.11
575.33	91.28
575.49	93.62
575.65	14.04
575.82	32.77
575.98	39.79
576.14	84.26
576.30	63.19
576.46	9.36
576.62	56.17
576.79	88.94
576.95	84.26
577.11	63.19
577.27	126.39
577.43	72.56
577.59	28.09
577.75	93.62
577.92	0.00
578.08	0.00
578.24	56.17
578.40	39.79
578.56	49.15
578.72	58.51
578.88	7.02
579.04	135.75
579.21	9.36
579.37	95.96
579.53	98.30
579.69	46.81
579.85	84.26
580.01	44.47
580.17	21.06
580.33	32.77
580.49	44.47
580.65	79.58
580.82	16.38
580.98	42.13
581.14	79.58
581.30	77.24
581.46	58.51
581.62	86.60
581.78	21.06
581.94	86.60
582.10	70.22
582.26	0.00
582.42	60.85
582.58	51.49
582.74	53.83
582.90	25.75
583.06	79.58
583.22	16.38
583.38	25.75
583.54	77.24
583.70	37.45
583.86	79.58
584.02	32.77
584.18	60.85
584.34	60.85
584.50	88.94
584.66	88.94
584.82	49.15
584.98	58.51
585.14	53.83
585.30	49.15
585.46	56.17
585.62	86.60
585.78	49.15
585.94	16.38
586.10	60.85
586.26	63.19
586.42	124.05
586.58	114.69
586.74	32.77
586.90	11.70
587.06	0.00
587.22	25.75
587.38	131.07
587.54	149.79
587.70	70.22
587.86	131.07
588.02	95.96
588.18	35.11
588.34	0.00
588.49	42.13
588.65	44.47
588.81	42.13
588.97	98.30
589.13	140.43
589.29	14.04
589.45	0.00
589.61	32.77
589.77	46.81
589.93	65.54
590.08	79.58
590.24	46.81
590.40	0.00
590.56	42.13
590.72	44.47
590.88	105.32
591.04	149.79
591.20	0.00
591.35	49.15
591.51	21.06
591.67	74.90
591.83	98.30
591.99	32.77
592.15	70.22
592.31	67.88
592.46	81.92
592.62	25.75
592.78	46.81
592.94	9.36
593.10	32.77
593.26	72.56
593.41	84.26
593.57	63.19
593.73	84.26
593.89	110.01
594.05	11.70
594.20	53.83
594.36	131.07
594.52	32.77
594.68	79.58
594.84	18.72
594.99	44.47
595.15	81.92
595.31	77.24
595.47	25.75
595.62	4.68
595.78	88.94
595.94	0.00
596.10	74.90
596.25	14.04
596.41	128.73
596.57	16.38
596.73	11.70
596.88	56.17
597.04	77.24
597.20	124.05
597.36	81.92
597.51	70.22
597.67	32.77
597.83	67.88
597.99	46.81
598.14	126.39
598.30	128.73
598.46	84.26
598.61	112.35
598.77	51.49
598.93	25.75
599.09	74.90
599.24	32.77
599.40	60.85
599.56	30.43
599.71	28.09
599.87	110.01
600.03	65.54
600.18	70.22
600.34	67.88
600.50	32.77
600.65	86.60
600.81	105.32
600.97	67.88
601.12	56.17
601.28	32.77
601.44	44.47
601.59	0.00
601.75	46.81
601.91	11.70
602.06	110.01
602.22	74.90
602.37	18.72
602.53	23.41
602.69	0.00
602.84	49.15
603.00	93.62
603.16	35.11
603.31	105.32
603.47	53.83
603.62	88.94
603.78	74.90
603.94	14.04
604.09	100.64
604.25	63.19
604.40	126.39
604.56	126.39
604.71	107.66
604.87	53.83
605.03	60.85
605.18	77.24
605.34	72.56
605.49	0.00
605.65	0.00
605.80	11.70
605.96	4.68
606.12	32.77
606.27	95.96
606.43	131.07
606.58	86.60
606.74	42.13
606.89	49.15
607.05	84.26
607.20	93.62
607.36	32.77
607.51	0.00
607.67	21.06
607.82	70.22
607.98	81.92
608.13	51.49
608.29	0.00
608.44	9.36
608.60	56.17
608.75	16.38
608.91	91.28
609.06	44.47
609.22	91.28
609.37	74.90
609.53	65.54
609.68	128.73
609.84	28.09
609.99	44.47
610.15	28.09
610.30	18.72
610.46	18.72
610.61	30.43
610.76	46.81
610.92	39.79
611.07	46.81
611.23	84.26
611.38	112.35
611.54	79.58
611.69	100.64
611.84	86.60
612.00	56.17
612.15	9.36
612.31	16.38
612.46	37.45
612.62	60.85
612.77	0.00
612.92	32.77
613.08	72.56
613.23	11.70
613.39	51.49
613.54	95.96
613.69	98.30
613.85	37.45
614.00	0.00
614.15	4.68
614.31	0.00
614.46	51.49
614.62	84.26
614.77	154.48
614.92	112.35
615.08	4.68
615.23	107.66
615.38	114.69
615.54	88.94
615.69	72.56
615.84	86.60
616.00	98.30
616.15	72.56
616.30	28.09
616.46	14.04
616.61	107.66
616.76	25.75
616.92	35.11
617.07	63.19
617.22	11.70
617.37	18.72
617.53	77.24
617.68	56.17
617.83	16.38
617.99	77.24
618.14	0.00
618.29	0.00
618.45	0.00
618.60	51.49
618.75	56.17
618.90	72.56
619.06	0.00
619.21	11.70
619.36	32.77
619.51	77.24
619.67	65.54
619.82	16.38
619.97	100.64
620.12	70.22
620.28	37.45
620.43	9.36
620.58	37.45
620.73	32.77
620.89	9.36
621.04	39.79
621.19	25.75
621.34	56.17
621.49	16.38
621.65	65.54
621.80	25.75
621.95	49.15
622.10	65.54
622.25	49.15
622.41	63.19
622.56	124.05
622.71	63.19
622.86	77.24
623.01	18.72
623.16	152.13
623.32	0.00
623.47	23.41
623.62	42.13
623.77	67.88
623.92	35.11
624.07	102.98
624.23	63.19
624.38	0.00
624.53	51.49
624.68	77.24
624.83	32.77
624.98	42.13
625.13	18.72
625.29	77.24
625.44	0.00
625.59	88.94
625.74	72.56
625.89	88.94
626.04	86.60
626.19	14.04
626.34	58.51
626.49	70.22
626.65	65.54
626.80	35.11
626.95	149.79
627.10	44.47
627.25	35.11
627.40	2.34
627.55	58.51
627.70	11.70
627.85	4.68
628.00	42.13
628.15	46.81
628.30	74.90
628.45	0.00
628.60	70.22
628.76	7.02
628.91	9.36
629.06	65.54
629.21	72.56
629.36	145.11
629.51	23.41
629.66	112.35
629.81	0.00
629.96	126.39
630.11	72.56
630.26	0.00
630.41	74.90
630.56	11.70
630.71	35.11
630.86	14.04
631.01	58.51
631.16	79.58
631.31	44.47
631.46	28.09
631.61	102.98
631.76	60.85
631.91	65.54
632.06	44.47
632.21	35.11
632.36	110.01
632.51	0.00
632.66	9.36
632.81	79.58
632.96	51.49
633.10	0.00
633.25	70.22
633.40	49.15
633.55	11.70
633.70	93.62
633.85	121.71
634.00	21.06
634.15	9.36
634.30	32.77
634.45	65.54
634.60	56.17
634.75	86.60
634.90	88.94
635.05	63.19
635.19	65.54
635.34	0.00
635.49	0.00
635.64	58.51
635.79	0.00
635.94	84.26
636.09	7.02
636.24	46.81
636.39	49.15
636.53	63.19
636.68	0.00
636.83	110.01
636.98	35.11
637.13	32.77
637.28	79.58
637.43	70.22
637.57	67.88
637.72	11.70
637.87	86.60
638.02	39.79
638.17	9.36
638.32	37.45
638.46	0.00
638.61	56.17
638.76	79.58
638.91	81.92
639.06	74.90
639.20	0.00
639.35	0.00
639.50	65.54
639.65	84.26
639.80	91.28
639.94	49.15
640.09	63.19
640.24	49.15
640.39	60.85
640.54	114.69
640.68	70.22
640.83	105.32
640.98	77.24
641.13	128.73
641.27	46.81
641.42	145.11
641.57	67.88
641.72	42.13
641.86	0.00
642.01	0.00
642.16	37.45
642.31	39.79
642.45	16.38
642.60	42.13
642.75	37.45
642.90	39.79
643.04	49.15
643.19	63.19
643.34	58.51
643.48	84.26
643.63	88.94
643.78	53.83
643.93	0.00
644.07	84.26
644.22	56.17
644.37	44.47
644.51	37.45
644.66	65.54
644.81	21.06
644.95	86.60
645.10	4.68
645.25	46.81
645.39	0.00
645.54	44.47
645.69	0.00
645.83	0.00
645.98	56.17
646.13	0.00
646.27	49.15
646.42	21.06
646.57	56.17
646.71	32.77
646.86	112.35
647.00	42.13
647.15	7.02
647.30	53.83
647.44	98.30
647.59	51.49
647.74	0.00
647.88	93.62
648.03	42.13
648.17	0.00
648.32	42.13
648.47	107.66
648.61	25.75
648.76	4.68
648.90	51.49
649.05	58.51
649.20	4.68
649.34	7.02
649.49	53.83
649.63	74.90
649.78	63.19
649.92	0.00
650.07	121.71
650.21	105.32
650.36	86.60
650.51	11.70
650.65	39.79
650.80	0.00
650.94	18.72
651.09	60.85
651.23	91.28
651.38	32.77
651.52	67.88
651.67	42.13
651.81	117.03
651.96	70.22
652.10	135.75
652.25	77.24
652.39	25.75
652.54	2.34
652.68	128.73
652.83	77.24
652.97	112.35
653.12	44.47
653.26	56.17
653.41	95.96
653.55	18.72
653.70	18.72
653.84	58.51
653.99	100.64
654.13	81.92
654.27	23.41
654.42	0.00
654.56	37.45
654.71	2.34
654.85	65.54
655.00	21.06
655.14	2.34
655.29	25.75
655.43	79.58
655.57	0.00
655.72	21.06
655.86	9.36
656.01	28.09
656.15	70.22
656.30	21.06
656.44	51.49
656.58	0.00
656.73	107.66
656.87	72.56
657.01	88.94
657.16	32.77
657.30	39.79
657.45	51.49
657.59	28.09
657.73	0.00
657.88	60.85
658.02	9.36
658.16	74.90
658.31	91.28
658.45	0.00
658.60	9.36
658.74	72.56
658.88	84.26
659.03	98.30
659.17	0.00
659.31	0.00
659.46	0.00
659.60	63.19
659.74	30.43
659.89	51.49
660.03	98.30
660.17	140.43
660.32	72.56
660.46	53.83
660.60	65.54
660.74	65.54
660.89	37.45
661.03	37.45
661.17	51.49
661.32	25.75
661.46	0.00
661.60	30.43
661.74	0.00
661.89	0.00
662.03	7.02
662.17	91.28
662.31	35.11
662.46	81.92
662.60	18.72
662.74	84.26
662.88	58.51
663.03	51.49
663.17	0.00
663.31	16.38
663.45	28.09
663.60	0.00
663.74	0.00
663.88	107.66
664.02	72.56
664.17	0.00
664.31	67.88
664.45	56.17
664.59	86.60
664.73	37.45
664.88	74.90
665.02	91.28
665.16	32.77
665.30	117.03
665.44	86.60
665.59	138.09
665.73	84.26
665.87	67.88
666.01	0.00
666.15	2.34
666.29	74.90
666.44	91.28
666.58	0.00
666.72	23.41
666.86	32.77
667.00	0.00
667.14	81.92
667.28	35.11
667.43	91.28
667.57	0.00
667.71	0.00
667.85	28.09
667.99	51.49
668.13	35.11
668.27	44.47
668.41	88.94
668.56	42.13
668.70	56.17
668.84	0.00
668.98	58.51
669.12	35.11
669.26	58.51
669.40	32.77
669.54	86.60
669.68	0.00
669.82	51.49
669.96	86.60
670.10	105.32
670.25	14.04
670.39	0.00
670.53	53.83
670.67	86.60
670.81	95.96
670.95	95.96
671.09	0.00
671.23	25.75
671.37	4.68
671.51	58.51
671.65	23.41
671.79	0.00
671.93	42.13
672.07	0.00
672.21	0.00
672.35	44.47
672.49	49.15
672.63	30.43
672.77	25.75
672.91	32.77
673.05	124.05
673.19	32.77
673.33	49.15
673.47	100.64
673.61	86.60
673.75	49.15
673.89	86.60
674.03	67.88
674.17	58.51
674.31	72.56
674.45	35.11
674.59	21.06
674.73	60.85
674.87	0.00
675.01	51.49
675.15	91.28
675.29	0.00
675.43	56.17
675.56	28.09
675.70	14.04
675.84	16.38
675.98	0.00
676.12	30.43
676.26	119.37
676.40	65.54
676.54	9.36
676.68	0.00
676.82	35.11
676.96	11.70
677.10	21.06
677.23	0.00
677.37	58.51
677.51	2.34
677.65	0.00
677.79	37.45
677.93	51.49
678.07	88.94
678.21	0.00
678.34	56.17
678.48	98.30
678.62	105.32
678.76	65.54
678.90	0.00
679.04	35.11
679.18	70.22
679.31	44.47
679.45	0.00
679.59	56.17
679.73	25.75
679.87	0.00
680.00	44.47
680.14	72.56
680.28	77.24
680.42	77.24
680.56	16.38
680.70	44.47
680.83	74.90
680.97	28.09
681.11	32.77
681.25	46.81
681.39	44.47
681.52	70.22
681.66	65.54
681.80	9.36
681.94	0.00
682.07	0.00
682.21	77.24
682.35	88.94
682.49	53.83
682.62	44.47
682.76	77.24
682.90	53.83
683.04	0.00
683.17	0.00
683.31	0.00
683.45	70.22
683.59	60.85
683.72	67.88
683.86	70.22
684.00	65.54
684.13	28.09
684.27	51.49
684.41	46.81
684.55	63.19
684.68	0.00
684.82	65.54
684.96	0.00
685.09	100.64
685.23	2.34
685.37	37.45
685.50	60.85
685.64	18.72
685.78	14.04
685.91	30.43
686.05	25.75
686.19	0.00
686.32	18.72
686.46	28.09
686.60	23.41
686.73	35.11
686.87	0.00
687.01	0.00
687.14	25.75
687.28	42.13
687.42	32.77
687.55	30.43
687.69	21.06
687.82	39.79
687.96	117.03
688.10	32.77
688.23	9.36
688.37	2.34
688.50	56.17
688.64	56.17
688.78	74.90
688.91	46.81
689.05	39.79
689.18	0.00
689.32	0.00
689.46	46.81
689.59	0.00
689.73	9.36
689.86	124.05
690.00	25.75
690.13	60.85
690.27	51.49
690.41	72.56
690.54	74.90
690.68	9.36
690.81	25.75
690.95	56.17
691.08	42.13
691.22	63.19
691.35	42.13
691.49	81.92
691.62	0.00
691.76	51.49
691.89	0.00
692.03	9.36
692.16	0.00
692.30	0.00
692.43	65.54
692.57	44.47
692.70	25.75
692.84	56.17
692.97	65.54
693.11	0.00
693.24	53.83
693.38	86.60
693.51	0.00
693.65	126.39
693.78	63.19
693.92	86.60
694.05	67.88
694.19	74.90
694.32	25.75
694.45	21.06
694.59	0.00
694.72	39.79
694.86	81.92
694.99	37.45
695.13	14.04
695.26	0.00
695.39	0.00
695.53	35.11
695.66	91.28
695.80	0.00
695.93	46.81
696.07	0.00
696.20	2.34
696.33	28.09
696.47	28.09
696.60	2.34
696.73	7.02
696.87	0.00
697.00	0.00
697.14	0.00
697.27	60.85
697.40	112.35
697.54	9.36
697.67	0.00
697.80	77.24
697.94	0.00
698.07	51.49
698.21	14.04
698.34	0.00
698.47	0.00
698.61	51.49
698.74	49.15
698.87	0.00
699.01	2.34
699.14	0.00
699.27	70.22
699.40	49.15
699.54	0.00
699.67	7.02
699.80	25.75
699.94	63.19
700.07	42.13
700.20	49.15
700.34	95.96
700.47	2.34
700.60	0.00
700.73	23.41
700.87	58.51
701.00	0.00
701.13	0.00
701.26	4.68
701.40	84.26
701.53	84.26
701.66	63.19
701.79	77.24
701.93	30.43
702.06	11.70
702.19	11.70
702.32	25.75
702.46	32.77
702.59	53.83
702.72	0.00
702.85	11.70
702.99	0.00
703.12	9.36
703.25	49.15
703.38	58.51
703.51	63.19
703.65	18.72
703.78	65.54
703.91	91.28
704.04	46.81
704.17	0.00
704.31	4.68
704.44	49.15
704.57	0.00
704.70	58.51
704.83	37.45
704.96	58.51
705.10	0.00
705.23	0.00
>>>>>End Processed Spectral Data<<<<<
