SpectraSuite Data File
++++++++++++++++++++++++++++++++++++
Date: Fri Oct 04 12:13:37 GMT-05:00 2013
User: price-jones
Dark Spectrum Present: No
Reference Spectrum Present: No
Number of Sampled Component Spectra: 1
Spectrometers: USB2+H05261
Integration Time (usec): 10000 (USB2+H05261)
Spectra Averaged: 1 (USB2+H05261)
Boxcar Smoothing: 0 (USB2+H05261)
Correct for Electrical Dark: No (USB2+H05261)
Strobe/Lamp Enabled: No (USB2+H05261)
Correct for Detector Non-linearity: No (USB2+H05261)
Correct for Stray Light: No (USB2+H05261)
Number of Pixels in Processed Spectrum: 2048
>>>>>Begin Processed Spectral Data<<<<<
365.73	0.00
365.92	0.00
366.12	0.00
366.32	0.00
366.52	0.00
366.72	0.00
366.91	0.00
367.11	0.00
367.31	0.00
367.51	0.00
367.70	0.00
367.90	0.00
368.10	0.00
368.30	0.00
368.49	0.00
368.69	0.00
368.89	0.00
369.09	0.00
369.28	0.00
369.48	0.00
369.68	0.00
369.87	0.00
370.07	0.00
370.27	0.00
370.47	0.00
370.66	0.00
370.86	0.00
371.06	0.00
371.25	0.00
371.45	0.00
371.65	0.00
371.84	0.00
372.04	0.00
372.24	79.58
372.44	0.00
372.63	72.56
372.83	16.38
373.03	58.51
373.22	67.88
373.42	60.85
373.62	0.00
373.81	53.83
374.01	35.11
374.21	74.90
374.40	0.00
374.60	11.70
374.79	72.56
374.99	53.83
375.19	53.83
375.38	35.11
375.58	74.90
375.78	77.24
375.97	44.47
376.17	4.68
376.37	28.09
376.56	42.13
376.76	4.68
376.95	79.58
377.15	0.00
377.35	0.00
377.54	14.04
377.74	0.00
377.93	32.77
378.13	53.83
378.33	0.00
378.52	32.77
378.72	124.05
378.91	0.00
379.11	28.09
379.31	0.00
379.50	32.77
379.70	35.11
379.89	84.26
380.09	63.19
380.28	0.00
380.48	32.77
380.68	63.19
380.87	0.00
381.07	117.03
381.26	35.11
381.46	30.43
381.65	9.36
381.85	4.68
382.04	44.47
382.24	25.75
382.43	67.88
382.63	0.00
382.83	0.00
383.02	0.00
383.22	60.85
383.41	0.00
383.61	25.75
383.80	67.88
384.00	4.68
384.19	51.49
384.39	56.17
384.58	4.68
384.78	0.00
384.97	0.00
385.17	44.47
385.36	0.00
385.56	0.00
385.75	77.24
385.95	102.98
386.14	51.49
386.34	0.00
386.53	4.68
386.72	23.41
386.92	16.38
387.11	0.00
387.31	9.36
387.50	2.34
387.70	18.72
387.89	107.66
388.09	0.00
388.28	49.15
388.48	11.70
388.67	0.00
388.86	77.24
389.06	51.49
389.25	4.68
389.45	0.00
389.64	0.00
389.84	2.34
390.03	0.00
390.22	0.00
390.42	46.81
390.61	88.94
390.81	23.41
391.00	9.36
391.19	0.00
391.39	42.13
391.58	7.02
391.78	14.04
391.97	63.19
392.16	23.41
392.36	65.54
392.55	9.36
392.75	0.00
392.94	0.00
393.13	7.02
393.33	37.45
393.52	35.11
393.71	30.43
393.91	11.70
394.10	56.17
394.29	39.79
394.49	42.13
394.68	0.00
394.88	14.04
395.07	0.00
395.26	7.02
395.46	42.13
395.65	39.79
395.84	0.00
396.04	28.09
396.23	44.47
396.42	0.00
396.62	0.00
396.81	0.00
397.00	28.09
397.19	9.36
397.39	72.56
397.58	0.00
397.77	21.06
397.97	18.72
398.16	9.36
398.35	35.11
398.55	93.62
398.74	84.26
398.93	28.09
399.12	46.81
399.32	0.00
399.51	0.00
399.70	39.79
399.90	81.92
400.09	67.88
400.28	0.00
400.47	114.69
400.67	28.09
400.86	35.11
401.05	53.83
401.24	37.45
401.44	53.83
401.63	79.58
401.82	67.88
402.01	0.00
402.21	11.70
402.40	18.72
402.59	70.22
402.78	79.58
402.97	44.47
403.17	42.13
403.36	32.77
403.55	114.69
403.74	63.19
403.93	21.06
404.13	84.26
404.32	79.58
404.51	37.45
404.70	7.02
404.89	32.77
405.09	37.45
405.28	0.00
405.47	63.19
405.66	81.92
405.85	58.51
406.05	42.13
406.24	67.88
406.43	58.51
406.62	79.58
406.81	72.56
407.00	37.45
407.20	135.75
407.39	16.38
407.58	4.68
407.77	14.04
407.96	25.75
408.15	7.02
408.34	58.51
408.54	28.09
408.73	53.83
408.92	9.36
409.11	53.83
409.30	70.22
409.49	53.83
409.68	117.03
409.87	21.06
410.07	18.72
410.26	0.00
410.45	32.77
410.64	88.94
410.83	32.77
411.02	0.00
411.21	25.75
411.40	58.51
411.59	60.85
411.78	35.11
411.98	21.06
412.17	7.02
412.36	67.88
412.55	58.51
412.74	95.96
412.93	56.17
413.12	0.00
413.31	35.11
413.50	86.60
413.69	16.38
413.88	35.11
414.07	35.11
414.26	72.56
414.45	0.00
414.64	0.00
414.83	44.47
415.02	0.00
415.22	67.88
415.41	11.70
415.60	51.49
415.79	18.72
415.98	0.00
416.17	37.45
416.36	72.56
416.55	91.28
416.74	51.49
416.93	39.79
417.12	56.17
417.31	110.01
417.50	72.56
417.69	53.83
417.88	79.58
418.07	74.90
418.26	7.02
418.45	86.60
418.64	70.22
418.83	0.00
419.02	18.72
419.21	37.45
419.39	72.56
419.58	0.00
419.77	49.15
419.96	30.43
420.15	0.00
420.34	32.77
420.53	100.64
420.72	88.94
420.91	107.66
421.10	105.32
421.29	51.49
421.48	65.54
421.67	74.90
421.86	95.96
422.05	60.85
422.24	49.15
422.43	16.38
422.61	7.02
422.80	32.77
422.99	49.15
423.18	32.77
423.37	32.77
423.56	67.88
423.75	0.00
423.94	72.56
424.13	84.26
424.32	58.51
424.50	53.83
424.69	32.77
424.88	112.35
425.07	23.41
425.26	117.03
425.45	56.17
425.64	56.17
425.83	56.17
426.01	93.62
426.20	81.92
426.39	128.73
426.58	32.77
426.77	39.79
426.96	81.92
427.15	39.79
427.33	93.62
427.52	56.17
427.71	53.83
427.90	37.45
428.09	25.75
428.28	21.06
428.46	77.24
428.65	58.51
428.84	135.75
429.03	79.58
429.22	95.96
429.40	46.81
429.59	60.85
429.78	28.09
429.97	102.98
430.16	32.77
430.34	14.04
430.53	51.49
430.72	0.00
430.91	23.41
431.10	28.09
431.28	39.79
431.47	37.45
431.66	91.28
431.85	9.36
432.03	67.88
432.22	86.60
432.41	72.56
432.60	60.85
432.79	4.68
432.97	58.51
433.16	63.19
433.35	28.09
433.54	138.09
433.72	44.47
433.91	63.19
434.10	9.36
434.28	88.94
434.47	63.19
434.66	39.79
434.85	37.45
435.03	16.38
435.22	67.88
435.41	72.56
435.59	56.17
435.78	11.70
435.97	32.77
436.16	44.47
436.34	18.72
436.53	110.01
436.72	81.92
436.90	32.77
437.09	42.13
437.28	39.79
437.46	42.13
437.65	21.06
437.84	173.20
438.02	79.58
438.21	81.92
438.40	0.00
438.58	21.06
438.77	4.68
438.96	30.43
439.14	37.45
439.33	74.90
439.52	79.58
439.70	60.85
439.89	93.62
440.08	46.81
440.26	56.17
440.45	81.92
440.63	102.98
440.82	93.62
441.01	107.66
441.19	39.79
441.38	77.24
441.57	46.81
441.75	0.00
441.94	60.85
442.12	0.00
442.31	0.00
442.50	63.19
442.68	110.01
442.87	0.00
443.05	72.56
443.24	39.79
443.43	28.09
443.61	100.64
443.80	58.51
443.98	35.11
444.17	49.15
444.35	107.66
444.54	18.72
444.73	11.70
444.91	9.36
445.10	91.28
445.28	98.30
445.47	72.56
445.65	28.09
445.84	114.69
446.02	46.81
446.21	93.62
446.39	11.70
446.58	46.81
446.77	51.49
446.95	117.03
447.14	77.24
447.32	60.85
447.51	51.49
447.69	16.38
447.88	74.90
448.06	79.58
448.25	81.92
448.43	16.38
448.62	63.19
448.80	79.58
448.99	63.19
449.17	16.38
449.36	60.85
449.54	98.30
449.73	105.32
449.91	63.19
450.10	42.13
450.28	28.09
450.46	91.28
450.65	67.88
450.83	67.88
451.02	39.79
451.20	131.07
451.39	56.17
451.57	53.83
451.76	72.56
451.94	37.45
452.13	0.00
452.31	25.75
452.49	110.01
452.68	28.09
452.86	84.26
453.05	53.83
453.23	56.17
453.42	79.58
453.60	58.51
453.78	2.34
453.97	81.92
454.15	30.43
454.34	30.43
454.52	28.09
454.70	84.26
454.89	65.54
455.07	18.72
455.26	49.15
455.44	86.60
455.62	84.26
455.81	37.45
455.99	39.79
456.17	18.72
456.36	72.56
456.54	77.24
456.73	0.00
456.91	25.75
457.09	16.38
457.28	70.22
457.46	98.30
457.64	117.03
457.83	0.00
458.01	100.64
458.19	42.13
458.38	100.64
458.56	51.49
458.74	88.94
458.93	51.49
459.11	84.26
459.29	42.13
459.48	119.37
459.66	67.88
459.84	49.15
460.03	102.98
460.21	56.17
460.39	81.92
460.57	107.66
460.76	53.83
460.94	77.24
461.12	100.64
461.31	65.54
461.49	44.47
461.67	93.62
461.85	35.11
462.04	46.81
462.22	98.30
462.40	74.90
462.59	37.45
462.77	0.00
462.95	105.32
463.13	42.13
463.32	42.13
463.50	32.77
463.68	77.24
463.86	0.00
464.05	42.13
464.23	114.69
464.41	14.04
464.59	58.51
464.78	16.38
464.96	18.72
465.14	86.60
465.32	28.09
465.50	42.13
465.69	37.45
465.87	42.13
466.05	53.83
466.23	81.92
466.41	28.09
466.60	28.09
466.78	51.49
466.96	14.04
467.14	128.73
467.32	81.92
467.51	23.41
467.69	98.30
467.87	0.00
468.05	86.60
468.23	77.24
468.41	32.77
468.60	93.62
468.78	11.70
468.96	107.66
469.14	77.24
469.32	88.94
469.50	49.15
469.69	53.83
469.87	105.32
470.05	42.13
470.23	7.02
470.41	30.43
470.59	63.19
470.77	39.79
470.95	42.13
471.14	9.36
471.32	32.77
471.50	56.17
471.68	86.60
471.86	79.58
472.04	16.38
472.22	88.94
472.40	100.64
472.58	53.83
472.77	58.51
472.95	39.79
473.13	4.68
473.31	74.90
473.49	23.41
473.67	39.79
473.85	107.66
474.03	79.58
474.21	23.41
474.39	72.56
474.57	114.69
474.75	14.04
474.93	81.92
475.12	58.51
475.30	56.17
475.48	91.28
475.66	25.75
475.84	86.60
476.02	18.72
476.20	65.54
476.38	51.49
476.56	9.36
476.74	84.26
476.92	53.83
477.10	39.79
477.28	60.85
477.46	91.28
477.64	51.49
477.82	4.68
478.00	25.75
478.18	135.75
478.36	30.43
478.54	84.26
478.72	2.34
478.90	49.15
479.08	32.77
479.26	51.49
479.44	32.77
479.62	32.77
479.80	72.56
479.98	0.00
480.16	46.81
480.34	119.37
480.52	28.09
480.70	100.64
480.88	110.01
481.06	39.79
481.24	53.83
481.41	88.94
481.59	142.77
481.77	35.11
481.95	102.98
482.13	25.75
482.31	56.17
482.49	53.83
482.67	77.24
482.85	0.00
483.03	0.00
483.21	91.28
483.39	51.49
483.57	35.11
483.74	60.85
483.92	88.94
484.10	21.06
484.28	65.54
484.46	112.35
484.64	49.15
484.82	110.01
485.00	39.79
485.18	37.45
485.35	63.19
485.53	60.85
485.71	135.75
485.89	84.26
486.07	107.66
486.25	112.35
486.43	138.09
486.61	65.54
486.78	53.83
486.96	98.30
487.14	67.88
487.32	53.83
487.50	0.00
487.68	91.28
487.85	16.38
488.03	93.62
488.21	56.17
488.39	11.70
488.57	39.79
488.75	93.62
488.92	112.35
489.10	67.88
489.28	51.49
489.46	0.00
489.64	35.11
489.81	25.75
489.99	91.28
490.17	156.82
490.35	25.75
490.53	63.19
490.70	35.11
490.88	91.28
491.06	107.66
491.24	42.13
491.41	39.79
491.59	56.17
491.77	117.03
491.95	124.05
492.13	67.88
492.30	0.00
492.48	30.43
492.66	58.51
492.84	110.01
493.01	9.36
493.19	53.83
493.37	110.01
493.54	56.17
493.72	44.47
493.90	70.22
494.08	84.26
494.25	77.24
494.43	79.58
494.61	58.51
494.79	16.38
494.96	42.13
495.14	100.64
495.32	121.71
495.49	67.88
495.67	72.56
495.85	67.88
496.02	112.35
496.20	105.32
496.38	159.16
496.55	44.47
496.73	72.56
496.91	25.75
497.09	149.79
497.26	56.17
497.44	95.96
497.62	58.51
497.79	23.41
497.97	65.54
498.14	84.26
498.32	46.81
498.50	102.98
498.67	25.75
498.85	145.11
499.03	0.00
499.20	49.15
499.38	79.58
499.56	124.05
499.73	21.06
499.91	28.09
500.08	145.11
500.26	93.62
500.44	42.13
500.61	65.54
500.79	121.71
500.97	7.02
501.14	9.36
501.32	46.81
501.49	117.03
501.67	65.54
501.84	46.81
502.02	65.54
502.20	7.02
502.37	60.85
502.55	30.43
502.72	56.17
502.90	110.01
503.07	102.98
503.25	37.45
503.43	86.60
503.60	110.01
503.78	60.85
503.95	131.07
504.13	110.01
504.30	79.58
504.48	126.39
504.65	58.51
504.83	42.13
505.01	93.62
505.18	53.83
505.36	173.20
505.53	91.28
505.71	9.36
505.88	119.37
506.06	42.13
506.23	49.15
506.41	93.62
506.58	60.85
506.76	98.30
506.93	88.94
507.11	93.62
507.28	72.56
507.46	114.69
507.63	86.60
507.81	42.13
507.98	63.19
508.16	98.30
508.33	79.58
508.50	84.26
508.68	93.62
508.85	86.60
509.03	79.58
509.20	135.75
509.38	65.54
509.55	135.75
509.73	138.09
509.90	93.62
510.08	112.35
510.25	126.39
510.42	79.58
510.60	152.13
510.77	63.19
510.95	77.24
511.12	133.41
511.30	65.54
511.47	93.62
511.64	28.09
511.82	14.04
511.99	107.66
512.17	21.06
512.34	51.49
512.51	88.94
512.69	56.17
512.86	135.75
513.04	70.22
513.21	44.47
513.38	51.49
513.56	126.39
513.73	86.60
513.90	114.69
514.08	121.71
514.25	51.49
514.43	126.39
514.60	79.58
514.77	105.32
514.95	39.79
515.12	65.54
515.29	107.66
515.47	124.05
515.64	159.16
515.81	149.79
515.99	86.60
516.16	112.35
516.33	67.88
516.51	60.85
516.68	124.05
516.85	23.41
517.03	84.26
517.20	77.24
517.37	121.71
517.54	112.35
517.72	128.73
517.89	100.64
518.06	37.45
518.24	53.83
518.41	149.79
518.58	74.90
518.75	117.03
518.93	112.35
519.10	93.62
519.27	88.94
519.45	95.96
519.62	163.84
519.79	98.30
519.96	95.96
520.14	35.11
520.31	88.94
520.48	88.94
520.65	126.39
520.83	110.01
521.00	58.51
521.17	65.54
521.34	112.35
521.52	39.79
521.69	126.39
521.86	56.17
522.03	16.38
522.20	107.66
522.38	39.79
522.55	56.17
522.72	74.90
522.89	32.77
523.07	124.05
523.24	51.49
523.41	84.26
523.58	84.26
523.75	88.94
523.92	84.26
524.10	102.98
524.27	0.00
524.44	100.64
524.61	30.43
524.78	105.32
524.96	81.92
525.13	2.34
525.30	84.26
525.47	98.30
525.64	39.79
525.81	112.35
525.98	63.19
526.16	121.71
526.33	46.81
526.50	126.39
526.67	14.04
526.84	81.92
527.01	4.68
527.18	42.13
527.36	77.24
527.53	0.00
527.70	107.66
527.87	0.00
528.04	95.96
528.21	60.85
528.38	107.66
528.55	79.58
528.72	159.16
528.89	126.39
529.07	100.64
529.24	49.15
529.41	95.96
529.58	138.09
529.75	112.35
529.92	70.22
530.09	98.30
530.26	39.79
530.43	112.35
530.60	138.09
530.77	142.77
530.94	74.90
531.11	98.30
531.28	70.22
531.46	35.11
531.63	58.51
531.80	74.90
531.97	86.60
532.14	58.51
532.31	21.06
532.48	156.82
532.65	140.43
532.82	77.24
532.99	138.09
533.16	159.16
533.33	25.75
533.50	81.92
533.67	84.26
533.84	117.03
534.01	88.94
534.18	93.62
534.35	102.98
534.52	140.43
534.69	105.32
534.86	60.85
535.03	67.88
535.20	37.45
535.37	81.92
535.54	93.62
535.71	135.75
535.88	142.77
536.05	117.03
536.22	138.09
536.38	70.22
536.55	60.85
536.72	149.79
536.89	121.71
537.06	77.24
537.23	58.51
537.40	121.71
537.57	102.98
537.74	46.81
537.91	79.58
538.08	37.45
538.25	46.81
538.42	44.47
538.59	58.51
538.75	84.26
538.92	70.22
539.09	81.92
539.26	175.54
539.43	140.43
539.60	46.81
539.77	107.66
539.94	117.03
540.11	58.51
540.28	77.24
540.44	121.71
540.61	84.26
540.78	110.01
540.95	77.24
541.12	49.15
541.29	100.64
541.46	7.02
541.62	166.18
541.79	70.22
541.96	60.85
542.13	14.04
542.30	163.84
542.47	74.90
542.63	147.45
542.80	145.11
542.97	95.96
543.14	11.70
543.31	107.66
543.48	121.71
543.64	0.00
543.81	39.79
543.98	49.15
544.15	58.51
544.32	67.88
544.48	100.64
544.65	121.71
544.82	131.07
544.99	81.92
545.16	131.07
545.32	161.50
545.49	114.69
545.66	91.28
545.83	58.51
546.00	0.00
546.16	4.68
546.33	124.05
546.50	51.49
546.67	91.28
546.83	86.60
547.00	4.68
547.17	58.51
547.34	84.26
547.50	159.16
547.67	49.15
547.84	184.90
548.00	65.54
548.17	142.77
548.34	201.29
548.51	126.39
548.67	138.09
548.84	135.75
549.01	65.54
549.18	77.24
549.34	91.28
549.51	60.85
549.68	32.77
549.84	124.05
550.01	56.17
550.18	91.28
550.34	72.56
550.51	65.54
550.68	100.64
550.84	74.90
551.01	126.39
551.18	79.58
551.34	149.79
551.51	18.72
551.68	95.96
551.84	72.56
552.01	46.81
552.18	65.54
552.34	142.77
552.51	42.13
552.68	105.32
552.84	28.09
553.01	65.54
553.18	149.79
553.34	84.26
553.51	142.77
553.67	91.28
553.84	121.71
554.01	128.73
554.17	86.60
554.34	63.19
554.51	60.85
554.67	67.88
554.84	56.17
555.00	49.15
555.17	112.35
555.33	81.92
555.50	30.43
555.67	77.24
555.83	72.56
556.00	70.22
556.16	117.03
556.33	145.11
556.50	32.77
556.66	98.30
556.83	7.02
556.99	67.88
557.16	93.62
557.32	72.56
557.49	121.71
557.65	114.69
557.82	124.05
557.98	44.47
558.15	112.35
558.32	95.96
558.48	100.64
558.65	156.82
558.81	74.90
558.98	149.79
559.14	44.47
559.31	56.17
559.47	39.79
559.64	149.79
559.80	95.96
559.97	102.98
560.13	88.94
560.30	70.22
560.46	67.88
560.63	70.22
560.79	95.96
560.96	53.83
561.12	98.30
561.29	105.32
561.45	81.92
561.61	32.77
561.78	72.56
561.94	154.48
562.11	91.28
562.27	16.38
562.44	53.83
562.60	133.41
562.77	95.96
562.93	142.77
563.10	133.41
563.26	114.69
563.42	119.37
563.59	72.56
563.75	35.11
563.92	42.13
564.08	110.01
564.24	93.62
564.41	81.92
564.57	60.85
564.74	128.73
564.90	58.51
565.07	39.79
565.23	98.30
565.39	131.07
565.56	58.51
565.72	32.77
565.88	32.77
566.05	51.49
566.21	98.30
566.38	86.60
566.54	88.94
566.70	46.81
566.87	79.58
567.03	102.98
567.19	72.56
567.36	138.09
567.52	42.13
567.68	51.49
567.85	46.81
568.01	58.51
568.17	114.69
568.34	105.32
568.50	102.98
568.66	60.85
568.83	93.62
568.99	65.54
569.15	117.03
569.32	131.07
569.48	81.92
569.64	4.68
569.81	58.51
569.97	32.77
570.13	58.51
570.30	124.05
570.46	100.64
570.62	88.94
570.78	133.41
570.95	70.22
571.11	60.85
571.27	140.43
571.43	72.56
571.60	7.02
571.76	72.56
571.92	65.54
572.09	72.56
572.25	95.96
572.41	88.94
572.57	16.38
572.74	16.38
572.90	30.43
573.06	28.09
573.22	81.92
573.38	135.75
573.55	42.13
573.71	30.43
573.87	74.90
574.03	65.54
574.20	72.56
574.36	91.28
574.52	51.49
574.68	58.51
574.84	112.35
575.01	88.94
575.17	110.01
575.33	93.62
575.49	119.37
575.65	81.92
575.82	53.83
575.98	93.62
576.14	102.98
576.30	88.94
576.46	58.51
576.62	63.19
576.79	91.28
576.95	65.54
577.11	42.13
577.27	42.13
577.43	49.15
577.59	159.16
577.75	124.05
577.92	110.01
578.08	86.60
578.24	67.88
578.40	56.17
578.56	0.00
578.72	65.54
578.88	100.64
579.04	79.58
579.21	110.01
579.37	107.66
579.53	0.00
579.69	63.19
579.85	9.36
580.01	133.41
580.17	32.77
580.33	102.98
580.49	65.54
580.65	46.81
580.82	65.54
580.98	121.71
581.14	102.98
581.30	74.90
581.46	35.11
581.62	79.58
581.78	53.83
581.94	88.94
582.10	49.15
582.26	60.85
582.42	121.71
582.58	74.90
582.74	63.19
582.90	145.11
583.06	0.00
583.22	56.17
583.38	30.43
583.54	81.92
583.70	93.62
583.86	60.85
584.02	98.30
584.18	100.64
584.34	37.45
584.50	102.98
584.66	114.69
584.82	58.51
584.98	72.56
585.14	126.39
585.30	65.54
585.46	110.01
585.62	77.24
585.78	77.24
585.94	91.28
586.10	147.45
586.26	11.70
586.42	0.00
586.58	9.36
586.74	4.68
586.90	98.30
587.06	63.19
587.22	53.83
587.38	53.83
587.54	91.28
587.70	88.94
587.86	88.94
588.02	138.09
588.18	72.56
588.34	63.19
588.49	42.13
588.65	95.96
588.81	84.26
588.97	72.56
589.13	67.88
589.29	37.45
589.45	79.58
589.61	42.13
589.77	0.00
589.93	72.56
590.08	72.56
590.24	77.24
590.40	32.77
590.56	114.69
590.72	51.49
590.88	86.60
591.04	112.35
591.20	72.56
591.35	23.41
591.51	28.09
591.67	58.51
591.83	102.98
591.99	28.09
592.15	0.00
592.31	46.81
592.46	39.79
592.62	77.24
592.78	51.49
592.94	32.77
593.10	126.39
593.26	56.17
593.41	152.13
593.57	58.51
593.73	98.30
593.89	30.43
594.05	42.13
594.20	67.88
594.36	102.98
594.52	0.00
594.68	9.36
594.84	124.05
594.99	98.30
595.15	16.38
595.31	88.94
595.47	67.88
595.62	102.98
595.78	49.15
595.94	0.00
596.10	81.92
596.25	53.83
596.41	77.24
596.57	23.41
596.73	93.62
596.88	51.49
597.04	79.58
597.20	7.02
597.36	37.45
597.51	39.79
597.67	126.39
597.83	9.36
597.99	88.94
598.14	25.75
598.30	44.47
598.46	16.38
598.61	60.85
598.77	28.09
598.93	114.69
599.09	84.26
599.24	105.32
599.40	60.85
599.56	133.41
599.71	79.58
599.87	49.15
600.03	32.77
600.18	93.62
600.34	65.54
600.50	53.83
600.65	95.96
600.81	105.32
600.97	44.47
601.12	72.56
601.28	107.66
601.44	128.73
601.59	49.15
601.75	51.49
601.91	23.41
602.06	93.62
602.22	37.45
602.37	145.11
602.53	28.09
602.69	25.75
602.84	56.17
603.00	65.54
603.16	0.00
603.31	72.56
603.47	11.70
603.62	42.13
603.78	35.11
603.94	9.36
604.09	98.30
604.25	128.73
604.40	91.28
604.56	86.60
604.71	93.62
604.87	65.54
605.03	51.49
605.18	131.07
605.34	124.05
605.49	23.41
605.65	49.15
605.80	65.54
605.96	53.83
606.12	23.41
606.27	70.22
606.43	65.54
606.58	65.54
606.74	70.22
606.89	16.38
607.05	79.58
607.20	79.58
607.36	60.85
607.51	79.58
607.67	102.98
607.82	63.19
607.98	51.49
608.13	58.51
608.29	77.24
608.44	53.83
608.60	49.15
608.75	84.26
608.91	30.43
609.06	88.94
609.22	58.51
609.37	77.24
609.53	91.28
609.68	81.92
609.84	93.62
609.99	32.77
610.15	44.47
610.30	79.58
610.46	65.54
610.61	42.13
610.76	65.54
610.92	37.45
611.07	37.45
611.23	88.94
611.38	58.51
611.54	60.85
611.69	51.49
611.84	135.75
612.00	81.92
612.15	86.60
612.31	28.09
612.46	37.45
612.62	70.22
612.77	0.00
612.92	72.56
613.08	35.11
613.23	32.77
613.39	147.45
613.54	65.54
613.69	56.17
613.85	30.43
614.00	35.11
614.15	63.19
614.31	60.85
614.46	131.07
614.62	53.83
614.77	46.81
614.92	53.83
615.08	46.81
615.23	42.13
615.38	28.09
615.54	79.58
615.69	63.19
615.84	56.17
616.00	131.07
616.15	46.81
616.30	58.51
616.46	58.51
616.61	79.58
616.76	81.92
616.92	60.85
617.07	65.54
617.22	70.22
617.37	60.85
617.53	91.28
617.68	93.62
617.83	32.77
617.99	88.94
618.14	30.43
618.29	119.37
618.45	28.09
618.60	0.00
618.75	18.72
618.90	35.11
619.06	100.64
619.21	121.71
619.36	93.62
619.51	88.94
619.67	77.24
619.82	56.17
619.97	93.62
620.12	44.47
620.28	63.19
620.43	28.09
620.58	25.75
620.73	32.77
620.89	95.96
621.04	112.35
621.19	30.43
621.34	91.28
621.49	88.94
621.65	102.98
621.80	53.83
621.95	65.54
622.10	58.51
622.25	0.00
622.41	49.15
622.56	79.58
622.71	37.45
622.86	138.09
623.01	63.19
623.16	72.56
623.32	91.28
623.47	32.77
623.62	28.09
623.77	21.06
623.92	77.24
624.07	25.75
624.23	74.90
624.38	112.35
624.53	70.22
624.68	65.54
624.83	37.45
624.98	77.24
625.13	51.49
625.29	86.60
625.44	110.01
625.59	16.38
625.74	32.77
625.89	30.43
626.04	93.62
626.19	51.49
626.34	56.17
626.49	133.41
626.65	79.58
626.80	56.17
626.95	84.26
627.10	60.85
627.25	60.85
627.40	86.60
627.55	4.68
627.70	46.81
627.85	51.49
628.00	49.15
628.15	0.00
628.30	60.85
628.45	58.51
628.60	51.49
628.76	86.60
628.91	49.15
629.06	107.66
629.21	65.54
629.36	21.06
629.51	110.01
629.66	51.49
629.81	56.17
629.96	84.26
630.11	77.24
630.26	16.38
630.41	49.15
630.56	110.01
630.71	25.75
630.86	30.43
631.01	44.47
631.16	7.02
631.31	98.30
631.46	117.03
631.61	32.77
631.76	16.38
631.91	65.54
632.06	74.90
632.21	35.11
632.36	14.04
632.51	18.72
632.66	35.11
632.81	102.98
632.96	67.88
633.10	60.85
633.25	65.54
633.40	121.71
633.55	84.26
633.70	51.49
633.85	74.90
634.00	105.32
634.15	0.00
634.30	110.01
634.45	95.96
634.60	133.41
634.75	25.75
634.90	72.56
635.05	93.62
635.19	100.64
635.34	11.70
635.49	72.56
635.64	37.45
635.79	72.56
635.94	4.68
636.09	46.81
636.24	84.26
636.39	18.72
636.53	63.19
636.68	70.22
636.83	35.11
636.98	74.90
637.13	0.00
637.28	70.22
637.43	107.66
637.57	138.09
637.72	32.77
637.87	65.54
638.02	0.00
638.17	18.72
638.32	63.19
638.46	0.00
638.61	51.49
638.76	37.45
638.91	77.24
639.06	46.81
639.20	72.56
639.35	119.37
639.50	98.30
639.65	100.64
639.80	58.51
639.94	65.54
640.09	67.88
640.24	53.83
640.39	0.00
640.54	70.22
640.68	21.06
640.83	77.24
640.98	35.11
641.13	51.49
641.27	39.79
641.42	65.54
641.57	35.11
641.72	79.58
641.86	16.38
642.01	35.11
642.16	105.32
642.31	42.13
642.45	56.17
642.60	46.81
642.75	119.37
642.90	74.90
643.04	79.58
643.19	102.98
643.34	81.92
643.48	119.37
643.63	84.26
643.78	81.92
643.93	79.58
644.07	98.30
644.22	102.98
644.37	117.03
644.51	42.13
644.66	0.00
644.81	98.30
644.95	91.28
645.10	49.15
645.25	100.64
645.39	65.54
645.54	79.58
645.69	63.19
645.83	23.41
645.98	84.26
646.13	86.60
646.27	49.15
646.42	63.19
646.57	16.38
646.71	58.51
646.86	16.38
647.00	0.00
647.15	9.36
647.30	2.34
647.44	37.45
647.59	65.54
647.74	70.22
647.88	46.81
648.03	79.58
648.17	44.47
648.32	107.66
648.47	21.06
648.61	79.58
648.76	72.56
648.90	72.56
649.05	51.49
649.20	117.03
649.34	30.43
649.49	65.54
649.63	32.77
649.78	28.09
649.92	44.47
650.07	65.54
650.21	2.34
650.36	70.22
650.51	77.24
650.65	95.96
650.80	70.22
650.94	35.11
651.09	0.00
651.23	77.24
651.38	11.70
651.52	98.30
651.67	39.79
651.81	44.47
651.96	46.81
652.10	105.32
652.25	117.03
652.39	32.77
652.54	58.51
652.68	39.79
652.83	63.19
652.97	32.77
653.12	2.34
653.26	114.69
653.41	11.70
653.55	84.26
653.70	79.58
653.84	74.90
653.99	93.62
654.13	42.13
654.27	56.17
654.42	11.70
654.56	93.62
654.71	0.00
654.85	121.71
655.00	0.00
655.14	60.85
655.29	44.47
655.43	65.54
655.57	70.22
655.72	25.75
655.86	0.00
656.01	0.00
656.15	35.11
656.30	110.01
656.44	56.17
656.58	9.36
656.73	60.85
656.87	102.98
657.01	65.54
657.16	84.26
657.30	70.22
657.45	135.75
657.59	86.60
657.73	42.13
657.88	126.39
658.02	46.81
658.16	21.06
658.31	0.00
658.45	0.00
658.60	39.79
658.74	37.45
658.88	51.49
659.03	39.79
659.17	56.17
659.31	77.24
659.46	63.19
659.60	0.00
659.74	42.13
659.89	105.32
660.03	49.15
660.17	114.69
660.32	67.88
660.46	44.47
660.60	0.00
660.74	77.24
660.89	35.11
661.03	88.94
661.17	0.00
661.32	25.75
661.46	142.77
661.60	58.51
661.74	53.83
661.89	100.64
662.03	74.90
662.17	49.15
662.31	44.47
662.46	81.92
662.60	107.66
662.74	39.79
662.88	124.05
663.03	79.58
663.17	44.47
663.31	67.88
663.45	2.34
663.60	4.68
663.74	93.62
663.88	58.51
664.02	105.32
664.17	32.77
664.31	107.66
664.45	74.90
664.59	147.45
664.73	100.64
664.88	86.60
665.02	100.64
665.16	60.85
665.30	77.24
665.44	23.41
665.59	32.77
665.73	0.00
665.87	49.15
666.01	0.00
666.15	74.90
666.29	28.09
666.44	91.28
666.58	16.38
666.72	37.45
666.86	93.62
667.00	102.98
667.14	0.00
667.28	9.36
667.43	0.00
667.57	107.66
667.71	79.58
667.85	46.81
667.99	145.11
668.13	72.56
668.27	30.43
668.41	91.28
668.56	86.60
668.70	70.22
668.84	25.75
668.98	81.92
669.12	98.30
669.26	30.43
669.40	30.43
669.54	60.85
669.68	42.13
669.82	119.37
669.96	88.94
670.10	72.56
670.25	65.54
670.39	63.19
670.53	28.09
670.67	14.04
670.81	49.15
670.95	81.92
671.09	70.22
671.23	46.81
671.37	53.83
671.51	84.26
671.65	133.41
671.79	23.41
671.93	53.83
672.07	21.06
672.21	107.66
672.35	70.22
672.49	46.81
672.63	0.00
672.77	81.92
672.91	100.64
673.05	0.00
673.19	0.00
673.33	0.00
673.47	37.45
673.61	91.28
673.75	4.68
673.89	42.13
674.03	95.96
674.17	60.85
674.31	56.17
674.45	86.60
674.59	23.41
674.73	53.83
674.87	7.02
675.01	110.01
675.15	30.43
675.29	79.58
675.43	107.66
675.56	56.17
675.70	110.01
675.84	46.81
675.98	14.04
676.12	37.45
676.26	2.34
676.40	67.88
676.54	28.09
676.68	25.75
676.82	105.32
676.96	110.01
677.10	14.04
677.23	58.51
677.37	49.15
677.51	65.54
677.65	35.11
677.79	42.13
677.93	65.54
678.07	77.24
678.21	63.19
678.34	0.00
678.48	81.92
678.62	23.41
678.76	107.66
678.90	100.64
679.04	84.26
679.18	60.85
679.31	25.75
679.45	0.00
679.59	7.02
679.73	60.85
679.87	44.47
680.00	30.43
680.14	9.36
680.28	124.05
680.42	67.88
680.56	131.07
680.70	86.60
680.83	58.51
680.97	79.58
681.11	51.49
681.25	77.24
681.39	67.88
681.52	79.58
681.66	147.45
681.80	14.04
681.94	58.51
682.07	0.00
682.21	21.06
682.35	49.15
682.49	42.13
682.62	88.94
682.76	60.85
682.90	23.41
683.04	49.15
683.17	4.68
683.31	74.90
683.45	16.38
683.59	0.00
683.72	58.51
683.86	25.75
684.00	2.34
684.13	0.00
684.27	28.09
684.41	112.35
684.55	0.00
684.68	74.90
684.82	21.06
684.96	124.05
685.09	74.90
685.23	37.45
685.37	35.11
685.50	32.77
685.64	30.43
685.78	0.00
685.91	0.00
686.05	0.00
686.19	0.00
686.32	0.00
686.46	23.41
686.60	14.04
686.73	11.70
686.87	9.36
687.01	53.83
687.14	0.00
687.28	0.00
687.42	74.90
687.55	4.68
687.69	14.04
687.82	49.15
687.96	39.79
688.10	46.81
688.23	18.72
688.37	42.13
688.50	81.92
688.64	25.75
688.78	46.81
688.91	74.90
689.05	37.45
689.18	0.00
689.32	121.71
689.46	67.88
689.59	44.47
689.73	46.81
689.86	58.51
690.00	21.06
690.13	4.68
690.27	37.45
690.41	58.51
690.54	77.24
690.68	49.15
690.81	25.75
690.95	0.00
691.08	14.04
691.22	42.13
691.35	58.51
691.49	51.49
691.62	84.26
691.76	63.19
691.89	14.04
692.03	32.77
692.16	60.85
692.30	28.09
692.43	7.02
692.57	67.88
692.70	49.15
692.84	65.54
692.97	39.79
693.11	58.51
693.24	32.77
693.38	28.09
693.51	42.13
693.65	0.00
693.78	91.28
693.92	56.17
694.05	49.15
694.19	58.51
694.32	0.00
694.45	0.00
694.59	0.00
694.72	0.00
694.86	37.45
694.99	49.15
695.13	53.83
695.26	0.00
695.39	95.96
695.53	49.15
695.66	51.49
695.80	25.75
695.93	77.24
696.07	51.49
696.20	107.66
696.33	56.17
696.47	30.43
696.60	2.34
696.73	77.24
696.87	0.00
697.00	86.60
697.14	0.00
697.27	0.00
697.40	49.15
697.54	53.83
697.67	2.34
697.80	23.41
697.94	72.56
698.07	53.83
698.21	0.00
698.34	0.00
698.47	0.00
698.61	11.70
698.74	88.94
698.87	117.03
699.01	60.85
699.14	53.83
699.27	39.79
699.40	56.17
699.54	0.00
699.67	53.83
699.80	0.00
699.94	0.00
700.07	37.45
700.20	37.45
700.34	7.02
700.47	4.68
700.60	0.00
700.73	11.70
700.87	44.47
701.00	7.02
701.13	65.54
701.26	28.09
701.40	44.47
701.53	60.85
701.66	37.45
701.79	51.49
701.93	0.00
702.06	2.34
702.19	79.58
702.32	95.96
702.46	0.00
702.59	0.00
702.72	18.72
702.85	79.58
702.99	42.13
703.12	119.37
703.25	44.47
703.38	72.56
703.51	14.04
703.65	65.54
703.78	53.83
703.91	21.06
704.04	0.00
704.17	51.49
704.31	21.06
704.44	53.83
704.57	46.81
704.70	0.00
704.83	4.68
704.96	7.02
705.10	0.00
705.23	30.43
>>>>>End Processed Spectral Data<<<<<
