SpectraSuite Data File
++++++++++++++++++++++++++++++++++++
Date: Fri Oct 04 12:13:44 GMT-05:00 2013
User: price-jones
Dark Spectrum Present: No
Reference Spectrum Present: No
Number of Sampled Component Spectra: 1
Spectrometers: USB2+H05261
Integration Time (usec): 10000 (USB2+H05261)
Spectra Averaged: 1 (USB2+H05261)
Boxcar Smoothing: 0 (USB2+H05261)
Correct for Electrical Dark: No (USB2+H05261)
Strobe/Lamp Enabled: No (USB2+H05261)
Correct for Detector Non-linearity: No (USB2+H05261)
Correct for Stray Light: No (USB2+H05261)
Number of Pixels in Processed Spectrum: 2048
>>>>>Begin Processed Spectral Data<<<<<
365.73	0.00
365.92	0.00
366.12	0.00
366.32	0.00
366.52	0.00
366.72	0.00
366.91	0.00
367.11	0.00
367.31	0.00
367.51	0.00
367.70	0.00
367.90	0.00
368.10	0.00
368.30	0.00
368.49	0.00
368.69	0.00
368.89	0.00
369.09	0.00
369.28	0.00
369.48	0.00
369.68	0.00
369.87	0.00
370.07	0.00
370.27	0.00
370.47	0.00
370.66	0.00
370.86	0.00
371.06	0.00
371.25	0.00
371.45	0.00
371.65	0.00
371.84	0.00
372.04	0.00
372.24	0.00
372.44	0.00
372.63	58.51
372.83	72.56
373.03	4.68
373.22	65.54
373.42	23.41
373.62	35.11
373.81	37.45
374.01	7.02
374.21	46.81
374.40	53.83
374.60	58.51
374.79	32.77
374.99	4.68
375.19	0.00
375.38	42.13
375.58	11.70
375.78	42.13
375.97	72.56
376.17	56.17
376.37	14.04
376.56	0.00
376.76	53.83
376.95	0.00
377.15	28.09
377.35	0.00
377.54	0.00
377.74	0.00
377.93	0.00
378.13	44.47
378.33	49.15
378.52	86.60
378.72	0.00
378.91	65.54
379.11	0.00
379.31	11.70
379.50	0.00
379.70	14.04
379.89	14.04
380.09	74.90
380.28	0.00
380.48	0.00
380.68	0.00
380.87	0.00
381.07	0.00
381.26	7.02
381.46	23.41
381.65	0.00
381.85	0.00
382.04	51.49
382.24	30.43
382.43	32.77
382.63	37.45
382.83	23.41
383.02	0.00
383.22	56.17
383.41	23.41
383.61	46.81
383.80	32.77
384.00	46.81
384.19	0.00
384.39	0.00
384.58	7.02
384.78	35.11
384.97	30.43
385.17	0.00
385.36	0.00
385.56	11.70
385.75	56.17
385.95	0.00
386.14	53.83
386.34	28.09
386.53	11.70
386.72	49.15
386.92	67.88
387.11	42.13
387.31	58.51
387.50	84.26
387.70	4.68
387.89	0.00
388.09	11.70
388.28	9.36
388.48	25.75
388.67	72.56
388.86	0.00
389.06	0.00
389.25	0.00
389.45	30.43
389.64	14.04
389.84	35.11
390.03	42.13
390.22	86.60
390.42	0.00
390.61	0.00
390.81	28.09
391.00	46.81
391.19	35.11
391.39	16.38
391.58	63.19
391.78	16.38
391.97	0.00
392.16	21.06
392.36	86.60
392.55	28.09
392.75	0.00
392.94	28.09
393.13	4.68
393.33	21.06
393.52	74.90
393.71	74.90
393.91	18.72
394.10	18.72
394.29	11.70
394.49	0.00
394.68	93.62
394.88	14.04
395.07	0.00
395.26	39.79
395.46	56.17
395.65	105.32
395.84	72.56
396.04	74.90
396.23	0.00
396.42	0.00
396.62	21.06
396.81	0.00
397.00	58.51
397.19	14.04
397.39	4.68
397.58	37.45
397.77	28.09
397.97	28.09
398.16	0.00
398.35	25.75
398.55	4.68
398.74	30.43
398.93	0.00
399.12	9.36
399.32	37.45
399.51	58.51
399.70	39.79
399.90	11.70
400.09	105.32
400.28	32.77
400.47	35.11
400.67	60.85
400.86	28.09
401.05	0.00
401.24	49.15
401.44	14.04
401.63	74.90
401.82	58.51
402.01	21.06
402.21	32.77
402.40	93.62
402.59	30.43
402.78	21.06
402.97	72.56
403.17	25.75
403.36	79.58
403.55	58.51
403.74	35.11
403.93	21.06
404.13	35.11
404.32	32.77
404.51	126.39
404.70	46.81
404.89	84.26
405.09	70.22
405.28	63.19
405.47	9.36
405.66	63.19
405.85	35.11
406.05	72.56
406.24	30.43
406.43	72.56
406.62	74.90
406.81	84.26
407.00	0.00
407.20	0.00
407.39	16.38
407.58	46.81
407.77	39.79
407.96	114.69
408.15	2.34
408.34	53.83
408.54	65.54
408.73	135.75
408.92	51.49
409.11	56.17
409.30	18.72
409.49	0.00
409.68	2.34
409.87	0.00
410.07	79.58
410.26	0.00
410.45	67.88
410.64	70.22
410.83	49.15
411.02	65.54
411.21	74.90
411.40	72.56
411.59	77.24
411.78	49.15
411.98	18.72
412.17	14.04
412.36	60.85
412.55	63.19
412.74	51.49
412.93	86.60
413.12	25.75
413.31	88.94
413.50	28.09
413.69	65.54
413.88	0.00
414.07	0.00
414.26	63.19
414.45	28.09
414.64	28.09
414.83	0.00
415.02	0.00
415.22	0.00
415.41	53.83
415.60	14.04
415.79	74.90
415.98	93.62
416.17	79.58
416.36	21.06
416.55	84.26
416.74	53.83
416.93	63.19
417.12	0.00
417.31	65.54
417.50	53.83
417.69	46.81
417.88	16.38
418.07	30.43
418.26	30.43
418.45	39.79
418.64	51.49
418.83	11.70
419.02	44.47
419.21	0.00
419.39	65.54
419.58	42.13
419.77	18.72
419.96	21.06
420.15	9.36
420.34	91.28
420.53	0.00
420.72	16.38
420.91	37.45
421.10	93.62
421.29	77.24
421.48	86.60
421.67	0.00
421.86	100.64
422.05	126.39
422.24	58.51
422.43	44.47
422.61	4.68
422.80	0.00
422.99	4.68
423.18	100.64
423.37	0.00
423.56	0.00
423.75	0.00
423.94	28.09
424.13	70.22
424.32	70.22
424.50	0.00
424.69	53.83
424.88	16.38
425.07	4.68
425.26	121.71
425.45	0.00
425.64	16.38
425.83	77.24
426.01	79.58
426.20	35.11
426.39	60.85
426.58	51.49
426.77	0.00
426.96	44.47
427.15	56.17
427.33	0.00
427.52	39.79
427.71	28.09
427.90	72.56
428.09	0.00
428.28	28.09
428.46	60.85
428.65	74.90
428.84	65.54
429.03	0.00
429.22	49.15
429.40	23.41
429.59	0.00
429.78	60.85
429.97	4.68
430.16	46.81
430.34	30.43
430.53	107.66
430.72	32.77
430.91	23.41
431.10	0.00
431.28	0.00
431.47	21.06
431.66	16.38
431.85	42.13
432.03	2.34
432.22	23.41
432.41	0.00
432.60	60.85
432.79	74.90
432.97	86.60
433.16	98.30
433.35	84.26
433.54	65.54
433.72	91.28
433.91	88.94
434.10	84.26
434.28	107.66
434.47	0.00
434.66	98.30
434.85	37.45
435.03	149.79
435.22	112.35
435.41	67.88
435.59	0.00
435.78	102.98
435.97	53.83
436.16	44.47
436.34	53.83
436.53	39.79
436.72	51.49
436.90	30.43
437.09	42.13
437.28	9.36
437.46	7.02
437.65	21.06
437.84	84.26
438.02	67.88
438.21	42.13
438.40	16.38
438.58	11.70
438.77	67.88
438.96	0.00
439.14	0.00
439.33	58.51
439.52	51.49
439.70	77.24
439.89	88.94
440.08	7.02
440.26	25.75
440.45	28.09
440.63	67.88
440.82	56.17
441.01	18.72
441.19	0.00
441.38	77.24
441.57	67.88
441.75	51.49
441.94	4.68
442.12	58.51
442.31	53.83
442.50	37.45
442.68	58.51
442.87	91.28
443.05	7.02
443.24	49.15
443.43	119.37
443.61	56.17
443.80	49.15
443.98	7.02
444.17	79.58
444.35	37.45
444.54	74.90
444.73	0.00
444.91	81.92
445.10	23.41
445.28	4.68
445.47	35.11
445.65	39.79
445.84	0.00
446.02	49.15
446.21	18.72
446.39	56.17
446.58	0.00
446.77	95.96
446.95	23.41
447.14	14.04
447.32	0.00
447.51	0.00
447.69	51.49
447.88	25.75
448.06	65.54
448.25	30.43
448.43	23.41
448.62	58.51
448.80	60.85
448.99	0.00
449.17	126.39
449.36	32.77
449.54	30.43
449.73	0.00
449.91	70.22
450.10	9.36
450.28	0.00
450.46	11.70
450.65	32.77
450.83	51.49
451.02	28.09
451.20	0.00
451.39	77.24
451.57	58.51
451.76	30.43
451.94	11.70
452.13	37.45
452.31	21.06
452.49	9.36
452.68	67.88
452.86	30.43
453.05	79.58
453.23	32.77
453.42	77.24
453.60	0.00
453.78	49.15
453.97	0.00
454.15	42.13
454.34	49.15
454.52	0.00
454.70	74.90
454.89	70.22
455.07	28.09
455.26	0.00
455.44	74.90
455.62	65.54
455.81	102.98
455.99	114.69
456.17	128.73
456.36	4.68
456.54	46.81
456.73	14.04
456.91	11.70
457.09	44.47
457.28	88.94
457.46	86.60
457.64	74.90
457.83	93.62
458.01	44.47
458.19	65.54
458.38	11.70
458.56	21.06
458.74	49.15
458.93	156.82
459.11	126.39
459.29	100.64
459.48	91.28
459.66	7.02
459.84	25.75
460.03	51.49
460.21	63.19
460.39	23.41
460.57	23.41
460.76	0.00
460.94	42.13
461.12	49.15
461.31	0.00
461.49	72.56
461.67	37.45
461.85	93.62
462.04	86.60
462.22	105.32
462.40	4.68
462.59	74.90
462.77	93.62
462.95	0.00
463.13	28.09
463.32	93.62
463.50	35.11
463.68	23.41
463.86	32.77
464.05	7.02
464.23	39.79
464.41	107.66
464.59	0.00
464.78	74.90
464.96	102.98
465.14	39.79
465.32	88.94
465.50	4.68
465.69	0.00
465.87	0.00
466.05	0.00
466.23	4.68
466.41	74.90
466.60	93.62
466.78	25.75
466.96	119.37
467.14	2.34
467.32	72.56
467.51	14.04
467.69	86.60
467.87	91.28
468.05	72.56
468.23	37.45
468.41	95.96
468.60	39.79
468.78	16.38
468.96	0.00
469.14	77.24
469.32	11.70
469.50	77.24
469.69	30.43
469.87	44.47
470.05	58.51
470.23	37.45
470.41	0.00
470.59	53.83
470.77	51.49
470.95	14.04
471.14	56.17
471.32	91.28
471.50	95.96
471.68	0.00
471.86	102.98
472.04	37.45
472.22	0.00
472.40	58.51
472.58	23.41
472.77	53.83
472.95	98.30
473.13	67.88
473.31	16.38
473.49	39.79
473.67	0.00
473.85	11.70
474.03	7.02
474.21	79.58
474.39	32.77
474.57	112.35
474.75	86.60
474.93	0.00
475.12	102.98
475.30	67.88
475.48	32.77
475.66	25.75
475.84	81.92
476.02	0.00
476.20	51.49
476.38	51.49
476.56	46.81
476.74	9.36
476.92	16.38
477.10	25.75
477.28	37.45
477.46	37.45
477.64	63.19
477.82	18.72
478.00	42.13
478.18	72.56
478.36	53.83
478.54	11.70
478.72	28.09
478.90	7.02
479.08	91.28
479.26	44.47
479.44	42.13
479.62	9.36
479.80	65.54
479.98	0.00
480.16	44.47
480.34	95.96
480.52	58.51
480.70	81.92
480.88	84.26
481.06	16.38
481.24	0.00
481.41	46.81
481.59	65.54
481.77	77.24
481.95	28.09
482.13	51.49
482.31	77.24
482.49	81.92
482.67	0.00
482.85	37.45
483.03	42.13
483.21	51.49
483.39	86.60
483.57	0.00
483.74	63.19
483.92	79.58
484.10	0.00
484.28	39.79
484.46	100.64
484.64	84.26
484.82	4.68
485.00	9.36
485.18	23.41
485.35	58.51
485.53	7.02
485.71	84.26
485.89	88.94
486.07	105.32
486.25	77.24
486.43	0.00
486.61	58.51
486.78	14.04
486.96	58.51
487.14	86.60
487.32	58.51
487.50	121.71
487.68	65.54
487.85	60.85
488.03	4.68
488.21	0.00
488.39	23.41
488.57	42.13
488.75	32.77
488.92	77.24
489.10	107.66
489.28	21.06
489.46	0.00
489.64	28.09
489.81	46.81
489.99	60.85
490.17	42.13
490.35	72.56
490.53	91.28
490.70	35.11
490.88	44.47
491.06	102.98
491.24	51.49
491.41	25.75
491.59	147.45
491.77	51.49
491.95	135.75
492.13	91.28
492.30	53.83
492.48	42.13
492.66	70.22
492.84	44.47
493.01	58.51
493.19	95.96
493.37	100.64
493.54	86.60
493.72	25.75
493.90	51.49
494.08	65.54
494.25	46.81
494.43	51.49
494.61	35.11
494.79	0.00
494.96	84.26
495.14	91.28
495.32	60.85
495.49	65.54
495.67	46.81
495.85	107.66
496.02	60.85
496.20	72.56
496.38	114.69
496.55	65.54
496.73	23.41
496.91	28.09
497.09	60.85
497.26	49.15
497.44	32.77
497.62	88.94
497.79	70.22
497.97	142.77
498.14	46.81
498.32	84.26
498.50	21.06
498.67	58.51
498.85	18.72
499.03	32.77
499.20	77.24
499.38	11.70
499.56	0.00
499.73	107.66
499.91	58.51
500.08	63.19
500.26	16.38
500.44	140.43
500.61	70.22
500.79	51.49
500.97	56.17
501.14	2.34
501.32	14.04
501.49	18.72
501.67	25.75
501.84	32.77
502.02	72.56
502.20	91.28
502.37	81.92
502.55	84.26
502.72	131.07
502.90	81.92
503.07	0.00
503.25	42.13
503.43	4.68
503.60	28.09
503.78	67.88
503.95	14.04
504.13	53.83
504.30	30.43
504.48	37.45
504.65	25.75
504.83	16.38
505.01	28.09
505.18	2.34
505.36	128.73
505.53	56.17
505.71	88.94
505.88	74.90
506.06	63.19
506.23	72.56
506.41	126.39
506.58	77.24
506.76	39.79
506.93	21.06
507.11	86.60
507.28	63.19
507.46	65.54
507.63	49.15
507.81	110.01
507.98	124.05
508.16	60.85
508.33	32.77
508.50	91.28
508.68	105.32
508.85	44.47
509.03	65.54
509.20	86.60
509.38	74.90
509.55	105.32
509.73	53.83
509.90	39.79
510.08	7.02
510.25	84.26
510.42	88.94
510.60	23.41
510.77	91.28
510.95	25.75
511.12	0.00
511.30	30.43
511.47	102.98
511.64	30.43
511.82	51.49
511.99	51.49
512.17	11.70
512.34	18.72
512.51	102.98
512.69	0.00
512.86	72.56
513.04	46.81
513.21	60.85
513.38	0.00
513.56	65.54
513.73	56.17
513.90	98.30
514.08	35.11
514.25	117.03
514.43	60.85
514.60	51.49
514.77	23.41
514.95	4.68
515.12	23.41
515.29	18.72
515.47	2.34
515.64	39.79
515.81	49.15
515.99	93.62
516.16	0.00
516.33	4.68
516.51	25.75
516.68	7.02
516.85	42.13
517.03	30.43
517.20	35.11
517.37	105.32
517.54	4.68
517.72	18.72
517.89	91.28
518.06	9.36
518.24	60.85
518.41	65.54
518.58	81.92
518.75	4.68
518.93	65.54
519.10	46.81
519.27	98.30
519.45	53.83
519.62	37.45
519.79	86.60
519.96	98.30
520.14	63.19
520.31	98.30
520.48	77.24
520.65	65.54
520.83	77.24
521.00	124.05
521.17	42.13
521.34	37.45
521.52	107.66
521.69	32.77
521.86	63.19
522.03	84.26
522.20	0.00
522.38	88.94
522.55	98.30
522.72	44.47
522.89	98.30
523.07	119.37
523.24	95.96
523.41	95.96
523.58	32.77
523.75	63.19
523.92	86.60
524.10	65.54
524.27	128.73
524.44	100.64
524.61	95.96
524.78	37.45
524.96	110.01
525.13	0.00
525.30	70.22
525.47	32.77
525.64	60.85
525.81	39.79
525.98	37.45
526.16	98.30
526.33	81.92
526.50	102.98
526.67	84.26
526.84	70.22
527.01	121.71
527.18	65.54
527.36	93.62
527.53	39.79
527.70	74.90
527.87	74.90
528.04	30.43
528.21	9.36
528.38	67.88
528.55	70.22
528.72	86.60
528.89	35.11
529.07	88.94
529.24	65.54
529.41	110.01
529.58	67.88
529.75	0.00
529.92	77.24
530.09	79.58
530.26	63.19
530.43	84.26
530.60	49.15
530.77	72.56
530.94	14.04
531.11	135.75
531.28	135.75
531.46	74.90
531.63	46.81
531.80	79.58
531.97	67.88
532.14	93.62
532.31	11.70
532.48	51.49
532.65	51.49
532.82	53.83
532.99	72.56
533.16	74.90
533.33	105.32
533.50	0.00
533.67	110.01
533.84	81.92
534.01	56.17
534.18	60.85
534.35	93.62
534.52	60.85
534.69	9.36
534.86	0.00
535.03	58.51
535.20	79.58
535.37	25.75
535.54	74.90
535.71	110.01
535.88	81.92
536.05	60.85
536.22	77.24
536.38	14.04
536.55	65.54
536.72	79.58
536.89	44.47
537.06	88.94
537.23	91.28
537.40	107.66
537.57	9.36
537.74	119.37
537.91	58.51
538.08	86.60
538.25	107.66
538.42	4.68
538.59	53.83
538.75	98.30
538.92	21.06
539.09	77.24
539.26	4.68
539.43	67.88
539.60	0.00
539.77	60.85
539.94	79.58
540.11	107.66
540.28	70.22
540.44	84.26
540.61	0.00
540.78	44.47
540.95	173.20
541.12	128.73
541.29	93.62
541.46	53.83
541.62	18.72
541.79	133.41
541.96	49.15
542.13	42.13
542.30	81.92
542.47	156.82
542.63	28.09
542.80	56.17
542.97	131.07
543.14	100.64
543.31	79.58
543.48	124.05
543.64	58.51
543.81	70.22
543.98	53.83
544.15	32.77
544.32	133.41
544.48	46.81
544.65	53.83
544.82	72.56
544.99	16.38
545.16	86.60
545.32	154.48
545.49	0.00
545.66	0.00
545.83	7.02
546.00	84.26
546.16	77.24
546.33	124.05
546.50	65.54
546.67	93.62
546.83	60.85
547.00	77.24
547.17	187.24
547.34	63.19
547.50	110.01
547.67	133.41
547.84	65.54
548.00	84.26
548.17	86.60
548.34	114.69
548.51	126.39
548.67	81.92
548.84	110.01
549.01	70.22
549.18	93.62
549.34	60.85
549.51	65.54
549.68	18.72
549.84	105.32
550.01	91.28
550.18	63.19
550.34	67.88
550.51	81.92
550.68	7.02
550.84	98.30
551.01	44.47
551.18	88.94
551.34	93.62
551.51	105.32
551.68	7.02
551.84	53.83
552.01	42.13
552.18	65.54
552.34	56.17
552.51	60.85
552.68	74.90
552.84	46.81
553.01	74.90
553.18	95.96
553.34	74.90
553.51	102.98
553.67	88.94
553.84	93.62
554.01	9.36
554.17	0.00
554.34	56.17
554.51	65.54
554.67	42.13
554.84	124.05
555.00	100.64
555.17	91.28
555.33	107.66
555.50	114.69
555.67	51.49
555.83	49.15
556.00	79.58
556.16	81.92
556.33	0.00
556.50	56.17
556.66	72.56
556.83	0.00
556.99	39.79
557.16	25.75
557.32	9.36
557.49	72.56
557.65	93.62
557.82	98.30
557.98	77.24
558.15	49.15
558.32	81.92
558.48	49.15
558.65	56.17
558.81	95.96
558.98	84.26
559.14	53.83
559.31	156.82
559.47	145.11
559.64	60.85
559.80	63.19
559.97	81.92
560.13	126.39
560.30	77.24
560.46	72.56
560.63	70.22
560.79	79.58
560.96	105.32
561.12	86.60
561.29	46.81
561.45	100.64
561.61	67.88
561.78	46.81
561.94	7.02
562.11	25.75
562.27	121.71
562.44	102.98
562.60	70.22
562.77	0.00
562.93	81.92
563.10	67.88
563.26	32.77
563.42	63.19
563.59	25.75
563.75	53.83
563.92	65.54
564.08	53.83
564.24	28.09
564.41	51.49
564.57	28.09
564.74	91.28
564.90	28.09
565.07	28.09
565.23	4.68
565.39	21.06
565.56	70.22
565.72	0.00
565.88	63.19
566.05	25.75
566.21	0.00
566.38	7.02
566.54	0.00
566.70	7.02
566.87	9.36
567.03	86.60
567.19	84.26
567.36	77.24
567.52	81.92
567.68	44.47
567.85	67.88
568.01	30.43
568.17	86.60
568.34	107.66
568.50	93.62
568.66	79.58
568.83	70.22
568.99	56.17
569.15	0.00
569.32	95.96
569.48	102.98
569.64	77.24
569.81	23.41
569.97	84.26
570.13	63.19
570.30	72.56
570.46	53.83
570.62	32.77
570.78	74.90
570.95	56.17
571.11	84.26
571.27	42.13
571.43	126.39
571.60	84.26
571.76	65.54
571.92	51.49
572.09	23.41
572.25	84.26
572.41	81.92
572.57	86.60
572.74	30.43
572.90	0.00
573.06	11.70
573.22	30.43
573.38	91.28
573.55	4.68
573.71	23.41
573.87	60.85
574.03	86.60
574.20	124.05
574.36	37.45
574.52	86.60
574.68	100.64
574.84	49.15
575.01	86.60
575.17	79.58
575.33	32.77
575.49	60.85
575.65	70.22
575.82	21.06
575.98	49.15
576.14	9.36
576.30	131.07
576.46	32.77
576.62	21.06
576.79	49.15
576.95	107.66
577.11	42.13
577.27	65.54
577.43	11.70
577.59	63.19
577.75	7.02
577.92	70.22
578.08	28.09
578.24	18.72
578.40	56.17
578.56	0.00
578.72	65.54
578.88	23.41
579.04	30.43
579.21	65.54
579.37	28.09
579.53	91.28
579.69	86.60
579.85	58.51
580.01	23.41
580.17	98.30
580.33	65.54
580.49	46.81
580.65	93.62
580.82	0.00
580.98	7.02
581.14	74.90
581.30	161.50
581.46	14.04
581.62	79.58
581.78	0.00
581.94	65.54
582.10	49.15
582.26	23.41
582.42	60.85
582.58	77.24
582.74	86.60
582.90	91.28
583.06	117.03
583.22	102.98
583.38	86.60
583.54	0.00
583.70	100.64
583.86	25.75
584.02	65.54
584.18	58.51
584.34	53.83
584.50	9.36
584.66	25.75
584.82	2.34
584.98	25.75
585.14	67.88
585.30	77.24
585.46	128.73
585.62	72.56
585.78	58.51
585.94	74.90
586.10	9.36
586.26	42.13
586.42	63.19
586.58	77.24
586.74	60.85
586.90	44.47
587.06	95.96
587.22	0.00
587.38	60.85
587.54	112.35
587.70	35.11
587.86	0.00
588.02	51.49
588.18	56.17
588.34	79.58
588.49	11.70
588.65	0.00
588.81	16.38
588.97	0.00
589.13	128.73
589.29	58.51
589.45	91.28
589.61	124.05
589.77	18.72
589.93	117.03
590.08	21.06
590.24	91.28
590.40	79.58
590.56	84.26
590.72	63.19
590.88	114.69
591.04	65.54
591.20	0.00
591.35	72.56
591.51	58.51
591.67	2.34
591.83	4.68
591.99	0.00
592.15	39.79
592.31	49.15
592.46	67.88
592.62	14.04
592.78	58.51
592.94	58.51
593.10	35.11
593.26	65.54
593.41	9.36
593.57	21.06
593.73	0.00
593.89	173.20
594.05	70.22
594.20	117.03
594.36	11.70
594.52	21.06
594.68	63.19
594.84	16.38
594.99	81.92
595.15	37.45
595.31	35.11
595.47	81.92
595.62	93.62
595.78	35.11
595.94	51.49
596.10	28.09
596.25	88.94
596.41	100.64
596.57	102.98
596.73	98.30
596.88	16.38
597.04	56.17
597.20	23.41
597.36	70.22
597.51	81.92
597.67	0.00
597.83	42.13
597.99	74.90
598.14	14.04
598.30	56.17
598.46	63.19
598.61	32.77
598.77	77.24
598.93	56.17
599.09	32.77
599.24	7.02
599.40	65.54
599.56	102.98
599.71	53.83
599.87	88.94
600.03	126.39
600.18	0.00
600.34	25.75
600.50	0.00
600.65	39.79
600.81	77.24
600.97	7.02
601.12	32.77
601.28	63.19
601.44	100.64
601.59	105.32
601.75	23.41
601.91	42.13
602.06	60.85
602.22	91.28
602.37	72.56
602.53	126.39
602.69	49.15
602.84	0.00
603.00	35.11
603.16	112.35
603.31	42.13
603.47	28.09
603.62	30.43
603.78	91.28
603.94	23.41
604.09	124.05
604.25	79.58
604.40	117.03
604.56	51.49
604.71	56.17
604.87	98.30
605.03	53.83
605.18	0.00
605.34	51.49
605.49	126.39
605.65	46.81
605.80	114.69
605.96	49.15
606.12	60.85
606.27	30.43
606.43	9.36
606.58	9.36
606.74	67.88
606.89	93.62
607.05	72.56
607.20	44.47
607.36	32.77
607.51	56.17
607.67	44.47
607.82	0.00
607.98	51.49
608.13	49.15
608.29	72.56
608.44	16.38
608.60	91.28
608.75	88.94
608.91	21.06
609.06	72.56
609.22	0.00
609.37	16.38
609.53	16.38
609.68	25.75
609.84	18.72
609.99	42.13
610.15	49.15
610.30	67.88
610.46	72.56
610.61	100.64
610.76	35.11
610.92	86.60
611.07	18.72
611.23	18.72
611.38	35.11
611.54	93.62
611.69	9.36
611.84	51.49
612.00	30.43
612.15	23.41
612.31	67.88
612.46	42.13
612.62	28.09
612.77	7.02
612.92	21.06
613.08	35.11
613.23	28.09
613.39	44.47
613.54	0.00
613.69	28.09
613.85	93.62
614.00	44.47
614.15	18.72
614.31	0.00
614.46	23.41
614.62	35.11
614.77	49.15
614.92	51.49
615.08	100.64
615.23	86.60
615.38	119.37
615.54	70.22
615.69	95.96
615.84	56.17
616.00	131.07
616.15	56.17
616.30	18.72
616.46	49.15
616.61	37.45
616.76	32.77
616.92	0.00
617.07	63.19
617.22	91.28
617.37	100.64
617.53	37.45
617.68	84.26
617.83	58.51
617.99	84.26
618.14	56.17
618.29	0.00
618.45	0.00
618.60	159.16
618.75	63.19
618.90	37.45
619.06	16.38
619.21	37.45
619.36	86.60
619.51	23.41
619.67	58.51
619.82	67.88
619.97	25.75
620.12	32.77
620.28	11.70
620.43	81.92
620.58	56.17
620.73	79.58
620.89	28.09
621.04	0.00
621.19	35.11
621.34	102.98
621.49	51.49
621.65	7.02
621.80	9.36
621.95	98.30
622.10	42.13
622.25	65.54
622.41	32.77
622.56	37.45
622.71	14.04
622.86	42.13
623.01	53.83
623.16	88.94
623.32	21.06
623.47	60.85
623.62	46.81
623.77	30.43
623.92	28.09
624.07	21.06
624.23	35.11
624.38	110.01
624.53	91.28
624.68	72.56
624.83	79.58
624.98	81.92
625.13	35.11
625.29	46.81
625.44	93.62
625.59	88.94
625.74	93.62
625.89	67.88
626.04	63.19
626.19	86.60
626.34	67.88
626.49	56.17
626.65	60.85
626.80	65.54
626.95	35.11
627.10	91.28
627.25	49.15
627.40	0.00
627.55	49.15
627.70	60.85
627.85	23.41
628.00	11.70
628.15	88.94
628.30	74.90
628.45	46.81
628.60	30.43
628.76	65.54
628.91	105.32
629.06	32.77
629.21	14.04
629.36	74.90
629.51	4.68
629.66	67.88
629.81	56.17
629.96	98.30
630.11	0.00
630.26	44.47
630.41	63.19
630.56	37.45
630.71	35.11
630.86	21.06
631.01	74.90
631.16	25.75
631.31	30.43
631.46	98.30
631.61	65.54
631.76	0.00
631.91	49.15
632.06	63.19
632.21	67.88
632.36	58.51
632.51	107.66
632.66	84.26
632.81	42.13
632.96	14.04
633.10	0.00
633.25	107.66
633.40	88.94
633.55	93.62
633.70	91.28
633.85	58.51
634.00	32.77
634.15	0.00
634.30	67.88
634.45	60.85
634.60	37.45
634.75	0.00
634.90	32.77
635.05	18.72
635.19	60.85
635.34	100.64
635.49	0.00
635.64	25.75
635.79	21.06
635.94	28.09
636.09	0.00
636.24	51.49
636.39	140.43
636.53	65.54
636.68	18.72
636.83	25.75
636.98	0.00
637.13	65.54
637.28	65.54
637.43	14.04
637.57	32.77
637.72	56.17
637.87	0.00
638.02	28.09
638.17	0.00
638.32	128.73
638.46	25.75
638.61	0.00
638.76	32.77
638.91	42.13
639.06	70.22
639.20	74.90
639.35	79.58
639.50	21.06
639.65	21.06
639.80	88.94
639.94	11.70
640.09	56.17
640.24	37.45
640.39	32.77
640.54	35.11
640.68	63.19
640.83	42.13
640.98	0.00
641.13	105.32
641.27	117.03
641.42	2.34
641.57	93.62
641.72	100.64
641.86	53.83
642.01	18.72
642.16	16.38
642.31	74.90
642.45	105.32
642.60	14.04
642.75	35.11
642.90	91.28
643.04	35.11
643.19	67.88
643.34	0.00
643.48	51.49
643.63	37.45
643.78	25.75
643.93	72.56
644.07	16.38
644.22	49.15
644.37	4.68
644.51	102.98
644.66	37.45
644.81	16.38
644.95	0.00
645.10	11.70
645.25	70.22
645.39	39.79
645.54	0.00
645.69	18.72
645.83	11.70
645.98	44.47
646.13	39.79
646.27	65.54
646.42	72.56
646.57	16.38
646.71	23.41
646.86	126.39
647.00	49.15
647.15	53.83
647.30	72.56
647.44	63.19
647.59	81.92
647.74	28.09
647.88	11.70
648.03	86.60
648.17	58.51
648.32	18.72
648.47	35.11
648.61	65.54
648.76	23.41
648.90	46.81
649.05	56.17
649.20	35.11
649.34	46.81
649.49	56.17
649.63	0.00
649.78	49.15
649.92	21.06
650.07	60.85
650.21	25.75
650.36	44.47
650.51	0.00
650.65	35.11
650.80	2.34
650.94	0.00
651.09	77.24
651.23	114.69
651.38	79.58
651.52	53.83
651.67	138.09
651.81	21.06
651.96	16.38
652.10	77.24
652.25	7.02
652.39	46.81
652.54	131.07
652.68	121.71
652.83	56.17
652.97	32.77
653.12	28.09
653.26	46.81
653.41	0.00
653.55	74.90
653.70	84.26
653.84	4.68
653.99	14.04
654.13	81.92
654.27	65.54
654.42	46.81
654.56	49.15
654.71	84.26
654.85	67.88
655.00	67.88
655.14	84.26
655.29	7.02
655.43	112.35
655.57	63.19
655.72	18.72
655.86	2.34
656.01	58.51
656.15	49.15
656.30	147.45
656.44	32.77
656.58	25.75
656.73	14.04
656.87	0.00
657.01	14.04
657.16	32.77
657.30	74.90
657.45	84.26
657.59	91.28
657.73	53.83
657.88	53.83
658.02	0.00
658.16	39.79
658.31	95.96
658.45	53.83
658.60	0.00
658.74	7.02
658.88	9.36
659.03	0.00
659.17	14.04
659.31	0.00
659.46	49.15
659.60	53.83
659.74	0.00
659.89	18.72
660.03	102.98
660.17	53.83
660.32	35.11
660.46	0.00
660.60	51.49
660.74	65.54
660.89	49.15
661.03	0.00
661.17	70.22
661.32	44.47
661.46	70.22
661.60	42.13
661.74	81.92
661.89	46.81
662.03	0.00
662.17	72.56
662.31	95.96
662.46	117.03
662.60	86.60
662.74	0.00
662.88	74.90
663.03	112.35
663.17	14.04
663.31	23.41
663.45	77.24
663.60	0.00
663.74	28.09
663.88	67.88
664.02	110.01
664.17	88.94
664.31	18.72
664.45	11.70
664.59	16.38
664.73	49.15
664.88	67.88
665.02	60.85
665.16	67.88
665.30	44.47
665.44	23.41
665.59	86.60
665.73	7.02
665.87	35.11
666.01	46.81
666.15	9.36
666.29	0.00
666.44	18.72
666.58	39.79
666.72	51.49
666.86	42.13
667.00	18.72
667.14	7.02
667.28	0.00
667.43	102.98
667.57	102.98
667.71	88.94
667.85	7.02
667.99	39.79
668.13	51.49
668.27	65.54
668.41	35.11
668.56	95.96
668.70	46.81
668.84	42.13
668.98	14.04
669.12	0.00
669.26	28.09
669.40	63.19
669.54	107.66
669.68	60.85
669.82	30.43
669.96	39.79
670.10	63.19
670.25	0.00
670.39	0.00
670.53	35.11
670.67	21.06
670.81	46.81
670.95	25.75
671.09	25.75
671.23	4.68
671.37	30.43
671.51	21.06
671.65	0.00
671.79	21.06
671.93	14.04
672.07	16.38
672.21	46.81
672.35	23.41
672.49	23.41
672.63	0.00
672.77	107.66
672.91	74.90
673.05	100.64
673.19	126.39
673.33	35.11
673.47	21.06
673.61	23.41
673.75	0.00
673.89	2.34
674.03	39.79
674.17	58.51
674.31	84.26
674.45	30.43
674.59	51.49
674.73	79.58
674.87	18.72
675.01	98.30
675.15	18.72
675.29	58.51
675.43	0.00
675.56	37.45
675.70	11.70
675.84	128.73
675.98	23.41
676.12	4.68
676.26	107.66
676.40	65.54
676.54	159.16
676.68	84.26
676.82	88.94
676.96	51.49
677.10	9.36
677.23	70.22
677.37	46.81
677.51	112.35
677.65	74.90
677.79	0.00
677.93	11.70
678.07	0.00
678.21	0.00
678.34	35.11
678.48	25.75
678.62	88.94
678.76	42.13
678.90	39.79
679.04	30.43
679.18	4.68
679.31	46.81
679.45	91.28
679.59	72.56
679.73	11.70
679.87	30.43
680.00	63.19
680.14	14.04
680.28	0.00
680.42	11.70
680.56	77.24
680.70	72.56
680.83	0.00
680.97	42.13
681.11	14.04
681.25	25.75
681.39	67.88
681.52	65.54
681.66	23.41
681.80	11.70
681.94	88.94
682.07	56.17
682.21	42.13
682.35	25.75
682.49	25.75
682.62	102.98
682.76	0.00
682.90	91.28
683.04	0.00
683.17	0.00
683.31	21.06
683.45	58.51
683.59	42.13
683.72	14.04
683.86	58.51
684.00	0.00
684.13	32.77
684.27	53.83
684.41	72.56
684.55	70.22
684.68	42.13
684.82	51.49
684.96	35.11
685.09	70.22
685.23	88.94
685.37	18.72
685.50	14.04
685.64	79.58
685.78	105.32
685.91	0.00
686.05	0.00
686.19	23.41
686.32	25.75
686.46	42.13
686.60	16.38
686.73	0.00
686.87	42.13
687.01	58.51
687.14	0.00
687.28	42.13
687.42	0.00
687.55	30.43
687.69	77.24
687.82	16.38
687.96	4.68
688.10	60.85
688.23	7.02
688.37	65.54
688.50	51.49
688.64	35.11
688.78	65.54
688.91	28.09
689.05	60.85
689.18	46.81
689.32	56.17
689.46	51.49
689.59	14.04
689.73	32.77
689.86	0.00
690.00	46.81
690.13	25.75
690.27	32.77
690.41	14.04
690.54	84.26
690.68	23.41
690.81	56.17
690.95	44.47
691.08	110.01
691.22	39.79
691.35	0.00
691.49	79.58
691.62	0.00
691.76	2.34
691.89	9.36
692.03	49.15
692.16	30.43
692.30	81.92
692.43	2.34
692.57	88.94
692.70	46.81
692.84	32.77
692.97	30.43
693.11	74.90
693.24	51.49
693.38	67.88
693.51	0.00
693.65	0.00
693.78	56.17
693.92	105.32
694.05	18.72
694.19	0.00
694.32	23.41
694.45	4.68
694.59	0.00
694.72	0.00
694.86	14.04
694.99	0.00
695.13	18.72
695.26	28.09
695.39	53.83
695.53	60.85
695.66	60.85
695.80	0.00
695.93	0.00
696.07	93.62
696.20	79.58
696.33	49.15
696.47	32.77
696.60	0.00
696.73	9.36
696.87	65.54
697.00	56.17
697.14	11.70
697.27	0.00
697.40	86.60
697.54	0.00
697.67	0.00
697.80	56.17
697.94	0.00
698.07	86.60
698.21	53.83
698.34	53.83
698.47	0.00
698.61	42.13
698.74	4.68
698.87	37.45
699.01	42.13
699.14	7.02
699.27	60.85
699.40	0.00
699.54	28.09
699.67	21.06
699.80	0.00
699.94	93.62
700.07	28.09
700.20	0.00
700.34	28.09
700.47	32.77
700.60	67.88
700.73	28.09
700.87	77.24
701.00	44.47
701.13	53.83
701.26	0.00
701.40	42.13
701.53	0.00
701.66	0.00
701.79	9.36
701.93	56.17
702.06	102.98
702.19	39.79
702.32	44.47
702.46	32.77
702.59	0.00
702.72	4.68
702.85	56.17
702.99	39.79
703.12	18.72
703.25	39.79
703.38	42.13
703.51	67.88
703.65	0.00
703.78	44.47
703.91	39.79
704.04	53.83
704.17	56.17
704.31	44.47
704.44	23.41
704.57	30.43
704.70	65.54
704.83	72.56
704.96	79.58
705.10	39.79
705.23	53.83
>>>>>End Processed Spectral Data<<<<<
