SpectraSuite Data File
++++++++++++++++++++++++++++++++++++
Date: Fri Oct 04 12:13:41 GMT-05:00 2013
User: price-jones
Dark Spectrum Present: No
Reference Spectrum Present: No
Number of Sampled Component Spectra: 1
Spectrometers: USB2+H05261
Integration Time (usec): 10000 (USB2+H05261)
Spectra Averaged: 1 (USB2+H05261)
Boxcar Smoothing: 0 (USB2+H05261)
Correct for Electrical Dark: No (USB2+H05261)
Strobe/Lamp Enabled: No (USB2+H05261)
Correct for Detector Non-linearity: No (USB2+H05261)
Correct for Stray Light: No (USB2+H05261)
Number of Pixels in Processed Spectrum: 2048
>>>>>Begin Processed Spectral Data<<<<<
365.73	0.00
365.92	0.00
366.12	0.00
366.32	0.00
366.52	0.00
366.72	0.00
366.91	0.00
367.11	0.00
367.31	0.00
367.51	0.00
367.70	0.00
367.90	0.00
368.10	0.00
368.30	0.00
368.49	0.00
368.69	0.00
368.89	0.00
369.09	0.00
369.28	0.00
369.48	0.00
369.68	0.00
369.87	0.00
370.07	0.00
370.27	0.00
370.47	0.00
370.66	0.00
370.86	0.00
371.06	0.00
371.25	0.00
371.45	0.00
371.65	0.00
371.84	0.00
372.04	21.06
372.24	21.06
372.44	0.00
372.63	0.00
372.83	63.19
373.03	49.15
373.22	0.00
373.42	35.11
373.62	58.51
373.81	0.00
374.01	58.51
374.21	7.02
374.40	0.00
374.60	51.49
374.79	42.13
374.99	0.00
375.19	0.00
375.38	0.00
375.58	56.17
375.78	42.13
375.97	44.47
376.17	58.51
376.37	32.77
376.56	28.09
376.76	105.32
376.95	21.06
377.15	46.81
377.35	0.00
377.54	23.41
377.74	0.00
377.93	35.11
378.13	81.92
378.33	70.22
378.52	42.13
378.72	18.72
378.91	18.72
379.11	21.06
379.31	60.85
379.50	42.13
379.70	58.51
379.89	77.24
380.09	74.90
380.28	46.81
380.48	63.19
380.68	23.41
380.87	18.72
381.07	0.00
381.26	28.09
381.46	2.34
381.65	23.41
381.85	44.47
382.04	53.83
382.24	51.49
382.43	14.04
382.63	107.66
382.83	0.00
383.02	105.32
383.22	0.00
383.41	0.00
383.61	56.17
383.80	9.36
384.00	107.66
384.19	32.77
384.39	35.11
384.58	0.00
384.78	60.85
384.97	0.00
385.17	21.06
385.36	35.11
385.56	0.00
385.75	9.36
385.95	46.81
386.14	28.09
386.34	51.49
386.53	14.04
386.72	0.00
386.92	0.00
387.11	74.90
387.31	37.45
387.50	21.06
387.70	25.75
387.89	0.00
388.09	14.04
388.28	0.00
388.48	98.30
388.67	39.79
388.86	77.24
389.06	18.72
389.25	63.19
389.45	65.54
389.64	91.28
389.84	16.38
390.03	0.00
390.22	30.43
390.42	95.96
390.61	35.11
390.81	4.68
391.00	0.00
391.19	67.88
391.39	32.77
391.58	0.00
391.78	79.58
391.97	35.11
392.16	0.00
392.36	0.00
392.55	60.85
392.75	0.00
392.94	0.00
393.13	0.00
393.33	37.45
393.52	32.77
393.71	0.00
393.91	28.09
394.10	35.11
394.29	56.17
394.49	0.00
394.68	7.02
394.88	30.43
395.07	28.09
395.26	37.45
395.46	7.02
395.65	0.00
395.84	0.00
396.04	102.98
396.23	0.00
396.42	37.45
396.62	0.00
396.81	51.49
397.00	39.79
397.19	14.04
397.39	60.85
397.58	51.49
397.77	77.24
397.97	86.60
398.16	86.60
398.35	72.56
398.55	28.09
398.74	0.00
398.93	25.75
399.12	9.36
399.32	9.36
399.51	0.00
399.70	72.56
399.90	0.00
400.09	32.77
400.28	9.36
400.47	0.00
400.67	35.11
400.86	0.00
401.05	0.00
401.24	0.00
401.44	0.00
401.63	28.09
401.82	18.72
402.01	11.70
402.21	0.00
402.40	35.11
402.59	32.77
402.78	60.85
402.97	23.41
403.17	77.24
403.36	0.00
403.55	23.41
403.74	0.00
403.93	30.43
404.13	51.49
404.32	84.26
404.51	63.19
404.70	98.30
404.89	39.79
405.09	65.54
405.28	0.00
405.47	0.00
405.66	16.38
405.85	72.56
406.05	0.00
406.24	0.00
406.43	67.88
406.62	0.00
406.81	58.51
407.00	35.11
407.20	25.75
407.39	67.88
407.58	56.17
407.77	112.35
407.96	46.81
408.15	63.19
408.34	112.35
408.54	46.81
408.73	30.43
408.92	84.26
409.11	16.38
409.30	25.75
409.49	2.34
409.68	67.88
409.87	14.04
410.07	70.22
410.26	91.28
410.45	0.00
410.64	53.83
410.83	0.00
411.02	0.00
411.21	0.00
411.40	0.00
411.59	74.90
411.78	0.00
411.98	72.56
412.17	42.13
412.36	56.17
412.55	72.56
412.74	91.28
412.93	58.51
413.12	86.60
413.31	28.09
413.50	81.92
413.69	39.79
413.88	70.22
414.07	0.00
414.26	65.54
414.45	7.02
414.64	0.00
414.83	51.49
415.02	51.49
415.22	49.15
415.41	16.38
415.60	39.79
415.79	35.11
415.98	112.35
416.17	39.79
416.36	98.30
416.55	0.00
416.74	84.26
416.93	9.36
417.12	100.64
417.31	0.00
417.50	16.38
417.69	51.49
417.88	0.00
418.07	35.11
418.26	4.68
418.45	23.41
418.64	0.00
418.83	65.54
419.02	70.22
419.21	0.00
419.39	4.68
419.58	23.41
419.77	30.43
419.96	65.54
420.15	70.22
420.34	18.72
420.53	95.96
420.72	23.41
420.91	107.66
421.10	51.49
421.29	49.15
421.48	60.85
421.67	28.09
421.86	35.11
422.05	16.38
422.24	30.43
422.43	4.68
422.61	18.72
422.80	30.43
422.99	0.00
423.18	18.72
423.37	23.41
423.56	93.62
423.75	16.38
423.94	65.54
424.13	63.19
424.32	23.41
424.50	74.90
424.69	79.58
424.88	81.92
425.07	0.00
425.26	81.92
425.45	0.00
425.64	98.30
425.83	63.19
426.01	4.68
426.20	30.43
426.39	25.75
426.58	0.00
426.77	23.41
426.96	0.00
427.15	86.60
427.33	21.06
427.52	2.34
427.71	72.56
427.90	30.43
428.09	0.00
428.28	0.00
428.46	25.75
428.65	23.41
428.84	0.00
429.03	44.47
429.22	0.00
429.40	9.36
429.59	65.54
429.78	77.24
429.97	11.70
430.16	28.09
430.34	0.00
430.53	46.81
430.72	4.68
430.91	32.77
431.10	91.28
431.28	49.15
431.47	102.98
431.66	7.02
431.85	0.00
432.03	42.13
432.22	7.02
432.41	0.00
432.60	0.00
432.79	112.35
432.97	35.11
433.16	28.09
433.35	37.45
433.54	65.54
433.72	18.72
433.91	18.72
434.10	16.38
434.28	70.22
434.47	42.13
434.66	37.45
434.85	81.92
435.03	0.00
435.22	58.51
435.41	56.17
435.59	65.54
435.78	67.88
435.97	7.02
436.16	53.83
436.34	42.13
436.53	39.79
436.72	7.02
436.90	0.00
437.09	0.00
437.28	39.79
437.46	42.13
437.65	37.45
437.84	65.54
438.02	88.94
438.21	16.38
438.40	11.70
438.58	0.00
438.77	35.11
438.96	30.43
439.14	11.70
439.33	0.00
439.52	0.00
439.70	9.36
439.89	72.56
440.08	42.13
440.26	56.17
440.45	0.00
440.63	14.04
440.82	63.19
441.01	25.75
441.19	72.56
441.38	42.13
441.57	65.54
441.75	79.58
441.94	95.96
442.12	91.28
442.31	72.56
442.50	14.04
442.68	60.85
442.87	7.02
443.05	14.04
443.24	51.49
443.43	86.60
443.61	70.22
443.80	51.49
443.98	44.47
444.17	37.45
444.35	25.75
444.54	0.00
444.73	7.02
444.91	77.24
445.10	2.34
445.28	0.00
445.47	9.36
445.65	58.51
445.84	74.90
446.02	88.94
446.21	42.13
446.39	53.83
446.58	7.02
446.77	105.32
446.95	14.04
447.14	0.00
447.32	74.90
447.51	95.96
447.69	39.79
447.88	105.32
448.06	2.34
448.25	60.85
448.43	7.02
448.62	28.09
448.80	67.88
448.99	81.92
449.17	53.83
449.36	0.00
449.54	39.79
449.73	65.54
449.91	18.72
450.10	32.77
450.28	46.81
450.46	42.13
450.65	28.09
450.83	30.43
451.02	37.45
451.20	84.26
451.39	49.15
451.57	63.19
451.76	0.00
451.94	51.49
452.13	72.56
452.31	58.51
452.49	60.85
452.68	56.17
452.86	67.88
453.05	81.92
453.23	7.02
453.42	28.09
453.60	14.04
453.78	121.71
453.97	67.88
454.15	37.45
454.34	7.02
454.52	56.17
454.70	0.00
454.89	114.69
455.07	32.77
455.26	51.49
455.44	39.79
455.62	30.43
455.81	79.58
455.99	107.66
456.17	110.01
456.36	86.60
456.54	77.24
456.73	25.75
456.91	35.11
457.09	60.85
457.28	81.92
457.46	51.49
457.64	32.77
457.83	79.58
458.01	63.19
458.19	72.56
458.38	124.05
458.56	39.79
458.74	81.92
458.93	46.81
459.11	58.51
459.29	46.81
459.48	42.13
459.66	77.24
459.84	51.49
460.03	63.19
460.21	121.71
460.39	30.43
460.57	93.62
460.76	63.19
460.94	23.41
461.12	161.50
461.31	102.98
461.49	35.11
461.67	93.62
461.85	93.62
462.04	21.06
462.22	138.09
462.40	58.51
462.59	81.92
462.77	44.47
462.95	72.56
463.13	72.56
463.32	102.98
463.50	58.51
463.68	30.43
463.86	35.11
464.05	93.62
464.23	70.22
464.41	0.00
464.59	58.51
464.78	105.32
464.96	14.04
465.14	67.88
465.32	32.77
465.50	42.13
465.69	25.75
465.87	84.26
466.05	37.45
466.23	74.90
466.41	56.17
466.60	51.49
466.78	86.60
466.96	98.30
467.14	74.90
467.32	145.11
467.51	70.22
467.69	86.60
467.87	42.13
468.05	67.88
468.23	58.51
468.41	9.36
468.60	16.38
468.78	9.36
468.96	60.85
469.14	44.47
469.32	51.49
469.50	42.13
469.69	79.58
469.87	53.83
470.05	44.47
470.23	72.56
470.41	42.13
470.59	98.30
470.77	35.11
470.95	39.79
471.14	0.00
471.32	98.30
471.50	72.56
471.68	98.30
471.86	37.45
472.04	63.19
472.22	25.75
472.40	28.09
472.58	49.15
472.77	81.92
472.95	93.62
473.13	88.94
473.31	95.96
473.49	49.15
473.67	21.06
473.85	21.06
474.03	105.32
474.21	105.32
474.39	74.90
474.57	86.60
474.75	98.30
474.93	14.04
475.12	154.48
475.30	70.22
475.48	37.45
475.66	46.81
475.84	135.75
476.02	32.77
476.20	0.00
476.38	98.30
476.56	44.47
476.74	0.00
476.92	72.56
477.10	74.90
477.28	42.13
477.46	11.70
477.64	25.75
477.82	88.94
478.00	149.79
478.18	11.70
478.36	93.62
478.54	124.05
478.72	93.62
478.90	11.70
479.08	39.79
479.26	53.83
479.44	67.88
479.62	72.56
479.80	60.85
479.98	28.09
480.16	51.49
480.34	58.51
480.52	77.24
480.70	56.17
480.88	102.98
481.06	72.56
481.24	105.32
481.41	79.58
481.59	65.54
481.77	44.47
481.95	93.62
482.13	42.13
482.31	30.43
482.49	28.09
482.67	49.15
482.85	95.96
483.03	79.58
483.21	46.81
483.39	79.58
483.57	93.62
483.74	14.04
483.92	49.15
484.10	77.24
484.28	152.13
484.46	121.71
484.64	112.35
484.82	81.92
485.00	86.60
485.18	30.43
485.35	88.94
485.53	53.83
485.71	51.49
485.89	53.83
486.07	88.94
486.25	112.35
486.43	93.62
486.61	65.54
486.78	105.32
486.96	44.47
487.14	51.49
487.32	105.32
487.50	98.30
487.68	114.69
487.85	105.32
488.03	88.94
488.21	49.15
488.39	53.83
488.57	0.00
488.75	21.06
488.92	86.60
489.10	60.85
489.28	67.88
489.46	65.54
489.64	72.56
489.81	105.32
489.99	46.81
490.17	105.32
490.35	21.06
490.53	0.00
490.70	39.79
490.88	88.94
491.06	149.79
491.24	32.77
491.41	91.28
491.59	30.43
491.77	107.66
491.95	72.56
492.13	32.77
492.30	138.09
492.48	91.28
492.66	100.64
492.84	39.79
493.01	88.94
493.19	117.03
493.37	112.35
493.54	51.49
493.72	63.19
493.90	60.85
494.08	77.24
494.25	88.94
494.43	138.09
494.61	110.01
494.79	107.66
494.96	67.88
495.14	65.54
495.32	42.13
495.49	58.51
495.67	93.62
495.85	100.64
496.02	100.64
496.20	107.66
496.38	84.26
496.55	105.32
496.73	166.18
496.91	98.30
497.09	46.81
497.26	35.11
497.44	93.62
497.62	72.56
497.79	119.37
497.97	98.30
498.14	51.49
498.32	14.04
498.50	93.62
498.67	86.60
498.85	58.51
499.03	46.81
499.20	28.09
499.38	107.66
499.56	81.92
499.73	173.20
499.91	56.17
500.08	72.56
500.26	70.22
500.44	21.06
500.61	95.96
500.79	74.90
500.97	35.11
501.14	49.15
501.32	67.88
501.49	105.32
501.67	88.94
501.84	81.92
502.02	81.92
502.20	37.45
502.37	93.62
502.55	131.07
502.72	86.60
502.90	100.64
503.07	114.69
503.25	0.00
503.43	156.82
503.60	53.83
503.78	21.06
503.95	42.13
504.13	72.56
504.30	70.22
504.48	72.56
504.65	0.00
504.83	88.94
505.01	114.69
505.18	91.28
505.36	100.64
505.53	51.49
505.71	77.24
505.88	124.05
506.06	42.13
506.23	35.11
506.41	72.56
506.58	30.43
506.76	72.56
506.93	81.92
507.11	51.49
507.28	140.43
507.46	170.86
507.63	110.01
507.81	28.09
507.98	84.26
508.16	112.35
508.33	58.51
508.50	81.92
508.68	56.17
508.85	25.75
509.03	60.85
509.20	0.00
509.38	72.56
509.55	84.26
509.73	81.92
509.90	133.41
510.08	58.51
510.25	117.03
510.42	44.47
510.60	117.03
510.77	32.77
510.95	46.81
511.12	23.41
511.30	32.77
511.47	81.92
511.64	46.81
511.82	67.88
511.99	44.47
512.17	84.26
512.34	98.30
512.51	93.62
512.69	102.98
512.86	110.01
513.04	102.98
513.21	154.48
513.38	112.35
513.56	70.22
513.73	81.92
513.90	93.62
514.08	0.00
514.25	63.19
514.43	95.96
514.60	77.24
514.77	126.39
514.95	58.51
515.12	79.58
515.29	95.96
515.47	67.88
515.64	63.19
515.81	107.66
515.99	98.30
516.16	93.62
516.33	46.81
516.51	0.00
516.68	16.38
516.85	25.75
517.03	53.83
517.20	81.92
517.37	42.13
517.54	21.06
517.72	44.47
517.89	149.79
518.06	72.56
518.24	128.73
518.41	44.47
518.58	72.56
518.75	49.15
518.93	70.22
519.10	100.64
519.27	70.22
519.45	102.98
519.62	107.66
519.79	51.49
519.96	81.92
520.14	84.26
520.31	142.77
520.48	112.35
520.65	46.81
520.83	100.64
521.00	49.15
521.17	70.22
521.34	44.47
521.52	56.17
521.69	112.35
521.86	98.30
522.03	110.01
522.20	37.45
522.38	65.54
522.55	98.30
522.72	114.69
522.89	77.24
523.07	91.28
523.24	18.72
523.41	117.03
523.58	112.35
523.75	149.79
523.92	79.58
524.10	65.54
524.27	79.58
524.44	95.96
524.61	88.94
524.78	110.01
524.96	63.19
525.13	51.49
525.30	112.35
525.47	77.24
525.64	98.30
525.81	84.26
525.98	2.34
526.16	37.45
526.33	70.22
526.50	46.81
526.67	79.58
526.84	65.54
527.01	42.13
527.18	79.58
527.36	79.58
527.53	67.88
527.70	166.18
527.87	86.60
528.04	105.32
528.21	131.07
528.38	63.19
528.55	119.37
528.72	105.32
528.89	84.26
529.07	93.62
529.24	81.92
529.41	154.48
529.58	37.45
529.75	86.60
529.92	79.58
530.09	110.01
530.26	86.60
530.43	35.11
530.60	100.64
530.77	102.98
530.94	32.77
531.11	67.88
531.28	53.83
531.46	95.96
531.63	124.05
531.80	74.90
531.97	79.58
532.14	105.32
532.31	65.54
532.48	95.96
532.65	51.49
532.82	32.77
532.99	67.88
533.16	121.71
533.33	107.66
533.50	49.15
533.67	42.13
533.84	126.39
534.01	42.13
534.18	65.54
534.35	86.60
534.52	145.11
534.69	102.98
534.86	53.83
535.03	65.54
535.20	58.51
535.37	91.28
535.54	95.96
535.71	46.81
535.88	88.94
536.05	140.43
536.22	110.01
536.38	86.60
536.55	72.56
536.72	114.69
536.89	138.09
537.06	107.66
537.23	84.26
537.40	145.11
537.57	70.22
537.74	84.26
537.91	79.58
538.08	88.94
538.25	119.37
538.42	79.58
538.59	100.64
538.75	98.30
538.92	126.39
539.09	152.13
539.26	58.51
539.43	37.45
539.60	30.43
539.77	88.94
539.94	70.22
540.11	112.35
540.28	140.43
540.44	112.35
540.61	46.81
540.78	16.38
540.95	79.58
541.12	110.01
541.29	21.06
541.46	159.16
541.62	30.43
541.79	72.56
541.96	88.94
542.13	16.38
542.30	32.77
542.47	9.36
542.63	79.58
542.80	16.38
542.97	63.19
543.14	117.03
543.31	72.56
543.48	95.96
543.64	63.19
543.81	133.41
543.98	173.20
544.15	35.11
544.32	56.17
544.48	65.54
544.65	93.62
544.82	124.05
544.99	86.60
545.16	79.58
545.32	11.70
545.49	138.09
545.66	95.96
545.83	56.17
546.00	44.47
546.16	114.69
546.33	42.13
546.50	79.58
546.67	91.28
546.83	28.09
547.00	65.54
547.17	117.03
547.34	72.56
547.50	95.96
547.67	138.09
547.84	98.30
548.00	67.88
548.17	117.03
548.34	140.43
548.51	112.35
548.67	84.26
548.84	102.98
549.01	173.20
549.18	147.45
549.34	161.50
549.51	65.54
549.68	51.49
549.84	9.36
550.01	98.30
550.18	42.13
550.34	67.88
550.51	81.92
550.68	124.05
550.84	110.01
551.01	95.96
551.18	72.56
551.34	77.24
551.51	46.81
551.68	93.62
551.84	88.94
552.01	140.43
552.18	91.28
552.34	79.58
552.51	88.94
552.68	131.07
552.84	86.60
553.01	124.05
553.18	138.09
553.34	95.96
553.51	117.03
553.67	56.17
553.84	133.41
554.01	81.92
554.17	88.94
554.34	100.64
554.51	173.20
554.67	126.39
554.84	49.15
555.00	98.30
555.17	53.83
555.33	121.71
555.50	28.09
555.67	128.73
555.83	88.94
556.00	18.72
556.16	65.54
556.33	112.35
556.50	105.32
556.66	46.81
556.83	100.64
556.99	128.73
557.16	23.41
557.32	65.54
557.49	107.66
557.65	9.36
557.82	74.90
557.98	67.88
558.15	44.47
558.32	110.01
558.48	128.73
558.65	70.22
558.81	121.71
558.98	126.39
559.14	98.30
559.31	74.90
559.47	53.83
559.64	56.17
559.80	112.35
559.97	65.54
560.13	77.24
560.30	95.96
560.46	138.09
560.63	72.56
560.79	159.16
560.96	126.39
561.12	67.88
561.29	67.88
561.45	138.09
561.61	154.48
561.78	95.96
561.94	100.64
562.11	114.69
562.27	67.88
562.44	170.86
562.60	100.64
562.77	112.35
562.93	32.77
563.10	77.24
563.26	72.56
563.42	49.15
563.59	81.92
563.75	9.36
563.92	95.96
564.08	93.62
564.24	70.22
564.41	32.77
564.57	86.60
564.74	42.13
564.90	131.07
565.07	119.37
565.23	91.28
565.39	0.00
565.56	121.71
565.72	107.66
565.88	37.45
566.05	58.51
566.21	102.98
566.38	107.66
566.54	49.15
566.70	53.83
566.87	51.49
567.03	63.19
567.19	110.01
567.36	88.94
567.52	79.58
567.68	98.30
567.85	100.64
568.01	88.94
568.17	88.94
568.34	81.92
568.50	49.15
568.66	81.92
568.83	32.77
568.99	168.52
569.15	23.41
569.32	56.17
569.48	84.26
569.64	102.98
569.81	7.02
569.97	42.13
570.13	131.07
570.30	70.22
570.46	79.58
570.62	0.00
570.78	93.62
570.95	0.00
571.11	124.05
571.27	81.92
571.43	60.85
571.60	84.26
571.76	39.79
571.92	93.62
572.09	63.19
572.25	72.56
572.41	74.90
572.57	86.60
572.74	138.09
572.90	91.28
573.06	42.13
573.22	63.19
573.38	79.58
573.55	114.69
573.71	28.09
573.87	23.41
574.03	154.48
574.20	88.94
574.36	93.62
574.52	121.71
574.68	67.88
574.84	88.94
575.01	0.00
575.17	93.62
575.33	81.92
575.49	95.96
575.65	49.15
575.82	18.72
575.98	58.51
576.14	88.94
576.30	74.90
576.46	98.30
576.62	18.72
576.79	37.45
576.95	86.60
577.11	46.81
577.27	102.98
577.43	112.35
577.59	74.90
577.75	79.58
577.92	93.62
578.08	84.26
578.24	98.30
578.40	77.24
578.56	70.22
578.72	79.58
578.88	81.92
579.04	21.06
579.21	138.09
579.37	79.58
579.53	81.92
579.69	44.47
579.85	74.90
580.01	110.01
580.17	100.64
580.33	152.13
580.49	112.35
580.65	117.03
580.82	95.96
580.98	53.83
581.14	93.62
581.30	98.30
581.46	110.01
581.62	60.85
581.78	74.90
581.94	28.09
582.10	91.28
582.26	77.24
582.42	91.28
582.58	124.05
582.74	114.69
582.90	79.58
583.06	77.24
583.22	46.81
583.38	14.04
583.54	18.72
583.70	67.88
583.86	84.26
584.02	0.00
584.18	88.94
584.34	147.45
584.50	77.24
584.66	88.94
584.82	58.51
584.98	49.15
585.14	152.13
585.30	159.16
585.46	51.49
585.62	81.92
585.78	35.11
585.94	28.09
586.10	23.41
586.26	91.28
586.42	86.60
586.58	102.98
586.74	70.22
586.90	37.45
587.06	60.85
587.22	30.43
587.38	84.26
587.54	35.11
587.70	39.79
587.86	9.36
588.02	51.49
588.18	74.90
588.34	63.19
588.49	112.35
588.65	46.81
588.81	88.94
588.97	65.54
589.13	140.43
589.29	30.43
589.45	74.90
589.61	93.62
589.77	72.56
589.93	126.39
590.08	35.11
590.24	95.96
590.40	142.77
590.56	37.45
590.72	4.68
590.88	0.00
591.04	105.32
591.20	110.01
591.35	65.54
591.51	91.28
591.67	65.54
591.83	84.26
591.99	121.71
592.15	112.35
592.31	42.13
592.46	0.00
592.62	35.11
592.78	107.66
592.94	95.96
593.10	91.28
593.26	133.41
593.41	88.94
593.57	23.41
593.73	35.11
593.89	37.45
594.05	112.35
594.20	81.92
594.36	14.04
594.52	102.98
594.68	102.98
594.84	30.43
594.99	79.58
595.15	119.37
595.31	0.00
595.47	37.45
595.62	110.01
595.78	0.00
595.94	39.79
596.10	84.26
596.25	32.77
596.41	173.20
596.57	0.00
596.73	95.96
596.88	117.03
597.04	112.35
597.20	81.92
597.36	4.68
597.51	35.11
597.67	46.81
597.83	53.83
597.99	42.13
598.14	60.85
598.30	67.88
598.46	102.98
598.61	53.83
598.77	0.00
598.93	37.45
599.09	95.96
599.24	28.09
599.40	86.60
599.56	58.51
599.71	91.28
599.87	58.51
600.03	114.69
600.18	16.38
600.34	81.92
600.50	35.11
600.65	86.60
600.81	51.49
600.97	133.41
601.12	74.90
601.28	102.98
601.44	81.92
601.59	32.77
601.75	105.32
601.91	154.48
602.06	0.00
602.22	138.09
602.37	9.36
602.53	51.49
602.69	11.70
602.84	35.11
603.00	46.81
603.16	70.22
603.31	30.43
603.47	37.45
603.62	105.32
603.78	65.54
603.94	84.26
604.09	37.45
604.25	72.56
604.40	67.88
604.56	140.43
604.71	84.26
604.87	67.88
605.03	56.17
605.18	79.58
605.34	88.94
605.49	67.88
605.65	93.62
605.80	0.00
605.96	4.68
606.12	56.17
606.27	74.90
606.43	16.38
606.58	14.04
606.74	42.13
606.89	37.45
607.05	51.49
607.20	58.51
607.36	0.00
607.51	70.22
607.67	60.85
607.82	117.03
607.98	58.51
608.13	100.64
608.29	93.62
608.44	91.28
608.60	86.60
608.75	51.49
608.91	93.62
609.06	84.26
609.22	91.28
609.37	77.24
609.53	86.60
609.68	119.37
609.84	91.28
609.99	126.39
610.15	88.94
610.30	72.56
610.46	51.49
610.61	60.85
610.76	32.77
610.92	60.85
611.07	60.85
611.23	67.88
611.38	4.68
611.54	53.83
611.69	60.85
611.84	39.79
612.00	0.00
612.15	37.45
612.31	60.85
612.46	63.19
612.62	39.79
612.77	21.06
612.92	28.09
613.08	128.73
613.23	133.41
613.39	98.30
613.54	9.36
613.69	9.36
613.85	84.26
614.00	140.43
614.15	46.81
614.31	81.92
614.46	159.16
614.62	37.45
614.77	37.45
614.92	60.85
615.08	86.60
615.23	91.28
615.38	35.11
615.54	145.11
615.69	154.48
615.84	145.11
616.00	67.88
616.15	63.19
616.30	88.94
616.46	100.64
616.61	49.15
616.76	56.17
616.92	126.39
617.07	21.06
617.22	93.62
617.37	79.58
617.53	63.19
617.68	39.79
617.83	114.69
617.99	74.90
618.14	102.98
618.29	100.64
618.45	126.39
618.60	30.43
618.75	4.68
618.90	72.56
619.06	9.36
619.21	7.02
619.36	100.64
619.51	42.13
619.67	67.88
619.82	37.45
619.97	112.35
620.12	65.54
620.28	72.56
620.43	32.77
620.58	51.49
620.73	81.92
620.89	88.94
621.04	77.24
621.19	0.00
621.34	49.15
621.49	9.36
621.65	30.43
621.80	79.58
621.95	11.70
622.10	7.02
622.25	39.79
622.41	53.83
622.56	9.36
622.71	51.49
622.86	65.54
623.01	98.30
623.16	49.15
623.32	84.26
623.47	60.85
623.62	102.98
623.77	84.26
623.92	21.06
624.07	4.68
624.23	65.54
624.38	79.58
624.53	72.56
624.68	100.64
624.83	117.03
624.98	100.64
625.13	84.26
625.29	53.83
625.44	56.17
625.59	46.81
625.74	42.13
625.89	0.00
626.04	39.79
626.19	30.43
626.34	105.32
626.49	23.41
626.65	112.35
626.80	0.00
626.95	88.94
627.10	58.51
627.25	81.92
627.40	14.04
627.55	0.00
627.70	30.43
627.85	142.77
628.00	51.49
628.15	79.58
628.30	74.90
628.45	149.79
628.60	84.26
628.76	51.49
628.91	51.49
629.06	42.13
629.21	0.00
629.36	11.70
629.51	77.24
629.66	63.19
629.81	112.35
629.96	32.77
630.11	42.13
630.26	58.51
630.41	53.83
630.56	117.03
630.71	86.60
630.86	65.54
631.01	63.19
631.16	70.22
631.31	72.56
631.46	28.09
631.61	46.81
631.76	25.75
631.91	65.54
632.06	95.96
632.21	110.01
632.36	72.56
632.51	121.71
632.66	105.32
632.81	0.00
632.96	105.32
633.10	67.88
633.25	70.22
633.40	72.56
633.55	63.19
633.70	149.79
633.85	77.24
634.00	25.75
634.15	44.47
634.30	25.75
634.45	0.00
634.60	42.13
634.75	86.60
634.90	46.81
635.05	0.00
635.19	98.30
635.34	39.79
635.49	0.00
635.64	42.13
635.79	79.58
635.94	58.51
636.09	114.69
636.24	98.30
636.39	93.62
636.53	11.70
636.68	110.01
636.83	60.85
636.98	110.01
637.13	79.58
637.28	56.17
637.43	53.83
637.57	63.19
637.72	51.49
637.87	23.41
638.02	74.90
638.17	117.03
638.32	70.22
638.46	56.17
638.61	53.83
638.76	0.00
638.91	51.49
639.06	119.37
639.20	117.03
639.35	0.00
639.50	81.92
639.65	35.11
639.80	28.09
639.94	63.19
640.09	25.75
640.24	63.19
640.39	49.15
640.54	95.96
640.68	88.94
640.83	21.06
640.98	28.09
641.13	86.60
641.27	91.28
641.42	63.19
641.57	0.00
641.72	74.90
641.86	86.60
642.01	56.17
642.16	32.77
642.31	7.02
642.45	28.09
642.60	79.58
642.75	93.62
642.90	37.45
643.04	79.58
643.19	53.83
643.34	77.24
643.48	42.13
643.63	91.28
643.78	0.00
643.93	67.88
644.07	32.77
644.22	0.00
644.37	46.81
644.51	110.01
644.66	35.11
644.81	88.94
644.95	74.90
645.10	51.49
645.25	14.04
645.39	39.79
645.54	67.88
645.69	131.07
645.83	124.05
645.98	56.17
646.13	84.26
646.27	70.22
646.42	56.17
646.57	72.56
646.71	79.58
646.86	39.79
647.00	0.00
647.15	98.30
647.30	32.77
647.44	0.00
647.59	35.11
647.74	16.38
647.88	72.56
648.03	7.02
648.17	182.56
648.32	0.00
648.47	98.30
648.61	18.72
648.76	98.30
648.90	121.71
649.05	51.49
649.20	0.00
649.34	44.47
649.49	107.66
649.63	56.17
649.78	74.90
649.92	9.36
650.07	124.05
650.21	0.00
650.36	0.00
650.51	37.45
650.65	79.58
650.80	56.17
650.94	65.54
651.09	44.47
651.23	0.00
651.38	74.90
651.52	4.68
651.67	0.00
651.81	14.04
651.96	100.64
652.10	23.41
652.25	42.13
652.39	30.43
652.54	72.56
652.68	77.24
652.83	72.56
652.97	42.13
653.12	0.00
653.26	60.85
653.41	65.54
653.55	56.17
653.70	46.81
653.84	28.09
653.99	107.66
654.13	63.19
654.27	16.38
654.42	98.30
654.56	58.51
654.71	23.41
654.85	110.01
655.00	63.19
655.14	7.02
655.29	0.00
655.43	74.90
655.57	35.11
655.72	11.70
655.86	49.15
656.01	86.60
656.15	67.88
656.30	37.45
656.44	72.56
656.58	58.51
656.73	18.72
656.87	126.39
657.01	0.00
657.16	35.11
657.30	88.94
657.45	77.24
657.59	77.24
657.73	63.19
657.88	53.83
658.02	4.68
658.16	72.56
658.31	100.64
658.45	49.15
658.60	63.19
658.74	25.75
658.88	117.03
659.03	25.75
659.17	0.00
659.31	56.17
659.46	88.94
659.60	46.81
659.74	44.47
659.89	30.43
660.03	0.00
660.17	14.04
660.32	18.72
660.46	35.11
660.60	44.47
660.74	63.19
660.89	58.51
661.03	0.00
661.17	0.00
661.32	72.56
661.46	117.03
661.60	0.00
661.74	63.19
661.89	79.58
662.03	93.62
662.17	14.04
662.31	2.34
662.46	51.49
662.60	81.92
662.74	28.09
662.88	21.06
663.03	0.00
663.17	4.68
663.31	126.39
663.45	65.54
663.60	42.13
663.74	102.98
663.88	0.00
664.02	81.92
664.17	100.64
664.31	65.54
664.45	88.94
664.59	0.00
664.73	21.06
664.88	74.90
665.02	114.69
665.16	0.00
665.30	30.43
665.44	51.49
665.59	0.00
665.73	2.34
665.87	42.13
666.01	112.35
666.15	91.28
666.29	74.90
666.44	16.38
666.58	51.49
666.72	60.85
666.86	56.17
667.00	18.72
667.14	46.81
667.28	107.66
667.43	7.02
667.57	105.32
667.71	67.88
667.85	21.06
667.99	65.54
668.13	28.09
668.27	58.51
668.41	21.06
668.56	119.37
668.70	14.04
668.84	56.17
668.98	39.79
669.12	11.70
669.26	2.34
669.40	88.94
669.54	56.17
669.68	110.01
669.82	63.19
669.96	51.49
670.10	0.00
670.25	30.43
670.39	65.54
670.53	51.49
670.67	58.51
670.81	30.43
670.95	30.43
671.09	51.49
671.23	35.11
671.37	0.00
671.51	58.51
671.65	0.00
671.79	124.05
671.93	49.15
672.07	53.83
672.21	63.19
672.35	30.43
672.49	65.54
672.63	70.22
672.77	70.22
672.91	79.58
673.05	18.72
673.19	63.19
673.33	88.94
673.47	16.38
673.61	21.06
673.75	7.02
673.89	60.85
674.03	0.00
674.17	112.35
674.31	0.00
674.45	0.00
674.59	0.00
674.73	9.36
674.87	107.66
675.01	16.38
675.15	51.49
675.29	49.15
675.43	39.79
675.56	60.85
675.70	39.79
675.84	46.81
675.98	53.83
676.12	72.56
676.26	63.19
676.40	32.77
676.54	32.77
676.68	63.19
676.82	56.17
676.96	105.32
677.10	28.09
677.23	35.11
677.37	0.00
677.51	128.73
677.65	0.00
677.79	74.90
677.93	32.77
678.07	42.13
678.21	49.15
678.34	11.70
678.48	60.85
678.62	21.06
678.76	67.88
678.90	32.77
679.04	135.75
679.18	42.13
679.31	100.64
679.45	46.81
679.59	35.11
679.73	2.34
679.87	30.43
680.00	2.34
680.14	44.47
680.28	14.04
680.42	60.85
680.56	72.56
680.70	0.00
680.83	42.13
680.97	58.51
681.11	102.98
681.25	21.06
681.39	0.00
681.52	53.83
681.66	51.49
681.80	65.54
681.94	21.06
682.07	77.24
682.21	56.17
682.35	39.79
682.49	39.79
682.62	0.00
682.76	81.92
682.90	14.04
683.04	49.15
683.17	117.03
683.31	0.00
683.45	49.15
683.59	72.56
683.72	70.22
683.86	25.75
684.00	49.15
684.13	51.49
684.27	105.32
684.41	156.82
684.55	74.90
684.68	63.19
684.82	70.22
684.96	56.17
685.09	112.35
685.23	79.58
685.37	39.79
685.50	16.38
685.64	51.49
685.78	100.64
685.91	0.00
686.05	86.60
686.19	51.49
686.32	0.00
686.46	32.77
686.60	46.81
686.73	32.77
686.87	37.45
687.01	30.43
687.14	84.26
687.28	49.15
687.42	18.72
687.55	14.04
687.69	88.94
687.82	42.13
687.96	98.30
688.10	0.00
688.23	23.41
688.37	56.17
688.50	23.41
688.64	110.01
688.78	74.90
688.91	23.41
689.05	60.85
689.18	35.11
689.32	0.00
689.46	37.45
689.59	60.85
689.73	37.45
689.86	74.90
690.00	30.43
690.13	9.36
690.27	70.22
690.41	102.98
690.54	56.17
690.68	14.04
690.81	60.85
690.95	95.96
691.08	39.79
691.22	51.49
691.35	79.58
691.49	42.13
691.62	0.00
691.76	28.09
691.89	42.13
692.03	30.43
692.16	58.51
692.30	42.13
692.43	70.22
692.57	16.38
692.70	16.38
692.84	39.79
692.97	46.81
693.11	37.45
693.24	16.38
693.38	7.02
693.51	7.02
693.65	14.04
693.78	63.19
693.92	0.00
694.05	42.13
694.19	0.00
694.32	79.58
694.45	9.36
694.59	23.41
694.72	56.17
694.86	0.00
694.99	0.00
695.13	0.00
695.26	67.88
695.39	18.72
695.53	28.09
695.66	51.49
695.80	0.00
695.93	0.00
696.07	79.58
696.20	58.51
696.33	0.00
696.47	81.92
696.60	88.94
696.73	0.00
696.87	16.38
697.00	67.88
697.14	58.51
697.27	81.92
697.40	32.77
697.54	112.35
697.67	44.47
697.80	7.02
697.94	60.85
698.07	28.09
698.21	2.34
698.34	49.15
698.47	0.00
698.61	11.70
698.74	9.36
698.87	16.38
699.01	65.54
699.14	51.49
699.27	0.00
699.40	35.11
699.54	37.45
699.67	60.85
699.80	0.00
699.94	0.00
700.07	30.43
700.20	0.00
700.34	51.49
700.47	0.00
700.60	0.00
700.73	21.06
700.87	95.96
701.00	4.68
701.13	42.13
701.26	32.77
701.40	32.77
701.53	0.00
701.66	53.83
701.79	46.81
701.93	0.00
702.06	37.45
702.19	51.49
702.32	39.79
702.46	7.02
702.59	25.75
702.72	70.22
702.85	0.00
702.99	0.00
703.12	79.58
703.25	0.00
703.38	14.04
703.51	0.00
703.65	21.06
703.78	88.94
703.91	11.70
704.04	49.15
704.17	95.96
704.31	23.41
704.44	2.34
704.57	0.00
704.70	79.58
704.83	63.19
704.96	28.09
705.10	51.49
705.23	16.38
>>>>>End Processed Spectral Data<<<<<
