SpectraSuite Data File
++++++++++++++++++++++++++++++++++++
Date: Fri Oct 04 12:13:34 GMT-05:00 2013
User: price-jones
Dark Spectrum Present: No
Reference Spectrum Present: No
Number of Sampled Component Spectra: 1
Spectrometers: USB2+H05261
Integration Time (usec): 10000 (USB2+H05261)
Spectra Averaged: 1 (USB2+H05261)
Boxcar Smoothing: 0 (USB2+H05261)
Correct for Electrical Dark: No (USB2+H05261)
Strobe/Lamp Enabled: No (USB2+H05261)
Correct for Detector Non-linearity: No (USB2+H05261)
Correct for Stray Light: No (USB2+H05261)
Number of Pixels in Processed Spectrum: 2048
>>>>>Begin Processed Spectral Data<<<<<
365.73	0.00
365.92	0.00
366.12	0.00
366.32	0.00
366.52	0.00
366.72	0.00
366.91	0.00
367.11	0.00
367.31	0.00
367.51	0.00
367.70	0.00
367.90	0.00
368.10	0.00
368.30	0.00
368.49	0.00
368.69	0.00
368.89	0.00
369.09	0.00
369.28	0.00
369.48	0.00
369.68	0.00
369.87	0.00
370.07	0.00
370.27	0.00
370.47	0.00
370.66	0.00
370.86	0.00
371.06	0.00
371.25	0.00
371.45	0.00
371.65	9.36
371.84	0.00
372.04	0.00
372.24	0.00
372.44	30.43
372.63	2.34
372.83	30.43
373.03	63.19
373.22	23.41
373.42	67.88
373.62	9.36
373.81	0.00
374.01	44.47
374.21	30.43
374.40	2.34
374.60	4.68
374.79	4.68
374.99	0.00
375.19	0.00
375.38	58.51
375.58	67.88
375.78	70.22
375.97	0.00
376.17	14.04
376.37	0.00
376.56	0.00
376.76	44.47
376.95	0.00
377.15	9.36
377.35	70.22
377.54	0.00
377.74	14.04
377.93	18.72
378.13	2.34
378.33	0.00
378.52	0.00
378.72	0.00
378.91	9.36
379.11	0.00
379.31	142.77
379.50	0.00
379.70	0.00
379.89	4.68
380.09	35.11
380.28	67.88
380.48	14.04
380.68	0.00
380.87	14.04
381.07	0.00
381.26	0.00
381.46	51.49
381.65	46.81
381.85	7.02
382.04	0.00
382.24	30.43
382.43	23.41
382.63	35.11
382.83	119.37
383.02	65.54
383.22	74.90
383.41	60.85
383.61	0.00
383.80	25.75
384.00	4.68
384.19	4.68
384.39	46.81
384.58	11.70
384.78	7.02
384.97	7.02
385.17	0.00
385.36	0.00
385.56	18.72
385.75	58.51
385.95	72.56
386.14	4.68
386.34	42.13
386.53	0.00
386.72	2.34
386.92	9.36
387.11	88.94
387.31	74.90
387.50	72.56
387.70	28.09
387.89	0.00
388.09	25.75
388.28	21.06
388.48	0.00
388.67	44.47
388.86	51.49
389.06	7.02
389.25	18.72
389.45	28.09
389.64	0.00
389.84	56.17
390.03	58.51
390.22	14.04
390.42	30.43
390.61	44.47
390.81	46.81
391.00	107.66
391.19	42.13
391.39	9.36
391.58	0.00
391.78	16.38
391.97	0.00
392.16	35.11
392.36	102.98
392.55	23.41
392.75	14.04
392.94	35.11
393.13	16.38
393.33	25.75
393.52	4.68
393.71	2.34
393.91	4.68
394.10	4.68
394.29	58.51
394.49	30.43
394.68	63.19
394.88	0.00
395.07	25.75
395.26	0.00
395.46	0.00
395.65	0.00
395.84	7.02
396.04	49.15
396.23	0.00
396.42	0.00
396.62	16.38
396.81	0.00
397.00	51.49
397.19	9.36
397.39	0.00
397.58	0.00
397.77	44.47
397.97	0.00
398.16	0.00
398.35	81.92
398.55	28.09
398.74	46.81
398.93	0.00
399.12	39.79
399.32	65.54
399.51	107.66
399.70	102.98
399.90	32.77
400.09	44.47
400.28	21.06
400.47	4.68
400.67	65.54
400.86	0.00
401.05	0.00
401.24	0.00
401.44	23.41
401.63	28.09
401.82	72.56
402.01	32.77
402.21	74.90
402.40	0.00
402.59	39.79
402.78	18.72
402.97	37.45
403.17	84.26
403.36	88.94
403.55	60.85
403.74	60.85
403.93	32.77
404.13	37.45
404.32	63.19
404.51	42.13
404.70	74.90
404.89	21.06
405.09	42.13
405.28	23.41
405.47	25.75
405.66	0.00
405.85	86.60
406.05	30.43
406.24	11.70
406.43	63.19
406.62	70.22
406.81	39.79
407.00	0.00
407.20	0.00
407.39	21.06
407.58	46.81
407.77	18.72
407.96	32.77
408.15	49.15
408.34	98.30
408.54	0.00
408.73	44.47
408.92	100.64
409.11	11.70
409.30	37.45
409.49	65.54
409.68	35.11
409.87	114.69
410.07	37.45
410.26	114.69
410.45	0.00
410.64	0.00
410.83	2.34
411.02	25.75
411.21	44.47
411.40	44.47
411.59	51.49
411.78	32.77
411.98	51.49
412.17	0.00
412.36	60.85
412.55	58.51
412.74	53.83
412.93	79.58
413.12	74.90
413.31	0.00
413.50	32.77
413.69	63.19
413.88	49.15
414.07	79.58
414.26	51.49
414.45	16.38
414.64	30.43
414.83	46.81
415.02	70.22
415.22	32.77
415.41	46.81
415.60	21.06
415.79	65.54
415.98	58.51
416.17	35.11
416.36	63.19
416.55	39.79
416.74	0.00
416.93	25.75
417.12	74.90
417.31	39.79
417.50	63.19
417.69	0.00
417.88	58.51
418.07	14.04
418.26	9.36
418.45	49.15
418.64	25.75
418.83	42.13
419.02	0.00
419.21	51.49
419.39	35.11
419.58	60.85
419.77	2.34
419.96	25.75
420.15	18.72
420.34	16.38
420.53	49.15
420.72	37.45
420.91	28.09
421.10	11.70
421.29	56.17
421.48	39.79
421.67	53.83
421.86	32.77
422.05	53.83
422.24	60.85
422.43	32.77
422.61	16.38
422.80	53.83
422.99	42.13
423.18	21.06
423.37	58.51
423.56	30.43
423.75	39.79
423.94	0.00
424.13	9.36
424.32	67.88
424.50	51.49
424.69	35.11
424.88	25.75
425.07	30.43
425.26	70.22
425.45	25.75
425.64	32.77
425.83	39.79
426.01	32.77
426.20	46.81
426.39	32.77
426.58	88.94
426.77	95.96
426.96	102.98
427.15	72.56
427.33	72.56
427.52	49.15
427.71	114.69
427.90	79.58
428.09	42.13
428.28	112.35
428.46	14.04
428.65	42.13
428.84	28.09
429.03	2.34
429.22	91.28
429.40	23.41
429.59	46.81
429.78	42.13
429.97	0.00
430.16	39.79
430.34	0.00
430.53	49.15
430.72	91.28
430.91	91.28
431.10	4.68
431.28	0.00
431.47	70.22
431.66	95.96
431.85	53.83
432.03	30.43
432.22	14.04
432.41	0.00
432.60	0.00
432.79	74.90
432.97	86.60
433.16	0.00
433.35	49.15
433.54	0.00
433.72	88.94
433.91	0.00
434.10	53.83
434.28	35.11
434.47	28.09
434.66	100.64
434.85	86.60
435.03	39.79
435.22	98.30
435.41	37.45
435.59	30.43
435.78	28.09
435.97	39.79
436.16	121.71
436.34	110.01
436.53	4.68
436.72	0.00
436.90	67.88
437.09	18.72
437.28	44.47
437.46	51.49
437.65	74.90
437.84	107.66
438.02	0.00
438.21	49.15
438.40	124.05
438.58	39.79
438.77	0.00
438.96	42.13
439.14	32.77
439.33	63.19
439.52	9.36
439.70	0.00
439.89	138.09
440.08	16.38
440.26	53.83
440.45	23.41
440.63	2.34
440.82	42.13
441.01	79.58
441.19	86.60
441.38	37.45
441.57	110.01
441.75	58.51
441.94	105.32
442.12	70.22
442.31	23.41
442.50	2.34
442.68	4.68
442.87	42.13
443.05	39.79
443.24	53.83
443.43	44.47
443.61	0.00
443.80	60.85
443.98	44.47
444.17	0.00
444.35	51.49
444.54	81.92
444.73	117.03
444.91	44.47
445.10	98.30
445.28	0.00
445.47	0.00
445.65	53.83
445.84	11.70
446.02	32.77
446.21	30.43
446.39	44.47
446.58	72.56
446.77	53.83
446.95	30.43
447.14	42.13
447.32	0.00
447.51	42.13
447.69	53.83
447.88	72.56
448.06	37.45
448.25	79.58
448.43	72.56
448.62	25.75
448.80	0.00
448.99	7.02
449.17	67.88
449.36	114.69
449.54	95.96
449.73	119.37
449.91	21.06
450.10	39.79
450.28	56.17
450.46	46.81
450.65	56.17
450.83	42.13
451.02	79.58
451.20	86.60
451.39	72.56
451.57	124.05
451.76	53.83
451.94	30.43
452.13	9.36
452.31	0.00
452.49	112.35
452.68	42.13
452.86	2.34
453.05	102.98
453.23	46.81
453.42	100.64
453.60	102.98
453.78	102.98
453.97	91.28
454.15	56.17
454.34	39.79
454.52	77.24
454.70	102.98
454.89	0.00
455.07	86.60
455.26	63.19
455.44	100.64
455.62	14.04
455.81	56.17
455.99	70.22
456.17	0.00
456.36	117.03
456.54	9.36
456.73	44.47
456.91	74.90
457.09	0.00
457.28	30.43
457.46	23.41
457.64	105.32
457.83	44.47
458.01	35.11
458.19	28.09
458.38	35.11
458.56	11.70
458.74	18.72
458.93	98.30
459.11	28.09
459.29	70.22
459.48	98.30
459.66	79.58
459.84	65.54
460.03	30.43
460.21	42.13
460.39	4.68
460.57	63.19
460.76	159.16
460.94	0.00
461.12	56.17
461.31	95.96
461.49	49.15
461.67	18.72
461.85	58.51
462.04	51.49
462.22	124.05
462.40	49.15
462.59	72.56
462.77	18.72
462.95	0.00
463.13	18.72
463.32	30.43
463.50	72.56
463.68	0.00
463.86	9.36
464.05	53.83
464.23	58.51
464.41	81.92
464.59	124.05
464.78	86.60
464.96	42.13
465.14	114.69
465.32	110.01
465.50	14.04
465.69	70.22
465.87	23.41
466.05	51.49
466.23	74.90
466.41	74.90
466.60	28.09
466.78	21.06
466.96	25.75
467.14	100.64
467.32	37.45
467.51	37.45
467.69	102.98
467.87	7.02
468.05	0.00
468.23	93.62
468.41	35.11
468.60	72.56
468.78	51.49
468.96	42.13
469.14	117.03
469.32	0.00
469.50	81.92
469.69	28.09
469.87	135.75
470.05	39.79
470.23	117.03
470.41	131.07
470.59	42.13
470.77	21.06
470.95	77.24
471.14	44.47
471.32	32.77
471.50	23.41
471.68	14.04
471.86	23.41
472.04	72.56
472.22	124.05
472.40	51.49
472.58	35.11
472.77	70.22
472.95	4.68
473.13	28.09
473.31	77.24
473.49	86.60
473.67	32.77
473.85	93.62
474.03	44.47
474.21	16.38
474.39	93.62
474.57	9.36
474.75	93.62
474.93	126.39
475.12	0.00
475.30	72.56
475.48	30.43
475.66	49.15
475.84	95.96
476.02	65.54
476.20	74.90
476.38	4.68
476.56	93.62
476.74	74.90
476.92	37.45
477.10	35.11
477.28	63.19
477.46	77.24
477.64	0.00
477.82	98.30
478.00	32.77
478.18	44.47
478.36	44.47
478.54	95.96
478.72	131.07
478.90	105.32
479.08	39.79
479.26	84.26
479.44	91.28
479.62	46.81
479.80	7.02
479.98	107.66
480.16	51.49
480.34	60.85
480.52	21.06
480.70	79.58
480.88	44.47
481.06	91.28
481.24	119.37
481.41	53.83
481.59	16.38
481.77	53.83
481.95	98.30
482.13	107.66
482.31	91.28
482.49	42.13
482.67	77.24
482.85	72.56
483.03	16.38
483.21	74.90
483.39	21.06
483.57	124.05
483.74	70.22
483.92	102.98
484.10	74.90
484.28	37.45
484.46	30.43
484.64	114.69
484.82	56.17
485.00	0.00
485.18	21.06
485.35	121.71
485.53	58.51
485.71	42.13
485.89	25.75
486.07	77.24
486.25	67.88
486.43	11.70
486.61	65.54
486.78	84.26
486.96	60.85
487.14	58.51
487.32	42.13
487.50	79.58
487.68	32.77
487.85	102.98
488.03	67.88
488.21	53.83
488.39	63.19
488.57	81.92
488.75	63.19
488.92	65.54
489.10	107.66
489.28	100.64
489.46	53.83
489.64	79.58
489.81	65.54
489.99	81.92
490.17	138.09
490.35	63.19
490.53	74.90
490.70	121.71
490.88	65.54
491.06	46.81
491.24	14.04
491.41	84.26
491.59	100.64
491.77	39.79
491.95	67.88
492.13	98.30
492.30	49.15
492.48	25.75
492.66	28.09
492.84	25.75
493.01	32.77
493.19	79.58
493.37	42.13
493.54	51.49
493.72	72.56
493.90	79.58
494.08	105.32
494.25	98.30
494.43	77.24
494.61	56.17
494.79	102.98
494.96	98.30
495.14	53.83
495.32	121.71
495.49	128.73
495.67	4.68
495.85	114.69
496.02	124.05
496.20	117.03
496.38	44.47
496.55	44.47
496.73	147.45
496.91	110.01
497.09	147.45
497.26	105.32
497.44	58.51
497.62	84.26
497.79	86.60
497.97	72.56
498.14	14.04
498.32	32.77
498.50	86.60
498.67	124.05
498.85	91.28
499.03	121.71
499.20	105.32
499.38	133.41
499.56	149.79
499.73	95.96
499.91	39.79
500.08	95.96
500.26	95.96
500.44	88.94
500.61	58.51
500.79	105.32
500.97	93.62
501.14	128.73
501.32	16.38
501.49	93.62
501.67	88.94
501.84	49.15
502.02	138.09
502.20	98.30
502.37	65.54
502.55	110.01
502.72	102.98
502.90	135.75
503.07	91.28
503.25	35.11
503.43	46.81
503.60	110.01
503.78	58.51
503.95	142.77
504.13	114.69
504.30	30.43
504.48	138.09
504.65	124.05
504.83	95.96
505.01	70.22
505.18	58.51
505.36	58.51
505.53	39.79
505.71	102.98
505.88	0.00
506.06	9.36
506.23	67.88
506.41	145.11
506.58	95.96
506.76	53.83
506.93	79.58
507.11	121.71
507.28	35.11
507.46	100.64
507.63	86.60
507.81	88.94
507.98	131.07
508.16	37.45
508.33	133.41
508.50	51.49
508.68	65.54
508.85	74.90
509.03	91.28
509.20	60.85
509.38	53.83
509.55	124.05
509.73	140.43
509.90	138.09
510.08	65.54
510.25	100.64
510.42	56.17
510.60	98.30
510.77	152.13
510.95	49.15
511.12	84.26
511.30	81.92
511.47	81.92
511.64	95.96
511.82	60.85
511.99	0.00
512.17	56.17
512.34	51.49
512.51	42.13
512.69	124.05
512.86	11.70
513.04	32.77
513.21	37.45
513.38	39.79
513.56	53.83
513.73	81.92
513.90	18.72
514.08	86.60
514.25	51.49
514.43	126.39
514.60	140.43
514.77	84.26
514.95	131.07
515.12	46.81
515.29	98.30
515.47	81.92
515.64	25.75
515.81	35.11
515.99	21.06
516.16	124.05
516.33	88.94
516.51	65.54
516.68	49.15
516.85	0.00
517.03	49.15
517.20	107.66
517.37	100.64
517.54	32.77
517.72	74.90
517.89	63.19
518.06	67.88
518.24	42.13
518.41	56.17
518.58	86.60
518.75	32.77
518.93	65.54
519.10	4.68
519.27	65.54
519.45	91.28
519.62	119.37
519.79	128.73
519.96	105.32
520.14	93.62
520.31	67.88
520.48	44.47
520.65	16.38
520.83	102.98
521.00	110.01
521.17	86.60
521.34	56.17
521.52	105.32
521.69	72.56
521.86	119.37
522.03	32.77
522.20	49.15
522.38	67.88
522.55	65.54
522.72	53.83
522.89	23.41
523.07	77.24
523.24	35.11
523.41	102.98
523.58	49.15
523.75	35.11
523.92	77.24
524.10	25.75
524.27	105.32
524.44	74.90
524.61	46.81
524.78	39.79
524.96	63.19
525.13	119.37
525.30	93.62
525.47	126.39
525.64	67.88
525.81	58.51
525.98	60.85
526.16	58.51
526.33	49.15
526.50	88.94
526.67	105.32
526.84	79.58
527.01	65.54
527.18	154.48
527.36	25.75
527.53	102.98
527.70	9.36
527.87	60.85
528.04	107.66
528.21	63.19
528.38	98.30
528.55	74.90
528.72	100.64
528.89	112.35
529.07	88.94
529.24	65.54
529.41	102.98
529.58	98.30
529.75	51.49
529.92	121.71
530.09	74.90
530.26	112.35
530.43	44.47
530.60	93.62
530.77	142.77
530.94	140.43
531.11	74.90
531.28	37.45
531.46	72.56
531.63	79.58
531.80	84.26
531.97	119.37
532.14	95.96
532.31	32.77
532.48	74.90
532.65	77.24
532.82	135.75
532.99	105.32
533.16	77.24
533.33	46.81
533.50	11.70
533.67	140.43
533.84	154.48
534.01	21.06
534.18	142.77
534.35	110.01
534.52	72.56
534.69	142.77
534.86	93.62
535.03	95.96
535.20	51.49
535.37	81.92
535.54	117.03
535.71	114.69
535.88	105.32
536.05	65.54
536.22	60.85
536.38	86.60
536.55	126.39
536.72	105.32
536.89	51.49
537.06	60.85
537.23	121.71
537.40	51.49
537.57	65.54
537.74	51.49
537.91	84.26
538.08	53.83
538.25	138.09
538.42	128.73
538.59	98.30
538.75	154.48
538.92	44.47
539.09	91.28
539.26	67.88
539.43	60.85
539.60	0.00
539.77	88.94
539.94	70.22
540.11	124.05
540.28	70.22
540.44	56.17
540.61	112.35
540.78	51.49
540.95	39.79
541.12	100.64
541.29	121.71
541.46	112.35
541.62	39.79
541.79	77.24
541.96	79.58
542.13	121.71
542.30	65.54
542.47	117.03
542.63	131.07
542.80	72.56
542.97	98.30
543.14	58.51
543.31	107.66
543.48	81.92
543.64	81.92
543.81	51.49
543.98	63.19
544.15	74.90
544.32	81.92
544.48	56.17
544.65	37.45
544.82	51.49
544.99	102.98
545.16	119.37
545.32	72.56
545.49	135.75
545.66	44.47
545.83	86.60
546.00	77.24
546.16	56.17
546.33	105.32
546.50	65.54
546.67	114.69
546.83	114.69
547.00	102.98
547.17	124.05
547.34	74.90
547.50	98.30
547.67	18.72
547.84	84.26
548.00	49.15
548.17	107.66
548.34	70.22
548.51	107.66
548.67	107.66
548.84	65.54
549.01	49.15
549.18	110.01
549.34	126.39
549.51	56.17
549.68	86.60
549.84	88.94
550.01	7.02
550.18	79.58
550.34	30.43
550.51	74.90
550.68	100.64
550.84	65.54
551.01	4.68
551.18	70.22
551.34	93.62
551.51	42.13
551.68	114.69
551.84	133.41
552.01	70.22
552.18	112.35
552.34	81.92
552.51	154.48
552.68	86.60
552.84	98.30
553.01	126.39
553.18	81.92
553.34	121.71
553.51	91.28
553.67	67.88
553.84	147.45
554.01	86.60
554.17	25.75
554.34	81.92
554.51	44.47
554.67	65.54
554.84	56.17
555.00	114.69
555.17	72.56
555.33	133.41
555.50	37.45
555.67	126.39
555.83	67.88
556.00	60.85
556.16	93.62
556.33	135.75
556.50	77.24
556.66	65.54
556.83	93.62
556.99	25.75
557.16	81.92
557.32	51.49
557.49	74.90
557.65	229.37
557.82	58.51
557.98	37.45
558.15	102.98
558.32	35.11
558.48	77.24
558.65	93.62
558.81	35.11
558.98	86.60
559.14	39.79
559.31	77.24
559.47	159.16
559.64	51.49
559.80	28.09
559.97	107.66
560.13	126.39
560.30	44.47
560.46	53.83
560.63	147.45
560.79	86.60
560.96	133.41
561.12	58.51
561.29	88.94
561.45	95.96
561.61	72.56
561.78	105.32
561.94	63.19
562.11	107.66
562.27	72.56
562.44	51.49
562.60	102.98
562.77	107.66
562.93	84.26
563.10	79.58
563.26	93.62
563.42	126.39
563.59	95.96
563.75	60.85
563.92	93.62
564.08	51.49
564.24	74.90
564.41	88.94
564.57	56.17
564.74	81.92
564.90	53.83
565.07	133.41
565.23	25.75
565.39	25.75
565.56	152.13
565.72	102.98
565.88	77.24
566.05	51.49
566.21	70.22
566.38	49.15
566.54	88.94
566.70	98.30
566.87	42.13
567.03	110.01
567.19	25.75
567.36	105.32
567.52	28.09
567.68	56.17
567.85	91.28
568.01	58.51
568.17	63.19
568.34	23.41
568.50	93.62
568.66	39.79
568.83	70.22
568.99	95.96
569.15	60.85
569.32	91.28
569.48	133.41
569.64	39.79
569.81	102.98
569.97	0.00
570.13	42.13
570.30	88.94
570.46	65.54
570.62	67.88
570.78	159.16
570.95	88.94
571.11	117.03
571.27	88.94
571.43	91.28
571.60	25.75
571.76	81.92
571.92	112.35
572.09	84.26
572.25	102.98
572.41	105.32
572.57	56.17
572.74	72.56
572.90	86.60
573.06	63.19
573.22	81.92
573.38	70.22
573.55	56.17
573.71	72.56
573.87	121.71
574.03	112.35
574.20	46.81
574.36	58.51
574.52	72.56
574.68	81.92
574.84	91.28
575.01	53.83
575.17	81.92
575.33	88.94
575.49	128.73
575.65	67.88
575.82	46.81
575.98	65.54
576.14	88.94
576.30	100.64
576.46	93.62
576.62	42.13
576.79	93.62
576.95	135.75
577.11	105.32
577.27	112.35
577.43	30.43
577.59	65.54
577.75	138.09
577.92	117.03
578.08	88.94
578.24	117.03
578.40	30.43
578.56	161.50
578.72	67.88
578.88	35.11
579.04	70.22
579.21	44.47
579.37	77.24
579.53	133.41
579.69	126.39
579.85	98.30
580.01	88.94
580.17	28.09
580.33	142.77
580.49	32.77
580.65	105.32
580.82	14.04
580.98	86.60
581.14	79.58
581.30	124.05
581.46	9.36
581.62	93.62
581.78	126.39
581.94	28.09
582.10	60.85
582.26	63.19
582.42	131.07
582.58	0.00
582.74	51.49
582.90	114.69
583.06	79.58
583.22	63.19
583.38	0.00
583.54	91.28
583.70	110.01
583.86	98.30
584.02	124.05
584.18	105.32
584.34	86.60
584.50	53.83
584.66	93.62
584.82	117.03
584.98	46.81
585.14	117.03
585.30	81.92
585.46	77.24
585.62	98.30
585.78	65.54
585.94	46.81
586.10	35.11
586.26	133.41
586.42	44.47
586.58	7.02
586.74	60.85
586.90	58.51
587.06	0.00
587.22	39.79
587.38	84.26
587.54	63.19
587.70	74.90
587.86	102.98
588.02	95.96
588.18	28.09
588.34	72.56
588.49	88.94
588.65	11.70
588.81	63.19
588.97	49.15
589.13	23.41
589.29	91.28
589.45	16.38
589.61	58.51
589.77	81.92
589.93	42.13
590.08	67.88
590.24	77.24
590.40	4.68
590.56	67.88
590.72	60.85
590.88	79.58
591.04	65.54
591.20	14.04
591.35	112.35
591.51	77.24
591.67	42.13
591.83	46.81
591.99	93.62
592.15	44.47
592.31	70.22
592.46	91.28
592.62	74.90
592.78	46.81
592.94	30.43
593.10	77.24
593.26	42.13
593.41	53.83
593.57	126.39
593.73	74.90
593.89	79.58
594.05	67.88
594.20	39.79
594.36	63.19
594.52	51.49
594.68	110.01
594.84	53.83
594.99	25.75
595.15	81.92
595.31	107.66
595.47	98.30
595.62	74.90
595.78	81.92
595.94	105.32
596.10	58.51
596.25	58.51
596.41	39.79
596.57	102.98
596.73	60.85
596.88	128.73
597.04	30.43
597.20	7.02
597.36	110.01
597.51	46.81
597.67	60.85
597.83	63.19
597.99	51.49
598.14	23.41
598.30	11.70
598.46	53.83
598.61	91.28
598.77	39.79
598.93	49.15
599.09	63.19
599.24	79.58
599.40	119.37
599.56	98.30
599.71	65.54
599.87	46.81
600.03	74.90
600.18	110.01
600.34	81.92
600.50	42.13
600.65	49.15
600.81	0.00
600.97	37.45
601.12	58.51
601.28	70.22
601.44	7.02
601.59	16.38
601.75	53.83
601.91	147.45
602.06	102.98
602.22	95.96
602.37	51.49
602.53	0.00
602.69	95.96
602.84	46.81
603.00	67.88
603.16	72.56
603.31	112.35
603.47	28.09
603.62	49.15
603.78	117.03
603.94	65.54
604.09	65.54
604.25	53.83
604.40	91.28
604.56	2.34
604.71	95.96
604.87	79.58
605.03	84.26
605.18	37.45
605.34	79.58
605.49	42.13
605.65	67.88
605.80	60.85
605.96	72.56
606.12	70.22
606.27	95.96
606.43	49.15
606.58	56.17
606.74	39.79
606.89	7.02
607.05	100.64
607.20	79.58
607.36	93.62
607.51	67.88
607.67	18.72
607.82	112.35
607.98	119.37
608.13	60.85
608.29	86.60
608.44	53.83
608.60	107.66
608.75	14.04
608.91	81.92
609.06	79.58
609.22	46.81
609.37	63.19
609.53	42.13
609.68	95.96
609.84	0.00
609.99	156.82
610.15	88.94
610.30	53.83
610.46	72.56
610.61	32.77
610.76	126.39
610.92	46.81
611.07	79.58
611.23	51.49
611.38	32.77
611.54	51.49
611.69	110.01
611.84	107.66
612.00	91.28
612.15	30.43
612.31	79.58
612.46	81.92
612.62	60.85
612.77	28.09
612.92	49.15
613.08	95.96
613.23	98.30
613.39	46.81
613.54	37.45
613.69	23.41
613.85	42.13
614.00	65.54
614.15	77.24
614.31	65.54
614.46	72.56
614.62	102.98
614.77	131.07
614.92	35.11
615.08	49.15
615.23	98.30
615.38	124.05
615.54	70.22
615.69	126.39
615.84	46.81
616.00	110.01
616.15	100.64
616.30	4.68
616.46	70.22
616.61	63.19
616.76	112.35
616.92	72.56
617.07	37.45
617.22	37.45
617.37	84.26
617.53	84.26
617.68	65.54
617.83	95.96
617.99	84.26
618.14	58.51
618.29	63.19
618.45	88.94
618.60	46.81
618.75	16.38
618.90	49.15
619.06	65.54
619.21	28.09
619.36	63.19
619.51	30.43
619.67	102.98
619.82	0.00
619.97	32.77
620.12	110.01
620.28	67.88
620.43	135.75
620.58	72.56
620.73	58.51
620.89	56.17
621.04	60.85
621.19	131.07
621.34	159.16
621.49	44.47
621.65	21.06
621.80	35.11
621.95	81.92
622.10	58.51
622.25	39.79
622.41	30.43
622.56	39.79
622.71	51.49
622.86	107.66
623.01	18.72
623.16	49.15
623.32	51.49
623.47	102.98
623.62	56.17
623.77	88.94
623.92	37.45
624.07	100.64
624.23	156.82
624.38	49.15
624.53	81.92
624.68	53.83
624.83	9.36
624.98	147.45
625.13	0.00
625.29	70.22
625.44	128.73
625.59	65.54
625.74	86.60
625.89	67.88
626.04	56.17
626.19	2.34
626.34	4.68
626.49	53.83
626.65	35.11
626.80	46.81
626.95	91.28
627.10	79.58
627.25	107.66
627.40	53.83
627.55	28.09
627.70	58.51
627.85	56.17
628.00	32.77
628.15	60.85
628.30	0.00
628.45	117.03
628.60	72.56
628.76	42.13
628.91	77.24
629.06	105.32
629.21	79.58
629.36	91.28
629.51	14.04
629.66	60.85
629.81	110.01
629.96	51.49
630.11	25.75
630.26	70.22
630.41	25.75
630.56	88.94
630.71	51.49
630.86	16.38
631.01	56.17
631.16	102.98
631.31	65.54
631.46	98.30
631.61	28.09
631.76	44.47
631.91	88.94
632.06	18.72
632.21	140.43
632.36	102.98
632.51	88.94
632.66	70.22
632.81	39.79
632.96	49.15
633.10	60.85
633.25	149.79
633.40	4.68
633.55	86.60
633.70	63.19
633.85	49.15
634.00	102.98
634.15	110.01
634.30	74.90
634.45	77.24
634.60	44.47
634.75	51.49
634.90	0.00
635.05	39.79
635.19	105.32
635.34	145.11
635.49	0.00
635.64	72.56
635.79	32.77
635.94	88.94
636.09	77.24
636.24	98.30
636.39	74.90
636.53	0.00
636.68	37.45
636.83	28.09
636.98	95.96
637.13	56.17
637.28	74.90
637.43	58.51
637.57	7.02
637.72	49.15
637.87	11.70
638.02	72.56
638.17	53.83
638.32	21.06
638.46	0.00
638.61	121.71
638.76	0.00
638.91	70.22
639.06	84.26
639.20	100.64
639.35	53.83
639.50	49.15
639.65	49.15
639.80	105.32
639.94	84.26
640.09	102.98
640.24	18.72
640.39	53.83
640.54	65.54
640.68	23.41
640.83	0.00
640.98	128.73
641.13	107.66
641.27	51.49
641.42	42.13
641.57	100.64
641.72	77.24
641.86	63.19
642.01	44.47
642.16	18.72
642.31	65.54
642.45	114.69
642.60	0.00
642.75	51.49
642.90	14.04
643.04	70.22
643.19	84.26
643.34	21.06
643.48	18.72
643.63	0.00
643.78	112.35
643.93	77.24
644.07	88.94
644.22	16.38
644.37	30.43
644.51	159.16
644.66	65.54
644.81	37.45
644.95	60.85
645.10	63.19
645.25	49.15
645.39	49.15
645.54	46.81
645.69	88.94
645.83	100.64
645.98	46.81
646.13	77.24
646.27	46.81
646.42	63.19
646.57	49.15
646.71	93.62
646.86	53.83
647.00	32.77
647.15	67.88
647.30	0.00
647.44	0.00
647.59	53.83
647.74	72.56
647.88	37.45
648.03	65.54
648.17	37.45
648.32	28.09
648.47	21.06
648.61	105.32
648.76	65.54
648.90	32.77
649.05	60.85
649.20	53.83
649.34	53.83
649.49	58.51
649.63	58.51
649.78	70.22
649.92	28.09
650.07	0.00
650.21	56.17
650.36	7.02
650.51	145.11
650.65	0.00
650.80	58.51
650.94	0.00
651.09	77.24
651.23	84.26
651.38	112.35
651.52	42.13
651.67	102.98
651.81	67.88
651.96	114.69
652.10	51.49
652.25	42.13
652.39	86.60
652.54	51.49
652.68	0.00
652.83	42.13
652.97	86.60
653.12	65.54
653.26	88.94
653.41	72.56
653.55	0.00
653.70	72.56
653.84	28.09
653.99	86.60
654.13	81.92
654.27	7.02
654.42	16.38
654.56	77.24
654.71	42.13
654.85	88.94
655.00	7.02
655.14	46.81
655.29	21.06
655.43	147.45
655.57	67.88
655.72	46.81
655.86	100.64
656.01	39.79
656.15	88.94
656.30	32.77
656.44	79.58
656.58	58.51
656.73	0.00
656.87	70.22
657.01	14.04
657.16	0.00
657.30	58.51
657.45	35.11
657.59	77.24
657.73	25.75
657.88	79.58
658.02	51.49
658.16	91.28
658.31	77.24
658.45	9.36
658.60	9.36
658.74	39.79
658.88	46.81
659.03	42.13
659.17	105.32
659.31	88.94
659.46	46.81
659.60	79.58
659.74	49.15
659.89	0.00
660.03	74.90
660.17	0.00
660.32	67.88
660.46	28.09
660.60	53.83
660.74	25.75
660.89	49.15
661.03	49.15
661.17	14.04
661.32	32.77
661.46	0.00
661.60	79.58
661.74	7.02
661.89	37.45
662.03	37.45
662.17	21.06
662.31	88.94
662.46	74.90
662.60	0.00
662.74	53.83
662.88	58.51
663.03	88.94
663.17	0.00
663.31	112.35
663.45	84.26
663.60	56.17
663.74	35.11
663.88	18.72
664.02	79.58
664.17	126.39
664.31	81.92
664.45	67.88
664.59	79.58
664.73	0.00
664.88	7.02
665.02	51.49
665.16	21.06
665.30	60.85
665.44	95.96
665.59	32.77
665.73	0.00
665.87	74.90
666.01	100.64
666.15	105.32
666.29	60.85
666.44	81.92
666.58	14.04
666.72	14.04
666.86	23.41
667.00	100.64
667.14	65.54
667.28	9.36
667.43	65.54
667.57	35.11
667.71	58.51
667.85	21.06
667.99	65.54
668.13	51.49
668.27	53.83
668.41	7.02
668.56	25.75
668.70	35.11
668.84	60.85
668.98	46.81
669.12	100.64
669.26	0.00
669.40	77.24
669.54	81.92
669.68	28.09
669.82	44.47
669.96	25.75
670.10	105.32
670.25	74.90
670.39	72.56
670.53	14.04
670.67	58.51
670.81	28.09
670.95	65.54
671.09	60.85
671.23	77.24
671.37	74.90
671.51	95.96
671.65	9.36
671.79	70.22
671.93	91.28
672.07	0.00
672.21	93.62
672.35	102.98
672.49	9.36
672.63	65.54
672.77	60.85
672.91	67.88
673.05	42.13
673.19	4.68
673.33	37.45
673.47	0.00
673.61	63.19
673.75	65.54
673.89	0.00
674.03	35.11
674.17	18.72
674.31	102.98
674.45	0.00
674.59	0.00
674.73	53.83
674.87	30.43
675.01	37.45
675.15	51.49
675.29	77.24
675.43	154.48
675.56	44.47
675.70	51.49
675.84	28.09
675.98	60.85
676.12	32.77
676.26	98.30
676.40	42.13
676.54	32.77
676.68	0.00
676.82	0.00
676.96	65.54
677.10	79.58
677.23	51.49
677.37	35.11
677.51	53.83
677.65	0.00
677.79	14.04
677.93	49.15
678.07	72.56
678.21	56.17
678.34	21.06
678.48	32.77
678.62	49.15
678.76	30.43
678.90	51.49
679.04	0.00
679.18	21.06
679.31	67.88
679.45	46.81
679.59	32.77
679.73	32.77
679.87	100.64
680.00	7.02
680.14	25.75
680.28	72.56
680.42	4.68
680.56	16.38
680.70	0.00
680.83	0.00
680.97	0.00
681.11	46.81
681.25	2.34
681.39	11.70
681.52	46.81
681.66	42.13
681.80	63.19
681.94	77.24
682.07	77.24
682.21	70.22
682.35	0.00
682.49	0.00
682.62	88.94
682.76	0.00
682.90	16.38
683.04	14.04
683.17	65.54
683.31	35.11
683.45	0.00
683.59	102.98
683.72	98.30
683.86	58.51
684.00	16.38
684.13	58.51
684.27	63.19
684.41	42.13
684.55	35.11
684.68	53.83
684.82	0.00
684.96	74.90
685.09	0.00
685.23	23.41
685.37	39.79
685.50	0.00
685.64	18.72
685.78	49.15
685.91	0.00
686.05	81.92
686.19	0.00
686.32	35.11
686.46	39.79
686.60	11.70
686.73	44.47
686.87	51.49
687.01	0.00
687.14	11.70
687.28	23.41
687.42	49.15
687.55	23.41
687.69	23.41
687.82	0.00
687.96	37.45
688.10	100.64
688.23	88.94
688.37	95.96
688.50	21.06
688.64	46.81
688.78	39.79
688.91	79.58
689.05	44.47
689.18	9.36
689.32	86.60
689.46	7.02
689.59	49.15
689.73	112.35
689.86	53.83
690.00	63.19
690.13	60.85
690.27	37.45
690.41	28.09
690.54	138.09
690.68	56.17
690.81	23.41
690.95	44.47
691.08	84.26
691.22	9.36
691.35	28.09
691.49	46.81
691.62	7.02
691.76	0.00
691.89	9.36
692.03	0.00
692.16	35.11
692.30	44.47
692.43	58.51
692.57	0.00
692.70	0.00
692.84	49.15
692.97	65.54
693.11	16.38
693.24	23.41
693.38	37.45
693.51	39.79
693.65	84.26
693.78	63.19
693.92	0.00
694.05	93.62
694.19	107.66
694.32	0.00
694.45	51.49
694.59	63.19
694.72	49.15
694.86	32.77
694.99	0.00
695.13	35.11
695.26	32.77
695.39	44.47
695.53	0.00
695.66	39.79
695.80	93.62
695.93	35.11
696.07	21.06
696.20	91.28
696.33	0.00
696.47	56.17
696.60	9.36
696.73	30.43
696.87	32.77
697.00	79.58
697.14	0.00
697.27	95.96
697.40	30.43
697.54	0.00
697.67	79.58
697.80	16.38
697.94	32.77
698.07	0.00
698.21	0.00
698.34	0.00
698.47	4.68
698.61	0.00
698.74	0.00
698.87	0.00
699.01	60.85
699.14	30.43
699.27	0.00
699.40	0.00
699.54	18.72
699.67	0.00
699.80	44.47
699.94	42.13
700.07	23.41
700.20	65.54
700.34	70.22
700.47	37.45
700.60	35.11
700.73	23.41
700.87	28.09
701.00	0.00
701.13	0.00
701.26	81.92
701.40	23.41
701.53	11.70
701.66	49.15
701.79	93.62
701.93	21.06
702.06	79.58
702.19	46.81
702.32	102.98
702.46	0.00
702.59	58.51
702.72	112.35
702.85	74.90
702.99	16.38
703.12	14.04
703.25	9.36
703.38	60.85
703.51	0.00
703.65	23.41
703.78	51.49
703.91	11.70
704.04	67.88
704.17	39.79
704.31	114.69
704.44	53.83
704.57	0.00
704.70	37.45
704.83	23.41
704.96	53.83
705.10	35.11
705.23	0.00
>>>>>End Processed Spectral Data<<<<<
