SpectraSuite Data File
++++++++++++++++++++++++++++++++++++
Date: Fri Oct 04 12:13:42 GMT-05:00 2013
User: price-jones
Dark Spectrum Present: No
Reference Spectrum Present: No
Number of Sampled Component Spectra: 1
Spectrometers: USB2+H05261
Integration Time (usec): 10000 (USB2+H05261)
Spectra Averaged: 1 (USB2+H05261)
Boxcar Smoothing: 0 (USB2+H05261)
Correct for Electrical Dark: No (USB2+H05261)
Strobe/Lamp Enabled: No (USB2+H05261)
Correct for Detector Non-linearity: No (USB2+H05261)
Correct for Stray Light: No (USB2+H05261)
Number of Pixels in Processed Spectrum: 2048
>>>>>Begin Processed Spectral Data<<<<<
365.73	0.00
365.92	0.00
366.12	0.00
366.32	0.00
366.52	0.00
366.72	0.00
366.91	0.00
367.11	0.00
367.31	0.00
367.51	0.00
367.70	0.00
367.90	0.00
368.10	0.00
368.30	0.00
368.49	0.00
368.69	0.00
368.89	0.00
369.09	0.00
369.28	0.00
369.48	0.00
369.68	0.00
369.87	0.00
370.07	0.00
370.27	0.00
370.47	0.00
370.66	0.00
370.86	0.00
371.06	4.68
371.25	0.00
371.45	0.00
371.65	0.00
371.84	25.75
372.04	0.00
372.24	0.00
372.44	0.00
372.63	4.68
372.83	67.88
373.03	0.00
373.22	39.79
373.42	7.02
373.62	0.00
373.81	86.60
374.01	70.22
374.21	107.66
374.40	142.77
374.60	60.85
374.79	79.58
374.99	30.43
375.19	0.00
375.38	77.24
375.58	60.85
375.78	0.00
375.97	70.22
376.17	100.64
376.37	28.09
376.56	39.79
376.76	86.60
376.95	0.00
377.15	105.32
377.35	58.51
377.54	65.54
377.74	0.00
377.93	28.09
378.13	30.43
378.33	56.17
378.52	32.77
378.72	56.17
378.91	53.83
379.11	49.15
379.31	18.72
379.50	9.36
379.70	37.45
379.89	4.68
380.09	21.06
380.28	0.00
380.48	37.45
380.68	35.11
380.87	88.94
381.07	72.56
381.26	4.68
381.46	58.51
381.65	11.70
381.85	70.22
382.04	0.00
382.24	0.00
382.43	37.45
382.63	0.00
382.83	0.00
383.02	53.83
383.22	0.00
383.41	44.47
383.61	14.04
383.80	30.43
384.00	0.00
384.19	0.00
384.39	11.70
384.58	74.90
384.78	4.68
384.97	0.00
385.17	28.09
385.36	60.85
385.56	63.19
385.75	9.36
385.95	14.04
386.14	60.85
386.34	51.49
386.53	0.00
386.72	30.43
386.92	16.38
387.11	49.15
387.31	21.06
387.50	23.41
387.70	49.15
387.89	51.49
388.09	0.00
388.28	18.72
388.48	42.13
388.67	32.77
388.86	0.00
389.06	58.51
389.25	0.00
389.45	72.56
389.64	23.41
389.84	4.68
390.03	51.49
390.22	7.02
390.42	65.54
390.61	28.09
390.81	63.19
391.00	9.36
391.19	14.04
391.39	0.00
391.58	0.00
391.78	0.00
391.97	100.64
392.16	14.04
392.36	23.41
392.55	0.00
392.75	16.38
392.94	70.22
393.13	70.22
393.33	30.43
393.52	9.36
393.71	23.41
393.91	39.79
394.10	128.73
394.29	11.70
394.49	72.56
394.68	70.22
394.88	0.00
395.07	0.00
395.26	56.17
395.46	25.75
395.65	44.47
395.84	0.00
396.04	0.00
396.23	0.00
396.42	32.77
396.62	46.81
396.81	0.00
397.00	4.68
397.19	28.09
397.39	18.72
397.58	9.36
397.77	25.75
397.97	0.00
398.16	7.02
398.35	28.09
398.55	7.02
398.74	0.00
398.93	42.13
399.12	35.11
399.32	100.64
399.51	0.00
399.70	107.66
399.90	74.90
400.09	0.00
400.28	0.00
400.47	44.47
400.67	56.17
400.86	9.36
401.05	35.11
401.24	74.90
401.44	25.75
401.63	0.00
401.82	4.68
402.01	0.00
402.21	0.00
402.40	21.06
402.59	30.43
402.78	102.98
402.97	67.88
403.17	63.19
403.36	9.36
403.55	72.56
403.74	32.77
403.93	58.51
404.13	63.19
404.32	0.00
404.51	81.92
404.70	51.49
404.89	53.83
405.09	67.88
405.28	63.19
405.47	0.00
405.66	7.02
405.85	35.11
406.05	0.00
406.24	46.81
406.43	14.04
406.62	44.47
406.81	14.04
407.00	28.09
407.20	28.09
407.39	14.04
407.58	18.72
407.77	16.38
407.96	0.00
408.15	0.00
408.34	74.90
408.54	0.00
408.73	28.09
408.92	21.06
409.11	49.15
409.30	35.11
409.49	67.88
409.68	11.70
409.87	77.24
410.07	0.00
410.26	42.13
410.45	77.24
410.64	121.71
410.83	60.85
411.02	28.09
411.21	4.68
411.40	4.68
411.59	30.43
411.78	9.36
411.98	11.70
412.17	93.62
412.36	72.56
412.55	56.17
412.74	0.00
412.93	35.11
413.12	37.45
413.31	0.00
413.50	119.37
413.69	53.83
413.88	16.38
414.07	53.83
414.26	0.00
414.45	28.09
414.64	18.72
414.83	44.47
415.02	44.47
415.22	65.54
415.41	53.83
415.60	49.15
415.79	18.72
415.98	58.51
416.17	72.56
416.36	86.60
416.55	53.83
416.74	74.90
416.93	18.72
417.12	0.00
417.31	0.00
417.50	65.54
417.69	32.77
417.88	60.85
418.07	63.19
418.26	79.58
418.45	18.72
418.64	65.54
418.83	46.81
419.02	32.77
419.21	42.13
419.39	42.13
419.58	58.51
419.77	18.72
419.96	42.13
420.15	74.90
420.34	0.00
420.53	30.43
420.72	51.49
420.91	60.85
421.10	58.51
421.29	0.00
421.48	63.19
421.67	32.77
421.86	16.38
422.05	0.00
422.24	37.45
422.43	25.75
422.61	16.38
422.80	53.83
422.99	0.00
423.18	0.00
423.37	30.43
423.56	49.15
423.75	39.79
423.94	56.17
424.13	70.22
424.32	51.49
424.50	60.85
424.69	16.38
424.88	42.13
425.07	25.75
425.26	60.85
425.45	9.36
425.64	0.00
425.83	72.56
426.01	21.06
426.20	95.96
426.39	2.34
426.58	42.13
426.77	37.45
426.96	37.45
427.15	39.79
427.33	51.49
427.52	46.81
427.71	21.06
427.90	44.47
428.09	23.41
428.28	58.51
428.46	79.58
428.65	16.38
428.84	0.00
429.03	79.58
429.22	0.00
429.40	102.98
429.59	28.09
429.78	60.85
429.97	39.79
430.16	49.15
430.34	30.43
430.53	7.02
430.72	133.41
430.91	119.37
431.10	86.60
431.28	9.36
431.47	84.26
431.66	4.68
431.85	112.35
432.03	70.22
432.22	32.77
432.41	16.38
432.60	60.85
432.79	140.43
432.97	51.49
433.16	44.47
433.35	14.04
433.54	42.13
433.72	18.72
433.91	39.79
434.10	25.75
434.28	23.41
434.47	7.02
434.66	65.54
434.85	0.00
435.03	37.45
435.22	35.11
435.41	9.36
435.59	35.11
435.78	9.36
435.97	51.49
436.16	135.75
436.34	60.85
436.53	16.38
436.72	79.58
436.90	70.22
437.09	0.00
437.28	102.98
437.46	42.13
437.65	60.85
437.84	18.72
438.02	0.00
438.21	93.62
438.40	32.77
438.58	49.15
438.77	58.51
438.96	4.68
439.14	0.00
439.33	60.85
439.52	60.85
439.70	49.15
439.89	30.43
440.08	46.81
440.26	107.66
440.45	63.19
440.63	0.00
440.82	0.00
441.01	28.09
441.19	42.13
441.38	60.85
441.57	56.17
441.75	37.45
441.94	67.88
442.12	117.03
442.31	35.11
442.50	70.22
442.68	79.58
442.87	35.11
443.05	7.02
443.24	100.64
443.43	23.41
443.61	100.64
443.80	42.13
443.98	63.19
444.17	14.04
444.35	126.39
444.54	21.06
444.73	28.09
444.91	53.83
445.10	72.56
445.28	128.73
445.47	140.43
445.65	112.35
445.84	25.75
446.02	117.03
446.21	110.01
446.39	0.00
446.58	58.51
446.77	39.79
446.95	74.90
447.14	121.71
447.32	42.13
447.51	39.79
447.69	100.64
447.88	63.19
448.06	56.17
448.25	114.69
448.43	91.28
448.62	60.85
448.80	7.02
448.99	11.70
449.17	70.22
449.36	51.49
449.54	93.62
449.73	53.83
449.91	67.88
450.10	70.22
450.28	67.88
450.46	84.26
450.65	39.79
450.83	81.92
451.02	28.09
451.20	81.92
451.39	56.17
451.57	53.83
451.76	53.83
451.94	51.49
452.13	37.45
452.31	63.19
452.49	107.66
452.68	131.07
452.86	63.19
453.05	44.47
453.23	119.37
453.42	56.17
453.60	112.35
453.78	28.09
453.97	44.47
454.15	112.35
454.34	79.58
454.52	39.79
454.70	4.68
454.89	86.60
455.07	11.70
455.26	16.38
455.44	114.69
455.62	86.60
455.81	32.77
455.99	18.72
456.17	39.79
456.36	4.68
456.54	67.88
456.73	145.11
456.91	133.41
457.09	135.75
457.28	14.04
457.46	119.37
457.64	84.26
457.83	14.04
458.01	63.19
458.19	98.30
458.38	0.00
458.56	49.15
458.74	117.03
458.93	133.41
459.11	107.66
459.29	25.75
459.48	91.28
459.66	2.34
459.84	65.54
460.03	121.71
460.21	105.32
460.39	91.28
460.57	56.17
460.76	30.43
460.94	23.41
461.12	91.28
461.31	93.62
461.49	44.47
461.67	37.45
461.85	63.19
462.04	2.34
462.22	102.98
462.40	60.85
462.59	0.00
462.77	0.00
462.95	51.49
463.13	56.17
463.32	18.72
463.50	25.75
463.68	74.90
463.86	53.83
464.05	7.02
464.23	119.37
464.41	91.28
464.59	21.06
464.78	98.30
464.96	9.36
465.14	23.41
465.32	77.24
465.50	72.56
465.69	42.13
465.87	25.75
466.05	56.17
466.23	35.11
466.41	35.11
466.60	98.30
466.78	35.11
466.96	88.94
467.14	70.22
467.32	39.79
467.51	98.30
467.69	35.11
467.87	44.47
468.05	74.90
468.23	35.11
468.41	72.56
468.60	98.30
468.78	84.26
468.96	95.96
469.14	79.58
469.32	98.30
469.50	105.32
469.69	67.88
469.87	16.38
470.05	105.32
470.23	0.00
470.41	51.49
470.59	72.56
470.77	39.79
470.95	4.68
471.14	81.92
471.32	53.83
471.50	70.22
471.68	81.92
471.86	98.30
472.04	49.15
472.22	65.54
472.40	65.54
472.58	74.90
472.77	0.00
472.95	42.13
473.13	35.11
473.31	81.92
473.49	51.49
473.67	145.11
473.85	79.58
474.03	100.64
474.21	18.72
474.39	88.94
474.57	51.49
474.75	58.51
474.93	84.26
475.12	77.24
475.30	67.88
475.48	56.17
475.66	93.62
475.84	67.88
476.02	77.24
476.20	46.81
476.38	81.92
476.56	44.47
476.74	63.19
476.92	77.24
477.10	30.43
477.28	30.43
477.46	107.66
477.64	42.13
477.82	4.68
478.00	100.64
478.18	39.79
478.36	0.00
478.54	23.41
478.72	46.81
478.90	86.60
479.08	39.79
479.26	25.75
479.44	77.24
479.62	65.54
479.80	88.94
479.98	58.51
480.16	23.41
480.34	56.17
480.52	84.26
480.70	124.05
480.88	98.30
481.06	102.98
481.24	14.04
481.41	37.45
481.59	21.06
481.77	53.83
481.95	95.96
482.13	95.96
482.31	56.17
482.49	84.26
482.67	58.51
482.85	39.79
483.03	74.90
483.21	42.13
483.39	88.94
483.57	39.79
483.74	39.79
483.92	121.71
484.10	65.54
484.28	117.03
484.46	21.06
484.64	84.26
484.82	86.60
485.00	110.01
485.18	133.41
485.35	44.47
485.53	114.69
485.71	53.83
485.89	56.17
486.07	86.60
486.25	42.13
486.43	112.35
486.61	102.98
486.78	100.64
486.96	88.94
487.14	86.60
487.32	77.24
487.50	79.58
487.68	100.64
487.85	0.00
488.03	72.56
488.21	93.62
488.39	84.26
488.57	37.45
488.75	2.34
488.92	44.47
489.10	124.05
489.28	0.00
489.46	58.51
489.64	42.13
489.81	117.03
489.99	14.04
490.17	51.49
490.35	84.26
490.53	84.26
490.70	74.90
490.88	65.54
491.06	72.56
491.24	37.45
491.41	93.62
491.59	35.11
491.77	63.19
491.95	53.83
492.13	91.28
492.30	18.72
492.48	135.75
492.66	65.54
492.84	152.13
493.01	79.58
493.19	49.15
493.37	133.41
493.54	100.64
493.72	35.11
493.90	0.00
494.08	140.43
494.25	51.49
494.43	95.96
494.61	110.01
494.79	114.69
494.96	65.54
495.14	81.92
495.32	131.07
495.49	180.22
495.67	60.85
495.85	35.11
496.02	124.05
496.20	58.51
496.38	93.62
496.55	39.79
496.73	102.98
496.91	2.34
497.09	72.56
497.26	16.38
497.44	32.77
497.62	79.58
497.79	105.32
497.97	51.49
498.14	25.75
498.32	58.51
498.50	88.94
498.67	161.50
498.85	46.81
499.03	51.49
499.20	16.38
499.38	37.45
499.56	70.22
499.73	70.22
499.91	107.66
500.08	84.26
500.26	42.13
500.44	88.94
500.61	77.24
500.79	98.30
500.97	7.02
501.14	91.28
501.32	79.58
501.49	84.26
501.67	81.92
501.84	117.03
502.02	93.62
502.20	121.71
502.37	140.43
502.55	100.64
502.72	60.85
502.90	152.13
503.07	102.98
503.25	84.26
503.43	28.09
503.60	72.56
503.78	67.88
503.95	77.24
504.13	88.94
504.30	74.90
504.48	70.22
504.65	128.73
504.83	67.88
505.01	81.92
505.18	28.09
505.36	77.24
505.53	53.83
505.71	114.69
505.88	145.11
506.06	67.88
506.23	154.48
506.41	138.09
506.58	95.96
506.76	32.77
506.93	117.03
507.11	93.62
507.28	63.19
507.46	53.83
507.63	74.90
507.81	107.66
507.98	135.75
508.16	93.62
508.33	42.13
508.50	102.98
508.68	112.35
508.85	135.75
509.03	46.81
509.20	100.64
509.38	37.45
509.55	44.47
509.73	102.98
509.90	65.54
510.08	16.38
510.25	114.69
510.42	95.96
510.60	63.19
510.77	117.03
510.95	81.92
511.12	0.00
511.30	16.38
511.47	44.47
511.64	44.47
511.82	51.49
511.99	7.02
512.17	49.15
512.34	60.85
512.51	39.79
512.69	112.35
512.86	65.54
513.04	98.30
513.21	79.58
513.38	98.30
513.56	88.94
513.73	126.39
513.90	114.69
514.08	16.38
514.25	37.45
514.43	100.64
514.60	56.17
514.77	53.83
514.95	49.15
515.12	114.69
515.29	138.09
515.47	37.45
515.64	81.92
515.81	149.79
515.99	154.48
516.16	77.24
516.33	4.68
516.51	107.66
516.68	102.98
516.85	53.83
517.03	74.90
517.20	60.85
517.37	81.92
517.54	105.32
517.72	53.83
517.89	84.26
518.06	46.81
518.24	110.01
518.41	2.34
518.58	112.35
518.75	63.19
518.93	30.43
519.10	79.58
519.27	119.37
519.45	105.32
519.62	133.41
519.79	100.64
519.96	79.58
520.14	93.62
520.31	53.83
520.48	79.58
520.65	42.13
520.83	126.39
521.00	102.98
521.17	39.79
521.34	156.82
521.52	21.06
521.69	110.01
521.86	67.88
522.03	77.24
522.20	77.24
522.38	135.75
522.55	49.15
522.72	81.92
522.89	112.35
523.07	77.24
523.24	25.75
523.41	93.62
523.58	121.71
523.75	91.28
523.92	77.24
524.10	42.13
524.27	42.13
524.44	35.11
524.61	100.64
524.78	77.24
524.96	58.51
525.13	98.30
525.30	74.90
525.47	88.94
525.64	77.24
525.81	58.51
525.98	28.09
526.16	37.45
526.33	67.88
526.50	112.35
526.67	32.77
526.84	105.32
527.01	119.37
527.18	79.58
527.36	46.81
527.53	53.83
527.70	112.35
527.87	23.41
528.04	95.96
528.21	102.98
528.38	124.05
528.55	58.51
528.72	65.54
528.89	105.32
529.07	39.79
529.24	114.69
529.41	37.45
529.58	30.43
529.75	79.58
529.92	42.13
530.09	63.19
530.26	133.41
530.43	86.60
530.60	100.64
530.77	0.00
530.94	102.98
531.11	93.62
531.28	39.79
531.46	98.30
531.63	98.30
531.80	135.75
531.97	119.37
532.14	117.03
532.31	37.45
532.48	25.75
532.65	79.58
532.82	53.83
532.99	63.19
533.16	23.41
533.33	21.06
533.50	23.41
533.67	72.56
533.84	42.13
534.01	25.75
534.18	67.88
534.35	124.05
534.52	86.60
534.69	95.96
534.86	84.26
535.03	170.86
535.20	72.56
535.37	91.28
535.54	102.98
535.71	138.09
535.88	126.39
536.05	98.30
536.22	63.19
536.38	74.90
536.55	63.19
536.72	79.58
536.89	100.64
537.06	117.03
537.23	95.96
537.40	84.26
537.57	100.64
537.74	117.03
537.91	67.88
538.08	63.19
538.25	0.00
538.42	44.47
538.59	63.19
538.75	100.64
538.92	51.49
539.09	86.60
539.26	46.81
539.43	74.90
539.60	194.26
539.77	142.77
539.94	102.98
540.11	60.85
540.28	86.60
540.44	166.18
540.61	7.02
540.78	124.05
540.95	105.32
541.12	100.64
541.29	60.85
541.46	124.05
541.62	119.37
541.79	128.73
541.96	117.03
542.13	95.96
542.30	51.49
542.47	91.28
542.63	149.79
542.80	107.66
542.97	88.94
543.14	63.19
543.31	88.94
543.48	163.84
543.64	100.64
543.81	44.47
543.98	98.30
544.15	32.77
544.32	81.92
544.48	140.43
544.65	105.32
544.82	166.18
544.99	133.41
545.16	93.62
545.32	67.88
545.49	105.32
545.66	44.47
545.83	56.17
546.00	58.51
546.16	67.88
546.33	88.94
546.50	91.28
546.67	121.71
546.83	79.58
547.00	112.35
547.17	70.22
547.34	77.24
547.50	105.32
547.67	42.13
547.84	100.64
548.00	74.90
548.17	72.56
548.34	49.15
548.51	93.62
548.67	112.35
548.84	95.96
549.01	102.98
549.18	121.71
549.34	35.11
549.51	63.19
549.68	44.47
549.84	86.60
550.01	100.64
550.18	100.64
550.34	133.41
550.51	39.79
550.68	91.28
550.84	81.92
551.01	117.03
551.18	25.75
551.34	86.60
551.51	147.45
551.68	79.58
551.84	67.88
552.01	86.60
552.18	79.58
552.34	100.64
552.51	93.62
552.68	72.56
552.84	93.62
553.01	65.54
553.18	63.19
553.34	124.05
553.51	124.05
553.67	77.24
553.84	102.98
554.01	86.60
554.17	102.98
554.34	149.79
554.51	67.88
554.67	53.83
554.84	117.03
555.00	56.17
555.17	53.83
555.33	72.56
555.50	119.37
555.67	133.41
555.83	72.56
556.00	37.45
556.16	74.90
556.33	110.01
556.50	107.66
556.66	35.11
556.83	28.09
556.99	18.72
557.16	114.69
557.32	46.81
557.49	102.98
557.65	114.69
557.82	32.77
557.98	14.04
558.15	44.47
558.32	30.43
558.48	88.94
558.65	79.58
558.81	93.62
558.98	126.39
559.14	114.69
559.31	100.64
559.47	95.96
559.64	142.77
559.80	25.75
559.97	60.85
560.13	110.01
560.30	79.58
560.46	28.09
560.63	114.69
560.79	100.64
560.96	159.16
561.12	119.37
561.29	84.26
561.45	9.36
561.61	84.26
561.78	56.17
561.94	25.75
562.11	44.47
562.27	88.94
562.44	18.72
562.60	110.01
562.77	60.85
562.93	0.00
563.10	74.90
563.26	152.13
563.42	91.28
563.59	42.13
563.75	37.45
563.92	74.90
564.08	142.77
564.24	84.26
564.41	86.60
564.57	70.22
564.74	79.58
564.90	65.54
565.07	79.58
565.23	58.51
565.39	49.15
565.56	11.70
565.72	100.64
565.88	100.64
566.05	65.54
566.21	93.62
566.38	70.22
566.54	100.64
566.70	51.49
566.87	126.39
567.03	53.83
567.19	84.26
567.36	30.43
567.52	21.06
567.68	110.01
567.85	53.83
568.01	56.17
568.17	35.11
568.34	98.30
568.50	42.13
568.66	124.05
568.83	74.90
568.99	102.98
569.15	60.85
569.32	91.28
569.48	65.54
569.64	65.54
569.81	119.37
569.97	7.02
570.13	30.43
570.30	65.54
570.46	65.54
570.62	86.60
570.78	39.79
570.95	67.88
571.11	79.58
571.27	72.56
571.43	56.17
571.60	70.22
571.76	46.81
571.92	86.60
572.09	117.03
572.25	91.28
572.41	51.49
572.57	114.69
572.74	65.54
572.90	44.47
573.06	32.77
573.22	46.81
573.38	105.32
573.55	88.94
573.71	72.56
573.87	170.86
574.03	105.32
574.20	131.07
574.36	25.75
574.52	16.38
574.68	72.56
574.84	175.54
575.01	88.94
575.17	56.17
575.33	149.79
575.49	25.75
575.65	126.39
575.82	100.64
575.98	81.92
576.14	100.64
576.30	35.11
576.46	58.51
576.62	84.26
576.79	86.60
576.95	105.32
577.11	88.94
577.27	37.45
577.43	77.24
577.59	25.75
577.75	60.85
577.92	56.17
578.08	131.07
578.24	53.83
578.40	77.24
578.56	86.60
578.72	105.32
578.88	51.49
579.04	102.98
579.21	88.94
579.37	79.58
579.53	131.07
579.69	25.75
579.85	42.13
580.01	107.66
580.17	95.96
580.33	100.64
580.49	112.35
580.65	88.94
580.82	67.88
580.98	70.22
581.14	74.90
581.30	121.71
581.46	93.62
581.62	63.19
581.78	4.68
581.94	58.51
582.10	65.54
582.26	88.94
582.42	70.22
582.58	72.56
582.74	107.66
582.90	25.75
583.06	39.79
583.22	70.22
583.38	135.75
583.54	88.94
583.70	95.96
583.86	39.79
584.02	60.85
584.18	25.75
584.34	51.49
584.50	142.77
584.66	81.92
584.82	49.15
584.98	91.28
585.14	74.90
585.30	79.58
585.46	79.58
585.62	91.28
585.78	23.41
585.94	140.43
586.10	42.13
586.26	70.22
586.42	0.00
586.58	58.51
586.74	107.66
586.90	51.49
587.06	67.88
587.22	77.24
587.38	77.24
587.54	44.47
587.70	126.39
587.86	67.88
588.02	131.07
588.18	46.81
588.34	105.32
588.49	37.45
588.65	70.22
588.81	145.11
588.97	0.00
589.13	105.32
589.29	51.49
589.45	53.83
589.61	72.56
589.77	65.54
589.93	84.26
590.08	70.22
590.24	9.36
590.40	63.19
590.56	84.26
590.72	98.30
590.88	72.56
591.04	11.70
591.20	58.51
591.35	25.75
591.51	72.56
591.67	51.49
591.83	63.19
591.99	79.58
592.15	126.39
592.31	72.56
592.46	28.09
592.62	77.24
592.78	91.28
592.94	30.43
593.10	65.54
593.26	135.75
593.41	16.38
593.57	53.83
593.73	107.66
593.89	53.83
594.05	44.47
594.20	49.15
594.36	72.56
594.52	79.58
594.68	60.85
594.84	37.45
594.99	100.64
595.15	72.56
595.31	16.38
595.47	72.56
595.62	142.77
595.78	126.39
595.94	86.60
596.10	95.96
596.25	39.79
596.41	44.47
596.57	81.92
596.73	28.09
596.88	98.30
597.04	0.00
597.20	2.34
597.36	49.15
597.51	81.92
597.67	35.11
597.83	51.49
597.99	77.24
598.14	65.54
598.30	46.81
598.46	79.58
598.61	138.09
598.77	51.49
598.93	147.45
599.09	114.69
599.24	95.96
599.40	60.85
599.56	65.54
599.71	114.69
599.87	44.47
600.03	67.88
600.18	124.05
600.34	166.18
600.50	0.00
600.65	170.86
600.81	46.81
600.97	93.62
601.12	98.30
601.28	65.54
601.44	77.24
601.59	35.11
601.75	60.85
601.91	170.86
602.06	23.41
602.22	21.06
602.37	110.01
602.53	72.56
602.69	70.22
602.84	37.45
603.00	91.28
603.16	56.17
603.31	93.62
603.47	11.70
603.62	128.73
603.78	60.85
603.94	114.69
604.09	140.43
604.25	142.77
604.40	32.77
604.56	56.17
604.71	58.51
604.87	86.60
605.03	84.26
605.18	119.37
605.34	117.03
605.49	65.54
605.65	74.90
605.80	16.38
605.96	95.96
606.12	93.62
606.27	37.45
606.43	70.22
606.58	79.58
606.74	70.22
606.89	84.26
607.05	86.60
607.20	63.19
607.36	84.26
607.51	117.03
607.67	126.39
607.82	0.00
607.98	0.00
608.13	110.01
608.29	16.38
608.44	63.19
608.60	117.03
608.75	81.92
608.91	84.26
609.06	60.85
609.22	35.11
609.37	81.92
609.53	121.71
609.68	112.35
609.84	86.60
609.99	46.81
610.15	21.06
610.30	58.51
610.46	93.62
610.61	79.58
610.76	152.13
610.92	117.03
611.07	51.49
611.23	72.56
611.38	46.81
611.54	56.17
611.69	79.58
611.84	102.98
612.00	119.37
612.15	44.47
612.31	30.43
612.46	35.11
612.62	63.19
612.77	79.58
612.92	60.85
613.08	126.39
613.23	58.51
613.39	93.62
613.54	74.90
613.69	86.60
613.85	67.88
614.00	72.56
614.15	39.79
614.31	14.04
614.46	72.56
614.62	74.90
614.77	30.43
614.92	46.81
615.08	138.09
615.23	56.17
615.38	72.56
615.54	105.32
615.69	105.32
615.84	84.26
616.00	124.05
616.15	117.03
616.30	28.09
616.46	88.94
616.61	72.56
616.76	65.54
616.92	81.92
617.07	112.35
617.22	35.11
617.37	9.36
617.53	39.79
617.68	42.13
617.83	98.30
617.99	60.85
618.14	56.17
618.29	65.54
618.45	74.90
618.60	42.13
618.75	58.51
618.90	91.28
619.06	60.85
619.21	88.94
619.36	112.35
619.51	44.47
619.67	7.02
619.82	58.51
619.97	28.09
620.12	37.45
620.28	117.03
620.43	46.81
620.58	119.37
620.73	126.39
620.89	95.96
621.04	86.60
621.19	42.13
621.34	56.17
621.49	63.19
621.65	70.22
621.80	18.72
621.95	91.28
622.10	44.47
622.25	81.92
622.41	35.11
622.56	56.17
622.71	114.69
622.86	93.62
623.01	39.79
623.16	58.51
623.32	30.43
623.47	28.09
623.62	102.98
623.77	128.73
623.92	44.47
624.07	2.34
624.23	25.75
624.38	93.62
624.53	95.96
624.68	51.49
624.83	107.66
624.98	105.32
625.13	14.04
625.29	107.66
625.44	51.49
625.59	60.85
625.74	79.58
625.89	119.37
626.04	72.56
626.19	42.13
626.34	0.00
626.49	86.60
626.65	14.04
626.80	95.96
626.95	88.94
627.10	46.81
627.25	145.11
627.40	9.36
627.55	58.51
627.70	95.96
627.85	84.26
628.00	81.92
628.15	72.56
628.30	4.68
628.45	39.79
628.60	67.88
628.76	7.02
628.91	7.02
629.06	58.51
629.21	117.03
629.36	21.06
629.51	105.32
629.66	72.56
629.81	67.88
629.96	119.37
630.11	77.24
630.26	25.75
630.41	56.17
630.56	86.60
630.71	11.70
630.86	32.77
631.01	95.96
631.16	58.51
631.31	2.34
631.46	110.01
631.61	98.30
631.76	72.56
631.91	91.28
632.06	105.32
632.21	23.41
632.36	51.49
632.51	105.32
632.66	81.92
632.81	88.94
632.96	168.52
633.10	14.04
633.25	58.51
633.40	63.19
633.55	72.56
633.70	107.66
633.85	135.75
634.00	11.70
634.15	88.94
634.30	77.24
634.45	58.51
634.60	4.68
634.75	0.00
634.90	39.79
635.05	93.62
635.19	102.98
635.34	93.62
635.49	49.15
635.64	51.49
635.79	74.90
635.94	46.81
636.09	32.77
636.24	107.66
636.39	77.24
636.53	63.19
636.68	95.96
636.83	56.17
636.98	81.92
637.13	91.28
637.28	56.17
637.43	46.81
637.57	74.90
637.72	56.17
637.87	65.54
638.02	32.77
638.17	77.24
638.32	0.00
638.46	39.79
638.61	135.75
638.76	63.19
638.91	25.75
639.06	84.26
639.20	67.88
639.35	46.81
639.50	88.94
639.65	84.26
639.80	25.75
639.94	81.92
640.09	95.96
640.24	74.90
640.39	0.00
640.54	46.81
640.68	88.94
640.83	70.22
640.98	79.58
641.13	110.01
641.27	91.28
641.42	4.68
641.57	4.68
641.72	88.94
641.86	128.73
642.01	128.73
642.16	124.05
642.31	23.41
642.45	0.00
642.60	102.98
642.75	105.32
642.90	67.88
643.04	112.35
643.19	81.92
643.34	0.00
643.48	60.85
643.63	11.70
643.78	4.68
643.93	72.56
644.07	119.37
644.22	42.13
644.37	0.00
644.51	95.96
644.66	60.85
644.81	140.43
644.95	74.90
645.10	32.77
645.25	42.13
645.39	91.28
645.54	102.98
645.69	70.22
645.83	67.88
645.98	35.11
646.13	81.92
646.27	35.11
646.42	32.77
646.57	49.15
646.71	74.90
646.86	102.98
647.00	32.77
647.15	77.24
647.30	63.19
647.44	110.01
647.59	81.92
647.74	93.62
647.88	65.54
648.03	95.96
648.17	21.06
648.32	74.90
648.47	63.19
648.61	67.88
648.76	0.00
648.90	23.41
649.05	28.09
649.20	149.79
649.34	37.45
649.49	70.22
649.63	42.13
649.78	81.92
649.92	88.94
650.07	44.47
650.21	53.83
650.36	32.77
650.51	30.43
650.65	39.79
650.80	23.41
650.94	77.24
651.09	11.70
651.23	67.88
651.38	95.96
651.52	53.83
651.67	77.24
651.81	81.92
651.96	18.72
652.10	35.11
652.25	49.15
652.39	58.51
652.54	37.45
652.68	37.45
652.83	74.90
652.97	37.45
653.12	56.17
653.26	42.13
653.41	65.54
653.55	58.51
653.70	58.51
653.84	14.04
653.99	58.51
654.13	70.22
654.27	44.47
654.42	35.11
654.56	93.62
654.71	25.75
654.85	44.47
655.00	58.51
655.14	56.17
655.29	63.19
655.43	65.54
655.57	67.88
655.72	112.35
655.86	81.92
656.01	42.13
656.15	88.94
656.30	81.92
656.44	23.41
656.58	14.04
656.73	0.00
656.87	110.01
657.01	37.45
657.16	0.00
657.30	65.54
657.45	98.30
657.59	44.47
657.73	58.51
657.88	98.30
658.02	35.11
658.16	110.01
658.31	53.83
658.45	0.00
658.60	46.81
658.74	58.51
658.88	72.56
659.03	46.81
659.17	72.56
659.31	86.60
659.46	81.92
659.60	91.28
659.74	60.85
659.89	37.45
660.03	23.41
660.17	112.35
660.32	37.45
660.46	63.19
660.60	30.43
660.74	100.64
660.89	58.51
661.03	32.77
661.17	70.22
661.32	60.85
661.46	51.49
661.60	37.45
661.74	67.88
661.89	0.00
662.03	86.60
662.17	98.30
662.31	0.00
662.46	74.90
662.60	39.79
662.74	0.00
662.88	74.90
663.03	79.58
663.17	98.30
663.31	53.83
663.45	74.90
663.60	51.49
663.74	0.00
663.88	56.17
664.02	86.60
664.17	56.17
664.31	86.60
664.45	25.75
664.59	23.41
664.73	32.77
664.88	51.49
665.02	135.75
665.16	63.19
665.30	0.00
665.44	56.17
665.59	56.17
665.73	95.96
665.87	37.45
666.01	37.45
666.15	32.77
666.29	72.56
666.44	0.00
666.58	30.43
666.72	65.54
666.86	0.00
667.00	77.24
667.14	46.81
667.28	53.83
667.43	51.49
667.57	56.17
667.71	56.17
667.85	21.06
667.99	32.77
668.13	14.04
668.27	98.30
668.41	21.06
668.56	2.34
668.70	18.72
668.84	60.85
668.98	0.00
669.12	18.72
669.26	7.02
669.40	102.98
669.54	0.00
669.68	95.96
669.82	98.30
669.96	105.32
670.10	21.06
670.25	0.00
670.39	51.49
670.53	98.30
670.67	42.13
670.81	21.06
670.95	7.02
671.09	25.75
671.23	77.24
671.37	4.68
671.51	60.85
671.65	44.47
671.79	25.75
671.93	39.79
672.07	53.83
672.21	14.04
672.35	18.72
672.49	86.60
672.63	49.15
672.77	23.41
672.91	18.72
673.05	46.81
673.19	11.70
673.33	0.00
673.47	0.00
673.61	74.90
673.75	32.77
673.89	84.26
674.03	7.02
674.17	53.83
674.31	65.54
674.45	37.45
674.59	23.41
674.73	30.43
674.87	72.56
675.01	79.58
675.15	81.92
675.29	105.32
675.43	63.19
675.56	0.00
675.70	58.51
675.84	65.54
675.98	72.56
676.12	14.04
676.26	72.56
676.40	0.00
676.54	49.15
676.68	60.85
676.82	63.19
676.96	35.11
677.10	93.62
677.23	88.94
677.37	56.17
677.51	16.38
677.65	117.03
677.79	102.98
677.93	93.62
678.07	53.83
678.21	0.00
678.34	102.98
678.48	0.00
678.62	39.79
678.76	135.75
678.90	91.28
679.04	37.45
679.18	39.79
679.31	25.75
679.45	14.04
679.59	28.09
679.73	79.58
679.87	11.70
680.00	42.13
680.14	72.56
680.28	30.43
680.42	72.56
680.56	4.68
680.70	121.71
680.83	117.03
680.97	79.58
681.11	79.58
681.25	28.09
681.39	70.22
681.52	131.07
681.66	102.98
681.80	112.35
681.94	46.81
682.07	86.60
682.21	138.09
682.35	53.83
682.49	72.56
682.62	74.90
682.76	32.77
682.90	53.83
683.04	58.51
683.17	119.37
683.31	4.68
683.45	67.88
683.59	25.75
683.72	100.64
683.86	91.28
684.00	53.83
684.13	91.28
684.27	37.45
684.41	77.24
684.55	16.38
684.68	9.36
684.82	0.00
684.96	37.45
685.09	32.77
685.23	77.24
685.37	28.09
685.50	121.71
685.64	135.75
685.78	105.32
685.91	0.00
686.05	51.49
686.19	53.83
686.32	72.56
686.46	28.09
686.60	95.96
686.73	60.85
686.87	16.38
687.01	0.00
687.14	35.11
687.28	0.00
687.42	30.43
687.55	14.04
687.69	77.24
687.82	21.06
687.96	58.51
688.10	72.56
688.23	7.02
688.37	81.92
688.50	0.00
688.64	21.06
688.78	0.00
688.91	16.38
689.05	114.69
689.18	25.75
689.32	60.85
689.46	23.41
689.59	4.68
689.73	0.00
689.86	4.68
690.00	4.68
690.13	63.19
690.27	91.28
690.41	77.24
690.54	58.51
690.68	81.92
690.81	0.00
690.95	35.11
691.08	25.75
691.22	86.60
691.35	28.09
691.49	44.47
691.62	58.51
691.76	65.54
691.89	0.00
692.03	44.47
692.16	53.83
692.30	32.77
692.43	39.79
692.57	0.00
692.70	51.49
692.84	16.38
692.97	49.15
693.11	58.51
693.24	37.45
693.38	72.56
693.51	39.79
693.65	14.04
693.78	23.41
693.92	23.41
694.05	23.41
694.19	0.00
694.32	37.45
694.45	11.70
694.59	46.81
694.72	46.81
694.86	60.85
694.99	49.15
695.13	21.06
695.26	0.00
695.39	37.45
695.53	72.56
695.66	74.90
695.80	14.04
695.93	28.09
696.07	0.00
696.20	67.88
696.33	39.79
696.47	65.54
696.60	25.75
696.73	86.60
696.87	25.75
697.00	51.49
697.14	42.13
697.27	91.28
697.40	58.51
697.54	58.51
697.67	0.00
697.80	70.22
697.94	11.70
698.07	49.15
698.21	77.24
698.34	49.15
698.47	53.83
698.61	4.68
698.74	56.17
698.87	25.75
699.01	63.19
699.14	18.72
699.27	0.00
699.40	77.24
699.54	53.83
699.67	14.04
699.80	60.85
699.94	63.19
700.07	0.00
700.20	9.36
700.34	0.00
700.47	30.43
700.60	49.15
700.73	32.77
700.87	79.58
701.00	95.96
701.13	81.92
701.26	93.62
701.40	39.79
701.53	77.24
701.66	28.09
701.79	49.15
701.93	44.47
702.06	23.41
702.19	9.36
702.32	49.15
702.46	0.00
702.59	86.60
702.72	56.17
702.85	14.04
702.99	28.09
703.12	35.11
703.25	39.79
703.38	44.47
703.51	46.81
703.65	42.13
703.78	49.15
703.91	56.17
704.04	58.51
704.17	81.92
704.31	88.94
704.44	9.36
704.57	4.68
704.70	0.00
704.83	0.00
704.96	0.00
705.10	16.38
705.23	37.45
>>>>>End Processed Spectral Data<<<<<
