SpectraSuite Data File
++++++++++++++++++++++++++++++++++++
Date: Tue Oct 01 18:25:10 GMT-05:00 2013
User: stostad
Dark Spectrum Present: No
Reference Spectrum Present: No
Number of Sampled Component Spectra: 1
Spectrometers: USB2+H05261
Integration Time (usec): 100000 (USB2+H05261)
Spectra Averaged: 1 (USB2+H05261)
Boxcar Smoothing: 0 (USB2+H05261)
Correct for Electrical Dark: No (USB2+H05261)
Strobe/Lamp Enabled: No (USB2+H05261)
Correct for Detector Non-linearity: No (USB2+H05261)
Correct for Stray Light: No (USB2+H05261)
Number of Pixels in Processed Spectrum: 2048
>>>>>Begin Processed Spectral Data<<<<<
365.73	88.94
365.92	88.94
366.12	88.94
366.32	0.00
366.52	0.00
366.72	0.00
366.91	0.00
367.11	0.00
367.31	49.15
367.51	0.00
367.70	0.00
367.90	0.00
368.10	0.00
368.30	0.00
368.49	0.00
368.69	0.00
368.89	0.00
369.09	0.00
369.28	0.00
369.48	0.00
369.68	30.43
369.87	0.00
370.07	0.00
370.27	39.79
370.47	11.70
370.66	58.51
370.86	70.22
371.06	102.98
371.25	201.29
371.45	102.98
371.65	84.26
371.84	88.94
372.04	67.88
372.24	93.62
372.44	63.19
372.63	131.07
372.83	74.90
373.03	42.13
373.22	105.32
373.42	51.49
373.62	163.84
373.81	201.29
374.01	182.56
374.21	93.62
374.40	147.45
374.60	128.73
374.79	135.75
374.99	142.77
375.19	140.43
375.38	102.98
375.58	119.37
375.78	121.71
375.97	126.39
376.17	187.24
376.37	184.90
376.56	161.50
376.76	114.69
376.95	112.35
377.15	138.09
377.35	58.51
377.54	149.79
377.74	84.26
377.93	56.17
378.13	107.66
378.33	138.09
378.52	112.35
378.72	187.24
378.91	145.11
379.11	112.35
379.31	149.79
379.50	133.41
379.70	154.48
379.89	86.60
380.09	142.77
380.28	81.92
380.48	72.56
380.68	91.28
380.87	79.58
381.07	91.28
381.26	159.16
381.46	145.11
381.65	105.32
381.85	126.39
382.04	177.88
382.24	133.41
382.43	88.94
382.63	187.24
382.83	121.71
383.02	210.65
383.22	252.78
383.41	107.66
383.61	201.29
383.80	67.88
384.00	131.07
384.19	112.35
384.39	81.92
384.58	201.29
384.78	156.82
384.97	124.05
385.17	142.77
385.36	117.03
385.56	149.79
385.75	67.88
385.95	121.71
386.14	238.73
386.34	227.03
386.53	95.96
386.72	180.22
386.92	163.84
387.11	135.75
387.31	98.30
387.50	154.48
387.70	131.07
387.89	124.05
388.09	91.28
388.28	67.88
388.48	51.49
388.67	121.71
388.86	112.35
389.06	154.48
389.25	152.13
389.45	222.35
389.64	100.64
389.84	189.58
390.03	212.99
390.22	102.98
390.42	191.92
390.61	91.28
390.81	152.13
391.00	133.41
391.19	191.92
391.39	107.66
391.58	145.11
391.78	205.97
391.97	140.43
392.16	49.15
392.36	227.03
392.55	133.41
392.75	121.71
392.94	119.37
393.13	149.79
393.33	156.82
393.52	194.26
393.71	107.66
393.91	163.84
394.10	58.51
394.29	119.37
394.49	208.31
394.68	203.63
394.88	191.92
395.07	166.18
395.26	121.71
395.46	91.28
395.65	140.43
395.84	102.98
396.04	208.31
396.23	175.54
396.42	107.66
396.62	88.94
396.81	159.16
397.00	114.69
397.19	63.19
397.39	117.03
397.58	140.43
397.77	93.62
397.97	156.82
398.16	173.20
398.35	147.45
398.55	110.01
398.74	161.50
398.93	180.22
399.12	114.69
399.32	201.29
399.51	133.41
399.70	149.79
399.90	105.32
400.09	117.03
400.28	117.03
400.47	147.45
400.67	79.58
400.86	166.18
401.05	126.39
401.24	222.35
401.44	98.30
401.63	121.71
401.82	138.09
402.01	37.45
402.21	177.88
402.40	128.73
402.59	100.64
402.78	124.05
402.97	107.66
403.17	191.92
403.36	159.16
403.55	105.32
403.74	121.71
403.93	173.20
404.13	170.86
404.32	175.54
404.51	229.37
404.70	182.56
404.89	154.48
405.09	203.63
405.28	110.01
405.47	81.92
405.66	208.31
405.85	105.32
406.05	100.64
406.24	138.09
406.43	112.35
406.62	79.58
406.81	112.35
407.00	142.77
407.20	117.03
407.39	203.63
407.58	194.26
407.77	112.35
407.96	138.09
408.15	149.79
408.34	145.11
408.54	198.95
408.73	100.64
408.92	131.07
409.11	105.32
409.30	126.39
409.49	121.71
409.68	37.45
409.87	133.41
410.07	98.30
410.26	124.05
410.45	88.94
410.64	105.32
410.83	145.11
411.02	121.71
411.21	168.52
411.40	161.50
411.59	121.71
411.78	98.30
411.98	121.71
412.17	140.43
412.36	173.20
412.55	149.79
412.74	208.31
412.93	227.03
413.12	126.39
413.31	95.96
413.50	156.82
413.69	182.56
413.88	201.29
414.07	182.56
414.26	25.75
414.45	114.69
414.64	182.56
414.83	140.43
415.02	170.86
415.22	119.37
415.41	212.99
415.60	121.71
415.79	156.82
415.98	161.50
416.17	126.39
416.36	79.58
416.55	128.73
416.74	182.56
416.93	124.05
417.12	159.16
417.31	133.41
417.50	110.01
417.69	217.67
417.88	161.50
418.07	117.03
418.26	142.77
418.45	124.05
418.64	182.56
418.83	191.92
419.02	175.54
419.21	182.56
419.39	154.48
419.58	203.63
419.77	154.48
419.96	152.13
420.15	175.54
420.34	67.88
420.53	105.32
420.72	163.84
420.91	166.18
421.10	156.82
421.29	180.22
421.48	119.37
421.67	182.56
421.86	70.22
422.05	133.41
422.24	126.39
422.43	102.98
422.61	65.54
422.80	107.66
422.99	210.65
423.18	110.01
423.37	117.03
423.56	98.30
423.75	154.48
423.94	236.39
424.13	100.64
424.32	133.41
424.50	110.01
424.69	147.45
424.88	173.20
425.07	128.73
425.26	194.26
425.45	222.35
425.64	102.98
425.83	210.65
426.01	102.98
426.20	121.71
426.39	107.66
426.58	133.41
426.77	84.26
426.96	138.09
427.15	189.58
427.33	135.75
427.52	138.09
427.71	105.32
427.90	152.13
428.09	189.58
428.28	121.71
428.46	124.05
428.65	131.07
428.84	161.50
429.03	210.65
429.22	42.13
429.40	93.62
429.59	177.88
429.78	112.35
429.97	147.45
430.16	191.92
430.34	119.37
430.53	117.03
430.72	65.54
430.91	112.35
431.10	156.82
431.28	124.05
431.47	117.03
431.66	222.35
431.85	156.82
432.03	88.94
432.22	74.90
432.41	168.52
432.60	201.29
432.79	152.13
432.97	313.63
433.16	283.20
433.35	205.97
433.54	145.11
433.72	201.29
433.91	184.90
434.10	243.42
434.28	187.24
434.47	91.28
434.66	189.58
434.85	112.35
435.03	98.30
435.22	180.22
435.41	126.39
435.59	126.39
435.78	126.39
435.97	154.48
436.16	191.92
436.34	126.39
436.53	142.77
436.72	154.48
436.90	117.03
437.09	119.37
437.28	72.56
437.46	102.98
437.65	117.03
437.84	168.52
438.02	182.56
438.21	138.09
438.40	154.48
438.58	177.88
438.77	173.20
438.96	128.73
439.14	166.18
439.33	191.92
439.52	173.20
439.70	95.96
439.89	156.82
440.08	184.90
440.26	117.03
440.45	74.90
440.63	175.54
440.82	156.82
441.01	180.22
441.19	112.35
441.38	173.20
441.57	161.50
441.75	184.90
441.94	159.16
442.12	93.62
442.31	124.05
442.50	142.77
442.68	154.48
442.87	161.50
443.05	147.45
443.24	173.20
443.43	110.01
443.61	170.86
443.80	60.85
443.98	133.41
444.17	88.94
444.35	126.39
444.54	198.95
444.73	107.66
444.91	161.50
445.10	114.69
445.28	88.94
445.47	149.79
445.65	208.31
445.84	95.96
446.02	112.35
446.21	163.84
446.39	182.56
446.58	124.05
446.77	100.64
446.95	147.45
447.14	91.28
447.32	147.45
447.51	208.31
447.69	63.19
447.88	154.48
448.06	196.60
448.25	142.77
448.43	194.26
448.62	86.60
448.80	180.22
448.99	187.24
449.17	142.77
449.36	107.66
449.54	168.52
449.73	74.90
449.91	163.84
450.10	147.45
450.28	140.43
450.46	135.75
450.65	121.71
450.83	191.92
451.02	177.88
451.20	105.32
451.39	140.43
451.57	131.07
451.76	210.65
451.94	119.37
452.13	196.60
452.31	191.92
452.49	124.05
452.68	142.77
452.86	124.05
453.05	198.95
453.23	154.48
453.42	156.82
453.60	149.79
453.78	65.54
453.97	140.43
454.15	133.41
454.34	147.45
454.52	140.43
454.70	201.29
454.89	138.09
455.07	110.01
455.26	95.96
455.44	161.50
455.62	147.45
455.81	198.95
455.99	198.95
456.17	117.03
456.36	102.98
456.54	124.05
456.73	110.01
456.91	147.45
457.09	170.86
457.28	168.52
457.46	114.69
457.64	163.84
457.83	110.01
458.01	79.58
458.19	81.92
458.38	133.41
458.56	105.32
458.74	110.01
458.93	168.52
459.11	131.07
459.29	147.45
459.48	121.71
459.66	257.46
459.84	156.82
460.03	278.52
460.21	131.07
460.39	117.03
460.57	117.03
460.76	126.39
460.94	142.77
461.12	201.29
461.31	152.13
461.49	147.45
461.67	100.64
461.85	98.30
462.04	159.16
462.22	575.77
462.40	166.18
462.59	215.33
462.77	56.17
462.95	131.07
463.13	121.71
463.32	170.86
463.50	93.62
463.68	182.56
463.86	74.90
464.05	100.64
464.23	208.31
464.41	170.86
464.59	217.67
464.78	154.48
464.96	102.98
465.14	93.62
465.32	124.05
465.50	126.39
465.69	177.88
465.87	173.20
466.05	215.33
466.23	163.84
466.41	126.39
466.60	196.60
466.78	102.98
466.96	119.37
467.14	100.64
467.32	152.13
467.51	196.60
467.69	154.48
467.87	161.50
468.05	163.84
468.23	184.90
468.41	159.16
468.60	173.20
468.78	175.54
468.96	124.05
469.14	147.45
469.32	81.92
469.50	114.69
469.69	161.50
469.87	161.50
470.05	159.16
470.23	161.50
470.41	105.32
470.59	93.62
470.77	105.32
470.95	166.18
471.14	173.20
471.32	112.35
471.50	198.95
471.68	154.48
471.86	203.63
472.04	138.09
472.22	107.66
472.40	124.05
472.58	140.43
472.77	79.58
472.95	93.62
473.13	184.90
473.31	184.90
473.49	128.73
473.67	121.71
473.85	163.84
474.03	133.41
474.21	147.45
474.39	212.99
474.57	142.77
474.75	177.88
474.93	217.67
475.12	100.64
475.30	184.90
475.48	74.90
475.66	98.30
475.84	119.37
476.02	135.75
476.20	93.62
476.38	102.98
476.56	173.20
476.74	154.48
476.92	95.96
477.10	84.26
477.28	110.01
477.46	100.64
477.64	138.09
477.82	142.77
478.00	119.37
478.18	121.71
478.36	135.75
478.54	175.54
478.72	56.17
478.90	142.77
479.08	126.39
479.26	154.48
479.44	119.37
479.62	91.28
479.80	133.41
479.98	93.62
480.16	152.13
480.34	222.35
480.52	86.60
480.70	140.43
480.88	100.64
481.06	142.77
481.24	114.69
481.41	161.50
481.59	159.16
481.77	133.41
481.95	147.45
482.13	170.86
482.31	210.65
482.49	100.64
482.67	131.07
482.85	124.05
483.03	180.22
483.21	110.01
483.39	86.60
483.57	88.94
483.74	126.39
483.92	152.13
484.10	98.30
484.28	177.88
484.46	205.97
484.64	107.66
484.82	152.13
485.00	105.32
485.18	98.30
485.35	184.90
485.53	86.60
485.71	156.82
485.89	133.41
486.07	170.86
486.25	180.22
486.43	196.60
486.61	175.54
486.78	187.24
486.96	124.05
487.14	140.43
487.32	107.66
487.50	117.03
487.68	201.29
487.85	79.58
488.03	154.48
488.21	187.24
488.39	95.96
488.57	170.86
488.75	187.24
488.92	266.82
489.10	152.13
489.28	182.56
489.46	126.39
489.64	138.09
489.81	201.29
489.99	173.20
490.17	196.60
490.35	159.16
490.53	88.94
490.70	91.28
490.88	156.82
491.06	56.17
491.24	187.24
491.41	159.16
491.59	208.31
491.77	114.69
491.95	161.50
492.13	124.05
492.30	126.39
492.48	107.66
492.66	140.43
492.84	79.58
493.01	154.48
493.19	77.24
493.37	159.16
493.54	126.39
493.72	163.84
493.90	131.07
494.08	163.84
494.25	152.13
494.43	119.37
494.61	156.82
494.79	93.62
494.96	77.24
495.14	170.86
495.32	177.88
495.49	46.81
495.67	184.90
495.85	166.18
496.02	95.96
496.20	177.88
496.38	166.18
496.55	135.75
496.73	135.75
496.91	138.09
497.09	140.43
497.26	126.39
497.44	212.99
497.62	154.48
497.79	133.41
497.97	189.58
498.14	175.54
498.32	205.97
498.50	117.03
498.67	145.11
498.85	182.56
499.03	159.16
499.20	100.64
499.38	152.13
499.56	126.39
499.73	243.42
499.91	131.07
500.08	138.09
500.26	133.41
500.44	156.82
500.61	105.32
500.79	170.86
500.97	161.50
501.14	161.50
501.32	187.24
501.49	102.98
501.67	128.73
501.84	168.52
502.02	93.62
502.20	163.84
502.37	182.56
502.55	175.54
502.72	100.64
502.90	145.11
503.07	187.24
503.25	173.20
503.43	145.11
503.60	175.54
503.78	175.54
503.95	140.43
504.13	145.11
504.30	131.07
504.48	177.88
504.65	203.63
504.83	124.05
505.01	77.24
505.18	149.79
505.36	131.07
505.53	121.71
505.71	170.86
505.88	140.43
506.06	154.48
506.23	98.30
506.41	95.96
506.58	100.64
506.76	107.66
506.93	114.69
507.11	138.09
507.28	156.82
507.46	114.69
507.63	234.05
507.81	119.37
507.98	173.20
508.16	147.45
508.33	112.35
508.50	191.92
508.68	95.96
508.85	208.31
509.03	156.82
509.20	126.39
509.38	149.79
509.55	152.13
509.73	187.24
509.90	114.69
510.08	187.24
510.25	131.07
510.42	126.39
510.60	220.01
510.77	147.45
510.95	95.96
511.12	145.11
511.30	173.20
511.47	145.11
511.64	149.79
511.82	88.94
511.99	156.82
512.17	154.48
512.34	124.05
512.51	105.32
512.69	147.45
512.86	147.45
513.04	208.31
513.21	201.29
513.38	107.66
513.56	88.94
513.73	135.75
513.90	81.92
514.08	180.22
514.25	154.48
514.43	86.60
514.60	170.86
514.77	173.20
514.95	208.31
515.12	201.29
515.29	65.54
515.47	175.54
515.64	79.58
515.81	189.58
515.99	156.82
516.16	175.54
516.33	175.54
516.51	175.54
516.68	124.05
516.85	149.79
517.03	121.71
517.20	170.86
517.37	84.26
517.54	128.73
517.72	135.75
517.89	175.54
518.06	184.90
518.24	201.29
518.41	175.54
518.58	133.41
518.75	133.41
518.93	95.96
519.10	107.66
519.27	126.39
519.45	168.52
519.62	100.64
519.79	102.98
519.96	77.24
520.14	128.73
520.31	201.29
520.48	114.69
520.65	128.73
520.83	131.07
521.00	194.26
521.17	145.11
521.34	156.82
521.52	138.09
521.69	180.22
521.86	126.39
522.03	201.29
522.20	117.03
522.38	93.62
522.55	173.20
522.72	110.01
522.89	173.20
523.07	210.65
523.24	184.90
523.41	117.03
523.58	163.84
523.75	133.41
523.92	149.79
524.10	91.28
524.27	98.30
524.44	67.88
524.61	163.84
524.78	128.73
524.96	124.05
525.13	110.01
525.30	147.45
525.47	175.54
525.64	72.56
525.81	121.71
525.98	161.50
526.16	168.52
526.33	126.39
526.50	128.73
526.67	93.62
526.84	110.01
527.01	152.13
527.18	135.75
527.36	121.71
527.53	196.60
527.70	220.01
527.87	102.98
528.04	201.29
528.21	117.03
528.38	203.63
528.55	168.52
528.72	191.92
528.89	135.75
529.07	180.22
529.24	102.98
529.41	189.58
529.58	102.98
529.75	163.84
529.92	128.73
530.09	86.60
530.26	220.01
530.43	88.94
530.60	187.24
530.77	126.39
530.94	63.19
531.11	138.09
531.28	140.43
531.46	105.32
531.63	168.52
531.80	79.58
531.97	156.82
532.14	154.48
532.31	147.45
532.48	154.48
532.65	210.65
532.82	208.31
532.99	154.48
533.16	205.97
533.33	149.79
533.50	156.82
533.67	145.11
533.84	250.44
534.01	290.23
534.18	163.84
534.35	138.09
534.52	98.30
534.69	198.95
534.86	133.41
535.03	107.66
535.20	117.03
535.37	175.54
535.54	147.45
535.71	159.16
535.88	203.63
536.05	210.65
536.22	184.90
536.38	98.30
536.55	49.15
536.72	220.01
536.89	138.09
537.06	138.09
537.23	74.90
537.40	112.35
537.57	196.60
537.74	138.09
537.91	124.05
538.08	107.66
538.25	198.95
538.42	77.24
538.59	117.03
538.75	107.66
538.92	124.05
539.09	201.29
539.26	187.24
539.43	327.68
539.60	603.86
539.77	943.24
539.94	788.76
540.11	440.02
540.28	266.82
540.44	220.01
540.61	149.79
540.78	201.29
540.95	187.24
541.12	194.26
541.29	175.54
541.46	194.26
541.62	184.90
541.79	210.65
541.96	107.66
542.13	133.41
542.30	145.11
542.47	147.45
542.63	138.09
542.80	170.86
542.97	119.37
543.14	154.48
543.31	128.73
543.48	107.66
543.64	140.43
543.81	114.69
543.98	147.45
544.15	131.07
544.32	145.11
544.48	175.54
544.65	131.07
544.82	107.66
544.99	100.64
545.16	152.13
545.32	145.11
545.49	152.13
545.66	212.99
545.83	147.45
546.00	112.35
546.16	74.90
546.33	163.84
546.50	170.86
546.67	135.75
546.83	161.50
547.00	128.73
547.17	152.13
547.34	128.73
547.50	180.22
547.67	133.41
547.84	140.43
548.00	145.11
548.17	63.19
548.34	107.66
548.51	152.13
548.67	117.03
548.84	177.88
549.01	102.98
549.18	98.30
549.34	81.92
549.51	170.86
549.68	119.37
549.84	131.07
550.01	102.98
550.18	236.39
550.34	231.71
550.51	133.41
550.68	175.54
550.84	133.41
551.01	163.84
551.18	152.13
551.34	135.75
551.51	86.60
551.68	163.84
551.84	152.13
552.01	154.48
552.18	88.94
552.34	154.48
552.51	117.03
552.68	184.90
552.84	117.03
553.01	205.97
553.18	147.45
553.34	135.75
553.51	63.19
553.67	135.75
553.84	208.31
554.01	173.20
554.17	100.64
554.34	110.01
554.51	102.98
554.67	154.48
554.84	133.41
555.00	198.95
555.17	194.26
555.33	88.94
555.50	201.29
555.67	170.86
555.83	110.01
556.00	175.54
556.16	327.68
556.33	163.84
556.50	135.75
556.66	131.07
556.83	168.52
556.99	133.41
557.16	135.75
557.32	205.97
557.49	159.16
557.65	145.11
557.82	175.54
557.98	161.50
558.15	112.35
558.32	138.09
558.48	114.69
558.65	138.09
558.81	161.50
558.98	128.73
559.14	131.07
559.31	117.03
559.47	142.77
559.64	119.37
559.80	142.77
559.97	117.03
560.13	77.24
560.30	175.54
560.46	161.50
560.63	140.43
560.79	107.66
560.96	212.99
561.12	145.11
561.29	159.16
561.45	166.18
561.61	177.88
561.78	224.69
561.94	126.39
562.11	173.20
562.27	142.77
562.44	145.11
562.60	154.48
562.77	145.11
562.93	168.52
563.10	177.88
563.26	203.63
563.42	119.37
563.59	170.86
563.75	133.41
563.92	184.90
564.08	163.84
564.24	168.52
564.41	161.50
564.57	180.22
564.74	180.22
564.90	133.41
565.07	238.73
565.23	156.82
565.39	205.97
565.56	194.26
565.72	154.48
565.88	198.95
566.05	147.45
566.21	184.90
566.38	149.79
566.54	145.11
566.70	114.69
566.87	177.88
567.03	79.58
567.19	131.07
567.36	131.07
567.52	168.52
567.68	234.05
567.85	154.48
568.01	205.97
568.17	100.64
568.34	161.50
568.50	180.22
568.66	133.41
568.83	220.01
568.99	184.90
569.15	119.37
569.32	110.01
569.48	138.09
569.64	161.50
569.81	182.56
569.97	142.77
570.13	184.90
570.30	154.48
570.46	180.22
570.62	131.07
570.78	142.77
570.95	145.11
571.11	168.52
571.27	131.07
571.43	135.75
571.60	119.37
571.76	152.13
571.92	105.32
572.09	166.18
572.25	205.97
572.41	191.92
572.57	142.77
572.74	149.79
572.90	161.50
573.06	135.75
573.22	170.86
573.38	194.26
573.55	154.48
573.71	220.01
573.87	124.05
574.03	159.16
574.20	166.18
574.36	196.60
574.52	234.05
574.68	212.99
574.84	173.20
575.01	102.98
575.17	184.90
575.33	161.50
575.49	147.45
575.65	175.54
575.82	355.76
575.98	358.10
576.14	472.79
576.30	353.42
576.46	320.65
576.62	248.10
576.79	201.29
576.95	131.07
577.11	93.62
577.27	145.11
577.43	210.65
577.59	159.16
577.75	145.11
577.92	145.11
578.08	184.90
578.24	203.63
578.40	194.26
578.56	215.33
578.72	189.58
578.88	224.69
579.04	170.86
579.21	149.79
579.37	140.43
579.53	142.77
579.69	161.50
579.85	138.09
580.01	262.14
580.17	196.60
580.33	196.60
580.49	180.22
580.65	243.42
580.82	238.73
580.98	184.90
581.14	180.22
581.30	290.23
581.46	231.71
581.62	372.15
581.78	318.31
581.94	292.57
582.10	334.70
582.26	243.42
582.42	210.65
582.58	201.29
582.74	255.12
582.90	234.05
583.06	264.48
583.22	245.76
583.38	325.33
583.54	353.42
583.70	353.42
583.86	454.06
584.02	465.77
584.18	594.50
584.34	1158.57
584.50	7906.33
584.66	27168.94
584.82	46845.82
584.98	49022.52
585.14	30455.05
585.30	16479.71
585.46	7740.15
585.62	3012.27
585.78	1343.47
585.94	755.99
586.10	566.41
586.26	468.11
586.42	365.12
586.58	339.38
586.74	348.74
586.90	243.42
587.06	280.86
587.22	301.93
587.38	372.15
587.54	1483.90
587.70	2991.20
587.86	3747.20
588.02	2834.39
588.18	1760.08
588.34	1043.88
588.49	489.17
588.65	360.44
588.81	266.82
588.97	201.29
589.13	266.82
589.29	194.26
589.45	229.37
589.61	182.56
589.77	301.93
589.93	257.46
590.08	266.82
590.24	330.02
590.40	208.31
590.56	276.18
590.72	191.92
590.88	222.35
591.04	198.95
591.20	287.89
591.35	252.78
591.51	187.24
591.67	243.42
591.83	161.50
591.99	133.41
592.15	231.71
592.31	102.98
592.46	229.37
592.62	177.88
592.78	189.58
592.94	220.01
593.10	191.92
593.26	187.24
593.41	184.90
593.57	299.59
593.73	1240.48
593.89	3581.02
594.05	5987.09
594.20	6176.67
594.36	4067.85
594.52	2394.37
594.68	1383.26
594.84	655.35
594.99	411.93
595.15	227.03
595.31	227.03
595.47	245.76
595.62	196.60
595.78	187.24
595.94	198.95
596.10	285.55
596.25	234.05
596.41	227.03
596.57	250.44
596.73	294.91
596.88	627.26
597.04	1151.54
597.20	1668.80
597.36	1198.35
597.51	774.72
597.67	440.02
597.83	306.61
597.99	184.90
598.14	128.73
598.30	290.23
598.46	208.31
598.61	248.10
598.77	168.52
598.93	147.45
599.09	152.13
599.24	133.41
599.40	184.90
599.56	147.45
599.71	140.43
599.87	147.45
600.03	205.97
600.18	182.56
600.34	173.20
600.50	105.32
600.65	170.86
600.81	159.16
600.97	159.16
601.12	166.18
601.28	124.05
601.44	156.82
601.59	180.22
601.75	201.29
601.91	224.69
602.06	170.86
602.22	512.58
602.37	908.13
602.53	1472.20
602.69	1596.25
602.84	1132.82
603.00	774.72
603.16	624.92
603.31	341.72
603.47	273.84
603.62	168.52
603.78	140.43
603.94	180.22
604.09	177.88
604.25	135.75
604.40	145.11
604.56	131.07
604.71	184.90
604.87	154.48
605.03	105.32
605.18	163.84
605.34	152.13
605.49	191.92
605.65	170.86
605.80	191.92
605.96	238.73
606.12	203.63
606.27	220.01
606.43	175.54
606.58	477.47
606.74	1872.43
606.89	3693.37
607.05	4936.19
607.20	4191.90
607.36	2710.34
607.51	1687.53
607.67	1083.67
607.82	571.09
607.98	428.32
608.13	278.52
608.29	262.14
608.44	292.57
608.60	276.18
608.75	842.59
608.91	3148.02
609.06	6445.84
609.22	8643.60
609.37	7250.98
609.53	5055.56
609.68	3157.38
609.84	1823.28
609.99	954.94
610.15	468.11
610.30	315.97
610.46	248.10
610.61	203.63
610.76	215.33
610.92	168.52
611.07	166.18
611.23	248.10
611.38	114.69
611.54	175.54
611.69	234.05
611.84	208.31
612.00	210.65
612.15	362.78
612.31	351.08
612.46	397.89
612.62	362.78
612.77	238.73
612.92	278.52
613.08	311.29
613.23	299.59
613.39	571.09
613.54	2977.16
613.69	8030.38
613.85	13270.84
614.00	13252.11
614.15	9511.94
614.31	5987.09
614.46	3735.50
614.62	1977.75
614.77	971.32
614.92	496.19
615.08	304.27
615.23	280.86
615.38	332.36
615.54	653.01
615.69	1631.35
615.84	3087.17
616.00	3660.60
616.15	2815.66
616.30	1963.71
616.46	1259.21
616.61	688.12
616.76	437.68
616.92	341.72
617.07	264.48
617.22	217.67
617.37	166.18
617.53	173.20
617.68	194.26
617.83	215.33
617.99	166.18
618.14	201.29
618.29	180.22
618.45	161.50
618.60	126.39
618.75	138.09
618.90	128.73
619.06	205.97
619.21	170.86
619.36	217.67
619.51	191.92
619.67	126.39
619.82	154.48
619.97	142.77
620.12	156.82
620.28	126.39
620.43	110.01
620.58	205.97
620.73	198.95
620.89	435.34
621.04	1029.84
621.19	1778.81
621.34	2162.66
621.49	1753.06
621.65	1306.02
621.80	851.96
621.95	683.44
622.10	411.93
622.25	227.03
622.41	159.16
622.56	154.48
622.71	156.82
622.86	264.48
623.01	159.16
623.16	196.60
623.32	128.73
623.47	189.58
623.62	142.77
623.77	149.79
623.92	159.16
624.07	173.20
624.23	112.35
624.38	140.43
624.53	234.05
624.68	208.31
624.83	184.90
624.98	173.20
625.13	191.92
625.29	177.88
625.44	222.35
625.59	203.63
625.74	482.15
625.89	1832.64
626.04	4337.01
626.19	6677.55
626.34	6677.55
626.49	5064.92
626.65	3318.88
626.80	2153.29
626.95	1299.00
627.10	657.69
627.25	341.72
627.40	198.95
627.55	252.78
627.70	166.18
627.85	182.56
628.00	159.16
628.15	234.05
628.30	227.03
628.45	191.92
628.60	234.05
628.76	152.13
628.91	131.07
629.06	205.97
629.21	163.84
629.36	166.18
629.51	217.67
629.66	355.76
629.81	849.61
629.96	1540.07
630.11	1912.22
630.26	1572.84
630.41	1210.06
630.56	814.51
630.71	557.05
630.86	315.97
631.01	194.26
631.16	262.14
631.31	222.35
631.46	217.67
631.61	189.58
631.76	124.05
631.91	91.28
632.06	231.71
632.21	205.97
632.36	325.33
632.51	367.46
632.66	945.58
632.81	2403.73
632.96	4088.92
633.10	4540.64
633.25	3761.24
633.40	2565.23
633.55	1689.87
633.70	1022.81
633.85	622.58
634.00	257.46
634.15	264.48
634.30	168.52
634.45	205.97
634.60	182.56
634.75	187.24
634.90	152.13
635.05	177.88
635.19	79.58
635.34	168.52
635.49	236.39
635.64	191.92
635.79	161.50
635.94	257.46
636.09	255.12
636.24	208.31
636.39	194.26
636.53	177.88
636.68	201.29
636.83	276.18
636.98	264.48
637.13	259.80
637.28	353.42
637.43	755.99
637.57	2614.38
637.72	5664.10
637.87	8329.97
638.02	8070.17
638.17	5940.28
638.32	4042.11
638.46	2635.44
638.61	1523.69
638.76	842.59
638.91	404.91
639.06	315.97
639.20	369.80
639.35	940.90
639.50	3798.69
639.65	8252.73
639.80	12608.47
639.94	12381.43
640.09	8971.27
640.24	6179.01
640.39	3880.61
640.54	2225.85
640.68	1107.07
640.83	650.67
640.98	376.83
641.13	299.59
641.27	257.46
641.42	196.60
641.57	287.89
641.72	196.60
641.86	194.26
642.01	166.18
642.16	250.44
642.31	191.92
642.45	187.24
642.60	198.95
642.75	88.94
642.90	140.43
643.04	142.77
643.19	182.56
643.34	236.39
643.48	201.29
643.63	212.99
643.78	198.95
643.93	276.18
644.07	238.73
644.22	98.30
644.37	152.13
644.51	138.09
644.66	187.24
644.81	140.43
644.95	114.69
645.10	182.56
645.25	145.11
645.39	145.11
645.54	91.28
645.69	170.86
645.83	138.09
645.98	231.71
646.13	201.29
646.27	170.86
646.42	161.50
646.57	255.12
646.71	159.16
646.86	135.75
647.00	245.76
647.15	147.45
647.30	121.71
647.44	180.22
647.59	147.45
647.74	126.39
647.88	168.52
648.03	126.39
648.17	180.22
648.32	173.20
648.47	175.54
648.61	210.65
648.76	128.73
648.90	212.99
649.05	154.48
649.20	161.50
649.34	110.01
649.49	124.05
649.63	156.82
649.78	423.64
649.92	1556.46
650.07	3922.74
650.21	6193.06
650.36	6612.01
650.51	5235.78
650.65	3595.06
650.80	2441.18
650.94	1387.94
651.09	844.93
651.23	407.25
651.38	374.49
651.52	189.58
651.67	189.58
651.81	177.88
651.96	248.10
652.10	175.54
652.25	84.26
652.39	292.57
652.54	538.32
652.68	1313.04
652.83	2225.85
652.97	2733.75
653.12	2078.40
653.26	1432.41
653.41	1039.20
653.55	734.93
653.70	409.59
653.84	294.91
653.99	180.22
654.13	170.86
654.27	231.71
654.42	154.48
654.56	114.69
654.71	241.08
654.85	126.39
655.00	182.56
655.14	189.58
655.29	177.88
655.43	173.20
655.57	173.20
655.72	88.94
655.86	201.29
656.01	126.39
656.15	222.35
656.30	182.56
656.44	156.82
656.58	152.13
656.73	147.45
656.87	156.82
657.01	133.41
657.16	135.75
657.30	180.22
657.45	231.71
657.59	215.33
657.73	126.39
657.88	194.26
658.02	170.86
658.16	147.45
658.31	63.19
658.45	201.29
658.60	191.92
658.74	79.58
658.88	128.73
659.03	201.29
659.17	704.50
659.31	1713.27
659.46	2932.69
659.60	3400.80
659.74	2923.33
659.89	2246.91
660.03	1474.54
660.17	952.60
660.32	528.96
660.46	351.08
660.60	252.78
660.74	119.37
660.89	154.48
661.03	86.60
661.17	133.41
661.32	112.35
661.46	191.92
661.60	210.65
661.74	107.66
661.89	177.88
662.03	93.62
662.17	203.63
662.31	142.77
662.46	159.16
662.60	117.03
662.74	145.11
662.88	217.67
663.03	194.26
663.17	138.09
663.31	177.88
663.45	70.22
663.60	159.16
663.74	180.22
663.88	79.58
664.02	198.95
664.17	117.03
664.31	77.24
664.45	147.45
664.59	140.43
664.73	163.84
664.88	191.92
665.02	191.92
665.16	102.98
665.30	149.79
665.44	259.80
665.59	189.58
665.73	131.07
665.87	140.43
666.01	95.96
666.15	135.75
666.29	128.73
666.44	196.60
666.58	194.26
666.72	161.50
666.86	177.88
667.00	428.32
667.14	1322.40
667.28	3229.94
667.43	5462.81
667.57	6216.46
667.71	5142.16
667.85	3602.08
667.99	2193.08
668.13	1299.00
668.27	720.88
668.41	552.37
668.56	259.80
668.70	259.80
668.84	208.31
668.98	170.86
669.12	140.43
669.26	117.03
669.40	182.56
669.54	135.75
669.68	231.71
669.82	196.60
669.96	191.92
670.10	147.45
670.25	175.54
670.39	166.18
670.53	135.75
670.67	159.16
670.81	220.01
670.95	482.15
671.09	1329.42
671.23	2586.29
671.37	3691.02
671.51	3770.60
671.65	2796.94
671.79	1750.72
671.93	1097.71
672.07	774.72
672.21	496.19
672.35	271.50
672.49	163.84
672.63	285.55
672.77	133.41
672.91	112.35
673.05	138.09
673.19	196.60
673.33	149.79
673.47	257.46
673.61	149.79
673.75	156.82
673.89	159.16
674.03	177.88
674.17	208.31
674.31	184.90
674.45	154.48
674.59	180.22
674.73	98.30
674.87	262.14
675.01	238.73
675.15	245.76
675.29	170.86
675.43	93.62
675.56	215.33
675.70	138.09
675.84	201.29
675.98	166.18
676.12	159.16
676.26	245.76
676.40	121.71
676.54	121.71
676.68	224.69
676.82	159.16
676.96	107.66
677.10	154.48
677.23	135.75
677.37	135.75
677.51	180.22
677.65	208.31
677.79	173.20
677.93	173.20
678.07	147.45
678.21	100.64
678.34	145.11
678.48	189.58
678.62	189.58
678.76	102.98
678.90	140.43
679.04	133.41
679.18	126.39
679.31	173.20
679.45	161.50
679.59	135.75
679.73	88.94
679.87	114.69
680.00	238.73
680.14	147.45
680.28	140.43
680.42	107.66
680.56	126.39
680.70	133.41
680.83	163.84
680.97	105.32
681.11	88.94
681.25	198.95
681.39	110.01
681.52	133.41
681.66	110.01
681.80	128.73
681.94	114.69
682.07	173.20
682.21	180.22
682.35	152.13
682.49	84.26
682.62	161.50
682.76	145.11
682.90	98.30
683.04	105.32
683.17	140.43
683.31	86.60
683.45	133.41
683.59	114.69
683.72	152.13
683.86	95.96
684.00	91.28
684.13	168.52
684.27	100.64
684.41	114.69
684.55	203.63
684.68	107.66
684.82	98.30
684.96	126.39
685.09	102.98
685.23	189.58
685.37	98.30
685.50	105.32
685.64	175.54
685.78	102.98
685.91	128.73
686.05	154.48
686.19	60.85
686.32	114.69
686.46	98.30
686.60	191.92
686.73	217.67
686.87	229.37
687.01	238.73
687.14	175.54
687.28	110.01
687.42	135.75
687.55	133.41
687.69	203.63
687.82	191.92
687.96	133.41
688.10	182.56
688.23	149.79
688.37	154.48
688.50	170.86
688.64	177.88
688.78	126.39
688.91	215.33
689.05	126.39
689.18	124.05
689.32	112.35
689.46	156.82
689.59	170.86
689.73	65.54
689.86	84.26
690.00	126.39
690.13	98.30
690.27	166.18
690.41	189.58
690.54	159.16
690.68	131.07
690.81	105.32
690.95	173.20
691.08	168.52
691.22	131.07
691.35	102.98
691.49	163.84
691.62	220.01
691.76	145.11
691.89	142.77
692.03	147.45
692.16	222.35
692.30	514.92
692.43	1364.53
692.57	2052.65
692.70	2628.42
692.84	2270.32
692.97	1792.85
693.11	1394.96
693.24	1036.86
693.38	662.37
693.51	388.53
693.65	304.27
693.78	212.99
693.92	166.18
694.05	147.45
694.19	166.18
694.32	189.58
694.45	194.26
694.59	182.56
694.72	102.98
694.86	112.35
694.99	194.26
695.13	189.58
695.26	112.35
695.39	189.58
695.53	255.12
695.66	138.09
695.80	142.77
695.93	210.65
696.07	201.29
696.20	341.72
696.33	367.46
696.47	315.97
696.60	308.95
696.73	250.44
696.87	234.05
697.00	224.69
697.14	145.11
697.27	166.18
697.40	257.46
697.54	77.24
697.67	154.48
697.80	212.99
697.94	159.16
698.07	112.35
698.21	156.82
698.34	149.79
698.47	91.28
698.61	88.94
698.74	86.60
698.87	180.22
699.01	100.64
699.14	177.88
699.27	145.11
699.40	250.44
699.54	149.79
699.67	126.39
699.80	133.41
699.94	140.43
700.07	107.66
700.20	105.32
700.34	166.18
700.47	114.69
700.60	182.56
700.73	217.67
700.87	203.63
701.00	184.90
701.13	212.99
701.26	205.97
701.40	149.79
701.53	105.32
701.66	119.37
701.79	145.11
701.93	212.99
702.06	264.48
702.19	311.29
702.32	318.31
702.46	311.29
702.59	601.52
702.72	1743.70
702.85	3194.83
702.99	4344.03
703.12	5053.22
703.25	4287.86
703.38	3688.68
703.51	2963.12
703.65	2092.44
703.78	1423.05
703.91	915.15
704.04	573.43
704.17	320.65
704.31	285.55
704.44	201.29
704.57	227.03
704.70	205.97
704.83	177.88
704.96	145.11
705.10	154.48
705.23	51.49
>>>>>End Processed Spectral Data<<<<<
