SpectraSuite Data File
++++++++++++++++++++++++++++++++++++
Date: Fri Oct 04 12:13:31 GMT-05:00 2013
User: price-jones
Dark Spectrum Present: No
Reference Spectrum Present: No
Number of Sampled Component Spectra: 1
Spectrometers: USB2+H05261
Integration Time (usec): 10000 (USB2+H05261)
Spectra Averaged: 1 (USB2+H05261)
Boxcar Smoothing: 0 (USB2+H05261)
Correct for Electrical Dark: No (USB2+H05261)
Strobe/Lamp Enabled: No (USB2+H05261)
Correct for Detector Non-linearity: No (USB2+H05261)
Correct for Stray Light: No (USB2+H05261)
Number of Pixels in Processed Spectrum: 2048
>>>>>Begin Processed Spectral Data<<<<<
365.73	0.00
365.92	0.00
366.12	0.00
366.32	0.00
366.52	0.00
366.72	0.00
366.91	0.00
367.11	0.00
367.31	0.00
367.51	0.00
367.70	0.00
367.90	0.00
368.10	0.00
368.30	0.00
368.49	0.00
368.69	0.00
368.89	0.00
369.09	0.00
369.28	0.00
369.48	0.00
369.68	0.00
369.87	0.00
370.07	0.00
370.27	0.00
370.47	0.00
370.66	0.00
370.86	0.00
371.06	0.00
371.25	0.00
371.45	0.00
371.65	0.00
371.84	0.00
372.04	23.41
372.24	0.00
372.44	18.72
372.63	4.68
372.83	70.22
373.03	0.00
373.22	16.38
373.42	2.34
373.62	23.41
373.81	30.43
374.01	105.32
374.21	21.06
374.40	14.04
374.60	81.92
374.79	39.79
374.99	0.00
375.19	49.15
375.38	0.00
375.58	49.15
375.78	30.43
375.97	81.92
376.17	37.45
376.37	49.15
376.56	53.83
376.76	0.00
376.95	0.00
377.15	7.02
377.35	58.51
377.54	23.41
377.74	0.00
377.93	0.00
378.13	0.00
378.33	30.43
378.52	25.75
378.72	44.47
378.91	93.62
379.11	37.45
379.31	21.06
379.50	63.19
379.70	60.85
379.89	65.54
380.09	42.13
380.28	0.00
380.48	77.24
380.68	30.43
380.87	0.00
381.07	32.77
381.26	0.00
381.46	11.70
381.65	35.11
381.85	23.41
382.04	0.00
382.24	32.77
382.43	0.00
382.63	0.00
382.83	0.00
383.02	9.36
383.22	21.06
383.41	0.00
383.61	9.36
383.80	18.72
384.00	0.00
384.19	42.13
384.39	16.38
384.58	0.00
384.78	56.17
384.97	46.81
385.17	9.36
385.36	0.00
385.56	0.00
385.75	0.00
385.95	16.38
386.14	21.06
386.34	0.00
386.53	53.83
386.72	11.70
386.92	28.09
387.11	0.00
387.31	79.58
387.50	30.43
387.70	0.00
387.89	53.83
388.09	11.70
388.28	91.28
388.48	44.47
388.67	30.43
388.86	9.36
389.06	46.81
389.25	53.83
389.45	100.64
389.64	0.00
389.84	21.06
390.03	46.81
390.22	0.00
390.42	18.72
390.61	0.00
390.81	46.81
391.00	0.00
391.19	46.81
391.39	95.96
391.58	100.64
391.78	23.41
391.97	0.00
392.16	0.00
392.36	25.75
392.55	23.41
392.75	53.83
392.94	0.00
393.13	30.43
393.33	42.13
393.52	56.17
393.71	37.45
393.91	9.36
394.10	28.09
394.29	21.06
394.49	4.68
394.68	37.45
394.88	9.36
395.07	14.04
395.26	0.00
395.46	0.00
395.65	0.00
395.84	9.36
396.04	0.00
396.23	42.13
396.42	32.77
396.62	16.38
396.81	0.00
397.00	65.54
397.19	11.70
397.39	32.77
397.58	58.51
397.77	0.00
397.97	53.83
398.16	4.68
398.35	0.00
398.55	32.77
398.74	0.00
398.93	39.79
399.12	0.00
399.32	60.85
399.51	28.09
399.70	58.51
399.90	77.24
400.09	39.79
400.28	30.43
400.47	7.02
400.67	28.09
400.86	0.00
401.05	30.43
401.24	0.00
401.44	63.19
401.63	37.45
401.82	95.96
402.01	107.66
402.21	16.38
402.40	49.15
402.59	95.96
402.78	18.72
402.97	42.13
403.17	4.68
403.36	56.17
403.55	23.41
403.74	0.00
403.93	25.75
404.13	51.49
404.32	56.17
404.51	49.15
404.70	84.26
404.89	102.98
405.09	21.06
405.28	102.98
405.47	2.34
405.66	9.36
405.85	70.22
406.05	30.43
406.24	0.00
406.43	0.00
406.62	67.88
406.81	49.15
407.00	93.62
407.20	11.70
407.39	0.00
407.58	0.00
407.77	84.26
407.96	9.36
408.15	21.06
408.34	0.00
408.54	51.49
408.73	0.00
408.92	25.75
409.11	0.00
409.30	0.00
409.49	18.72
409.68	0.00
409.87	60.85
410.07	49.15
410.26	23.41
410.45	11.70
410.64	7.02
410.83	0.00
411.02	0.00
411.21	56.17
411.40	14.04
411.59	0.00
411.78	16.38
411.98	46.81
412.17	0.00
412.36	7.02
412.55	49.15
412.74	0.00
412.93	58.51
413.12	25.75
413.31	0.00
413.50	35.11
413.69	9.36
413.88	0.00
414.07	7.02
414.26	39.79
414.45	112.35
414.64	49.15
414.83	65.54
415.02	65.54
415.22	18.72
415.41	67.88
415.60	56.17
415.79	11.70
415.98	21.06
416.17	2.34
416.36	49.15
416.55	2.34
416.74	60.85
416.93	0.00
417.12	39.79
417.31	7.02
417.50	14.04
417.69	49.15
417.88	0.00
418.07	77.24
418.26	0.00
418.45	39.79
418.64	28.09
418.83	51.49
419.02	0.00
419.21	4.68
419.39	32.77
419.58	72.56
419.77	25.75
419.96	84.26
420.15	14.04
420.34	72.56
420.53	0.00
420.72	37.45
420.91	53.83
421.10	70.22
421.29	0.00
421.48	77.24
421.67	32.77
421.86	46.81
422.05	46.81
422.24	25.75
422.43	18.72
422.61	65.54
422.80	86.60
422.99	37.45
423.18	14.04
423.37	53.83
423.56	107.66
423.75	53.83
423.94	0.00
424.13	72.56
424.32	25.75
424.50	18.72
424.69	63.19
424.88	11.70
425.07	0.00
425.26	0.00
425.45	44.47
425.64	0.00
425.83	0.00
426.01	30.43
426.20	2.34
426.39	0.00
426.58	46.81
426.77	98.30
426.96	51.49
427.15	14.04
427.33	4.68
427.52	0.00
427.71	42.13
427.90	135.75
428.09	72.56
428.28	39.79
428.46	30.43
428.65	91.28
428.84	93.62
429.03	9.36
429.22	11.70
429.40	21.06
429.59	0.00
429.78	21.06
429.97	0.00
430.16	23.41
430.34	44.47
430.53	63.19
430.72	0.00
430.91	0.00
431.10	49.15
431.28	65.54
431.47	56.17
431.66	42.13
431.85	51.49
432.03	70.22
432.22	0.00
432.41	0.00
432.60	23.41
432.79	77.24
432.97	4.68
433.16	11.70
433.35	30.43
433.54	28.09
433.72	72.56
433.91	0.00
434.10	0.00
434.28	30.43
434.47	23.41
434.66	79.58
434.85	65.54
435.03	51.49
435.22	39.79
435.41	32.77
435.59	60.85
435.78	28.09
435.97	65.54
436.16	74.90
436.34	39.79
436.53	39.79
436.72	53.83
436.90	0.00
437.09	21.06
437.28	35.11
437.46	0.00
437.65	28.09
437.84	0.00
438.02	0.00
438.21	4.68
438.40	11.70
438.58	35.11
438.77	32.77
438.96	70.22
439.14	23.41
439.33	0.00
439.52	35.11
439.70	28.09
439.89	63.19
440.08	65.54
440.26	81.92
440.45	0.00
440.63	86.60
440.82	7.02
441.01	39.79
441.19	67.88
441.38	79.58
441.57	46.81
441.75	56.17
441.94	49.15
442.12	145.11
442.31	0.00
442.50	0.00
442.68	46.81
442.87	14.04
443.05	0.00
443.24	0.00
443.43	84.26
443.61	0.00
443.80	0.00
443.98	74.90
444.17	0.00
444.35	14.04
444.54	67.88
444.73	53.83
444.91	67.88
445.10	4.68
445.28	84.26
445.47	28.09
445.65	9.36
445.84	35.11
446.02	30.43
446.21	0.00
446.39	0.00
446.58	14.04
446.77	25.75
446.95	67.88
447.14	0.00
447.32	14.04
447.51	63.19
447.69	0.00
447.88	18.72
448.06	72.56
448.25	21.06
448.43	0.00
448.62	2.34
448.80	44.47
448.99	28.09
449.17	0.00
449.36	11.70
449.54	32.77
449.73	88.94
449.91	21.06
450.10	44.47
450.28	100.64
450.46	28.09
450.65	56.17
450.83	0.00
451.02	30.43
451.20	23.41
451.39	0.00
451.57	0.00
451.76	79.58
451.94	28.09
452.13	42.13
452.31	88.94
452.49	79.58
452.68	0.00
452.86	65.54
453.05	30.43
453.23	0.00
453.42	23.41
453.60	0.00
453.78	0.00
453.97	16.38
454.15	56.17
454.34	4.68
454.52	28.09
454.70	2.34
454.89	60.85
455.07	37.45
455.26	42.13
455.44	58.51
455.62	42.13
455.81	84.26
455.99	70.22
456.17	42.13
456.36	79.58
456.54	63.19
456.73	21.06
456.91	39.79
457.09	0.00
457.28	67.88
457.46	0.00
457.64	2.34
457.83	105.32
458.01	63.19
458.19	39.79
458.38	74.90
458.56	23.41
458.74	58.51
458.93	72.56
459.11	63.19
459.29	46.81
459.48	0.00
459.66	35.11
459.84	23.41
460.03	44.47
460.21	35.11
460.39	0.00
460.57	18.72
460.76	42.13
460.94	32.77
461.12	30.43
461.31	0.00
461.49	0.00
461.67	32.77
461.85	35.11
462.04	51.49
462.22	74.90
462.40	77.24
462.59	46.81
462.77	53.83
462.95	67.88
463.13	16.38
463.32	4.68
463.50	58.51
463.68	0.00
463.86	28.09
464.05	67.88
464.23	0.00
464.41	14.04
464.59	0.00
464.78	11.70
464.96	0.00
465.14	0.00
465.32	9.36
465.50	16.38
465.69	58.51
465.87	16.38
466.05	93.62
466.23	28.09
466.41	25.75
466.60	46.81
466.78	0.00
466.96	72.56
467.14	77.24
467.32	37.45
467.51	37.45
467.69	0.00
467.87	32.77
468.05	0.00
468.23	63.19
468.41	18.72
468.60	0.00
468.78	44.47
468.96	65.54
469.14	23.41
469.32	0.00
469.50	44.47
469.69	74.90
469.87	65.54
470.05	84.26
470.23	53.83
470.41	25.75
470.59	4.68
470.77	128.73
470.95	16.38
471.14	11.70
471.32	37.45
471.50	56.17
471.68	79.58
471.86	0.00
472.04	67.88
472.22	37.45
472.40	56.17
472.58	53.83
472.77	0.00
472.95	42.13
473.13	49.15
473.31	0.00
473.49	35.11
473.67	67.88
473.85	4.68
474.03	7.02
474.21	0.00
474.39	37.45
474.57	25.75
474.75	44.47
474.93	11.70
475.12	0.00
475.30	2.34
475.48	98.30
475.66	49.15
475.84	102.98
476.02	37.45
476.20	44.47
476.38	88.94
476.56	44.47
476.74	81.92
476.92	0.00
477.10	7.02
477.28	0.00
477.46	0.00
477.64	46.81
477.82	18.72
478.00	46.81
478.18	46.81
478.36	58.51
478.54	37.45
478.72	18.72
478.90	30.43
479.08	0.00
479.26	18.72
479.44	32.77
479.62	79.58
479.80	9.36
479.98	53.83
480.16	21.06
480.34	51.49
480.52	81.92
480.70	58.51
480.88	37.45
481.06	28.09
481.24	35.11
481.41	119.37
481.59	30.43
481.77	21.06
481.95	67.88
482.13	28.09
482.31	23.41
482.49	0.00
482.67	30.43
482.85	25.75
483.03	9.36
483.21	60.85
483.39	72.56
483.57	53.83
483.74	0.00
483.92	0.00
484.10	70.22
484.28	53.83
484.46	16.38
484.64	0.00
484.82	58.51
485.00	18.72
485.18	16.38
485.35	32.77
485.53	46.81
485.71	39.79
485.89	23.41
486.07	79.58
486.25	60.85
486.43	28.09
486.61	0.00
486.78	81.92
486.96	72.56
487.14	49.15
487.32	79.58
487.50	28.09
487.68	2.34
487.85	0.00
488.03	37.45
488.21	37.45
488.39	39.79
488.57	0.00
488.75	60.85
488.92	49.15
489.10	18.72
489.28	16.38
489.46	9.36
489.64	16.38
489.81	63.19
489.99	4.68
490.17	44.47
490.35	77.24
490.53	70.22
490.70	18.72
490.88	9.36
491.06	72.56
491.24	98.30
491.41	70.22
491.59	53.83
491.77	65.54
491.95	84.26
492.13	16.38
492.30	0.00
492.48	11.70
492.66	72.56
492.84	21.06
493.01	4.68
493.19	77.24
493.37	91.28
493.54	77.24
493.72	25.75
493.90	4.68
494.08	21.06
494.25	53.83
494.43	23.41
494.61	44.47
494.79	60.85
494.96	30.43
495.14	46.81
495.32	18.72
495.49	77.24
495.67	53.83
495.85	112.35
496.02	46.81
496.20	49.15
496.38	0.00
496.55	35.11
496.73	79.58
496.91	0.00
497.09	95.96
497.26	16.38
497.44	67.88
497.62	37.45
497.79	58.51
497.97	28.09
498.14	84.26
498.32	32.77
498.50	70.22
498.67	28.09
498.85	21.06
499.03	51.49
499.20	16.38
499.38	56.17
499.56	23.41
499.73	25.75
499.91	95.96
500.08	67.88
500.26	98.30
500.44	58.51
500.61	0.00
500.79	56.17
500.97	14.04
501.14	23.41
501.32	39.79
501.49	60.85
501.67	56.17
501.84	49.15
502.02	2.34
502.20	51.49
502.37	30.43
502.55	37.45
502.72	11.70
502.90	32.77
503.07	77.24
503.25	39.79
503.43	49.15
503.60	77.24
503.78	63.19
503.95	0.00
504.13	154.48
504.30	79.58
504.48	42.13
504.65	74.90
504.83	51.49
505.01	93.62
505.18	95.96
505.36	23.41
505.53	0.00
505.71	0.00
505.88	28.09
506.06	63.19
506.23	46.81
506.41	35.11
506.58	28.09
506.76	9.36
506.93	0.00
507.11	60.85
507.28	9.36
507.46	0.00
507.63	0.00
507.81	30.43
507.98	0.00
508.16	42.13
508.33	0.00
508.50	37.45
508.68	28.09
508.85	93.62
509.03	0.00
509.20	35.11
509.38	16.38
509.55	67.88
509.73	21.06
509.90	79.58
510.08	32.77
510.25	30.43
510.42	42.13
510.60	93.62
510.77	0.00
510.95	23.41
511.12	67.88
511.30	18.72
511.47	0.00
511.64	30.43
511.82	51.49
511.99	30.43
512.17	11.70
512.34	93.62
512.51	35.11
512.69	49.15
512.86	0.00
513.04	37.45
513.21	0.00
513.38	39.79
513.56	60.85
513.73	16.38
513.90	0.00
514.08	56.17
514.25	18.72
514.43	42.13
514.60	16.38
514.77	23.41
514.95	63.19
515.12	46.81
515.29	9.36
515.47	16.38
515.64	0.00
515.81	7.02
515.99	53.83
516.16	56.17
516.33	37.45
516.51	0.00
516.68	46.81
516.85	44.47
517.03	42.13
517.20	42.13
517.37	37.45
517.54	9.36
517.72	46.81
517.89	44.47
518.06	37.45
518.24	156.82
518.41	67.88
518.58	44.47
518.75	65.54
518.93	63.19
519.10	98.30
519.27	58.51
519.45	0.00
519.62	0.00
519.79	51.49
519.96	95.96
520.14	53.83
520.31	2.34
520.48	0.00
520.65	51.49
520.83	84.26
521.00	35.11
521.17	98.30
521.34	91.28
521.52	23.41
521.69	0.00
521.86	0.00
522.03	60.85
522.20	74.90
522.38	88.94
522.55	30.43
522.72	35.11
522.89	100.64
523.07	4.68
523.24	133.41
523.41	11.70
523.58	0.00
523.75	11.70
523.92	81.92
524.10	11.70
524.27	16.38
524.44	25.75
524.61	81.92
524.78	7.02
524.96	46.81
525.13	35.11
525.30	0.00
525.47	49.15
525.64	35.11
525.81	35.11
525.98	67.88
526.16	0.00
526.33	70.22
526.50	42.13
526.67	18.72
526.84	0.00
527.01	95.96
527.18	42.13
527.36	11.70
527.53	81.92
527.70	23.41
527.87	84.26
528.04	16.38
528.21	65.54
528.38	84.26
528.55	60.85
528.72	51.49
528.89	93.62
529.07	28.09
529.24	39.79
529.41	0.00
529.58	32.77
529.75	65.54
529.92	0.00
530.09	35.11
530.26	16.38
530.43	28.09
530.60	35.11
530.77	0.00
530.94	28.09
531.11	51.49
531.28	77.24
531.46	0.00
531.63	25.75
531.80	86.60
531.97	81.92
532.14	21.06
532.31	70.22
532.48	121.71
532.65	58.51
532.82	35.11
532.99	32.77
533.16	21.06
533.33	0.00
533.50	30.43
533.67	56.17
533.84	70.22
534.01	35.11
534.18	42.13
534.35	30.43
534.52	56.17
534.69	0.00
534.86	16.38
535.03	11.70
535.20	28.09
535.37	58.51
535.54	25.75
535.71	84.26
535.88	16.38
536.05	93.62
536.22	56.17
536.38	70.22
536.55	37.45
536.72	39.79
536.89	65.54
537.06	60.85
537.23	60.85
537.40	63.19
537.57	30.43
537.74	70.22
537.91	42.13
538.08	9.36
538.25	7.02
538.42	0.00
538.59	84.26
538.75	56.17
538.92	0.00
539.09	84.26
539.26	72.56
539.43	70.22
539.60	11.70
539.77	7.02
539.94	7.02
540.11	46.81
540.28	30.43
540.44	37.45
540.61	4.68
540.78	37.45
540.95	65.54
541.12	46.81
541.29	63.19
541.46	72.56
541.62	37.45
541.79	4.68
541.96	58.51
542.13	18.72
542.30	11.70
542.47	32.77
542.63	0.00
542.80	0.00
542.97	37.45
543.14	56.17
543.31	0.00
543.48	25.75
543.64	84.26
543.81	65.54
543.98	9.36
544.15	65.54
544.32	30.43
544.48	100.64
544.65	0.00
544.82	0.00
544.99	28.09
545.16	4.68
545.32	60.85
545.49	4.68
545.66	39.79
545.83	32.77
546.00	7.02
546.16	35.11
546.33	56.17
546.50	44.47
546.67	42.13
546.83	44.47
547.00	46.81
547.17	81.92
547.34	4.68
547.50	44.47
547.67	0.00
547.84	65.54
548.00	0.00
548.17	70.22
548.34	21.06
548.51	7.02
548.67	44.47
548.84	63.19
549.01	58.51
549.18	18.72
549.34	30.43
549.51	67.88
549.68	77.24
549.84	28.09
550.01	42.13
550.18	67.88
550.34	58.51
550.51	105.32
550.68	0.00
550.84	0.00
551.01	39.79
551.18	53.83
551.34	65.54
551.51	11.70
551.68	0.00
551.84	49.15
552.01	60.85
552.18	37.45
552.34	58.51
552.51	53.83
552.68	124.05
552.84	53.83
553.01	142.77
553.18	0.00
553.34	63.19
553.51	77.24
553.67	100.64
553.84	91.28
554.01	21.06
554.17	4.68
554.34	30.43
554.51	42.13
554.67	65.54
554.84	25.75
555.00	46.81
555.17	37.45
555.33	49.15
555.50	63.19
555.67	53.83
555.83	51.49
556.00	11.70
556.16	60.85
556.33	30.43
556.50	0.00
556.66	88.94
556.83	74.90
556.99	0.00
557.16	56.17
557.32	37.45
557.49	21.06
557.65	23.41
557.82	0.00
557.98	51.49
558.15	49.15
558.32	72.56
558.48	46.81
558.65	56.17
558.81	51.49
558.98	72.56
559.14	4.68
559.31	65.54
559.47	70.22
559.64	86.60
559.80	44.47
559.97	84.26
560.13	81.92
560.30	11.70
560.46	37.45
560.63	58.51
560.79	98.30
560.96	79.58
561.12	35.11
561.29	7.02
561.45	49.15
561.61	79.58
561.78	98.30
561.94	9.36
562.11	4.68
562.27	51.49
562.44	14.04
562.60	0.00
562.77	77.24
562.93	53.83
563.10	0.00
563.26	72.56
563.42	65.54
563.59	35.11
563.75	0.00
563.92	67.88
564.08	49.15
564.24	42.13
564.41	39.79
564.57	25.75
564.74	23.41
564.90	60.85
565.07	88.94
565.23	74.90
565.39	0.00
565.56	37.45
565.72	16.38
565.88	95.96
566.05	51.49
566.21	65.54
566.38	53.83
566.54	32.77
566.70	4.68
566.87	49.15
567.03	0.00
567.19	117.03
567.36	53.83
567.52	30.43
567.68	35.11
567.85	72.56
568.01	51.49
568.17	0.00
568.34	86.60
568.50	14.04
568.66	28.09
568.83	74.90
568.99	0.00
569.15	70.22
569.32	65.54
569.48	65.54
569.64	58.51
569.81	65.54
569.97	70.22
570.13	35.11
570.30	0.00
570.46	9.36
570.62	18.72
570.78	0.00
570.95	35.11
571.11	11.70
571.27	79.58
571.43	18.72
571.60	16.38
571.76	23.41
571.92	18.72
572.09	25.75
572.25	51.49
572.41	23.41
572.57	86.60
572.74	53.83
572.90	63.19
573.06	39.79
573.22	60.85
573.38	18.72
573.55	0.00
573.71	11.70
573.87	60.85
574.03	65.54
574.20	67.88
574.36	56.17
574.52	49.15
574.68	70.22
574.84	67.88
575.01	51.49
575.17	74.90
575.33	91.28
575.49	81.92
575.65	107.66
575.82	32.77
575.98	60.85
576.14	119.37
576.30	0.00
576.46	32.77
576.62	51.49
576.79	65.54
576.95	58.51
577.11	14.04
577.27	65.54
577.43	84.26
577.59	51.49
577.75	42.13
577.92	30.43
578.08	9.36
578.24	100.64
578.40	9.36
578.56	81.92
578.72	128.73
578.88	0.00
579.04	16.38
579.21	74.90
579.37	152.13
579.53	91.28
579.69	11.70
579.85	46.81
580.01	119.37
580.17	4.68
580.33	0.00
580.49	0.00
580.65	0.00
580.82	23.41
580.98	42.13
581.14	18.72
581.30	79.58
581.46	53.83
581.62	0.00
581.78	49.15
581.94	16.38
582.10	105.32
582.26	86.60
582.42	63.19
582.58	0.00
582.74	58.51
582.90	30.43
583.06	63.19
583.22	79.58
583.38	51.49
583.54	11.70
583.70	86.60
583.86	0.00
584.02	46.81
584.18	100.64
584.34	25.75
584.50	117.03
584.66	620.24
584.82	1268.57
584.98	1322.40
585.14	1107.07
585.30	692.80
585.46	521.94
585.62	337.04
585.78	149.79
585.94	135.75
586.10	86.60
586.26	32.77
586.42	88.94
586.58	42.13
586.74	84.26
586.90	51.49
587.06	42.13
587.22	70.22
587.38	58.51
587.54	42.13
587.70	163.84
587.86	187.24
588.02	175.54
588.18	100.64
588.34	84.26
588.49	0.00
588.65	30.43
588.81	67.88
588.97	30.43
589.13	46.81
589.29	0.00
589.45	117.03
589.61	25.75
589.77	0.00
589.93	28.09
590.08	0.00
590.24	0.00
590.40	0.00
590.56	21.06
590.72	2.34
590.88	49.15
591.04	46.81
591.20	7.02
591.35	0.00
591.51	0.00
591.67	53.83
591.83	25.75
591.99	23.41
592.15	72.56
592.31	102.98
592.46	79.58
592.62	105.32
592.78	21.06
592.94	16.38
593.10	0.00
593.26	100.64
593.41	81.92
593.57	56.17
593.73	74.90
593.89	67.88
594.05	234.05
594.20	231.71
594.36	159.16
594.52	119.37
594.68	23.41
594.84	44.47
594.99	72.56
595.15	93.62
595.31	0.00
595.47	39.79
595.62	32.77
595.78	110.01
595.94	0.00
596.10	35.11
596.25	102.98
596.41	46.81
596.57	44.47
596.73	0.00
596.88	42.13
597.04	30.43
597.20	81.92
597.36	77.24
597.51	51.49
597.67	63.19
597.83	0.00
597.99	60.85
598.14	28.09
598.30	44.47
598.46	102.98
598.61	16.38
598.77	0.00
598.93	65.54
599.09	37.45
599.24	32.77
599.40	51.49
599.56	30.43
599.71	0.00
599.87	32.77
600.03	46.81
600.18	0.00
600.34	23.41
600.50	2.34
600.65	88.94
600.81	42.13
600.97	0.00
601.12	112.35
601.28	0.00
601.44	46.81
601.59	70.22
601.75	35.11
601.91	49.15
602.06	74.90
602.22	23.41
602.37	74.90
602.53	42.13
602.69	44.47
602.84	105.32
603.00	56.17
603.16	49.15
603.31	42.13
603.47	37.45
603.62	25.75
603.78	81.92
603.94	77.24
604.09	21.06
604.25	23.41
604.40	11.70
604.56	65.54
604.71	35.11
604.87	21.06
605.03	56.17
605.18	35.11
605.34	30.43
605.49	56.17
605.65	0.00
605.80	25.75
605.96	46.81
606.12	81.92
606.27	46.81
606.43	9.36
606.58	4.68
606.74	30.43
606.89	117.03
607.05	198.95
607.20	154.48
607.36	161.50
607.51	35.11
607.67	77.24
607.82	70.22
607.98	91.28
608.13	56.17
608.29	86.60
608.44	65.54
608.60	0.00
608.75	28.09
608.91	84.26
609.06	159.16
609.22	360.44
609.37	271.50
609.53	227.03
609.68	163.84
609.84	177.88
609.99	74.90
610.15	79.58
610.30	56.17
610.46	23.41
610.61	30.43
610.76	86.60
610.92	49.15
611.07	30.43
611.23	53.83
611.38	16.38
611.54	2.34
611.69	39.79
611.84	102.98
612.00	70.22
612.15	93.62
612.31	0.00
612.46	21.06
612.62	100.64
612.77	131.07
612.92	25.75
613.08	11.70
613.23	7.02
613.39	100.64
613.54	72.56
613.69	196.60
613.85	318.31
614.00	447.04
614.15	456.40
614.31	348.74
614.46	194.26
614.62	161.50
614.77	135.75
614.92	7.02
615.08	2.34
615.23	65.54
615.38	72.56
615.54	44.47
615.69	86.60
615.84	88.94
616.00	154.48
616.15	189.58
616.30	74.90
616.46	112.35
616.61	63.19
616.76	70.22
616.92	72.56
617.07	70.22
617.22	25.75
617.37	18.72
617.53	42.13
617.68	84.26
617.83	0.00
617.99	37.45
618.14	0.00
618.29	0.00
618.45	72.56
618.60	49.15
618.75	28.09
618.90	46.81
619.06	25.75
619.21	44.47
619.36	21.06
619.51	77.24
619.67	95.96
619.82	95.96
619.97	0.00
620.12	0.00
620.28	30.43
620.43	42.13
620.58	18.72
620.73	56.17
620.89	4.68
621.04	77.24
621.19	46.81
621.34	77.24
621.49	112.35
621.65	114.69
621.80	102.98
621.95	126.39
622.10	53.83
622.25	102.98
622.41	58.51
622.56	58.51
622.71	53.83
622.86	16.38
623.01	77.24
623.16	0.00
623.32	35.11
623.47	81.92
623.62	0.00
623.77	0.00
623.92	56.17
624.07	51.49
624.23	72.56
624.38	63.19
624.53	0.00
624.68	91.28
624.83	63.19
624.98	128.73
625.13	60.85
625.29	0.00
625.44	53.83
625.59	58.51
625.74	21.06
625.89	11.70
626.04	53.83
626.19	142.77
626.34	252.78
626.49	248.10
626.65	114.69
626.80	145.11
626.95	105.32
627.10	98.30
627.25	72.56
627.40	0.00
627.55	16.38
627.70	42.13
627.85	23.41
628.00	70.22
628.15	0.00
628.30	95.96
628.45	18.72
628.60	42.13
628.76	77.24
628.91	65.54
629.06	14.04
629.21	35.11
629.36	81.92
629.51	58.51
629.66	21.06
629.81	79.58
629.96	86.60
630.11	100.64
630.26	81.92
630.41	35.11
630.56	60.85
630.71	30.43
630.86	9.36
631.01	51.49
631.16	84.26
631.31	42.13
631.46	32.77
631.61	93.62
631.76	65.54
631.91	0.00
632.06	18.72
632.21	0.00
632.36	11.70
632.51	100.64
632.66	79.58
632.81	60.85
632.96	117.03
633.10	191.92
633.25	119.37
633.40	117.03
633.55	194.26
633.70	91.28
633.85	88.94
634.00	49.15
634.15	135.75
634.30	0.00
634.45	39.79
634.60	65.54
634.75	4.68
634.90	63.19
635.05	84.26
635.19	0.00
635.34	23.41
635.49	84.26
635.64	0.00
635.79	14.04
635.94	0.00
636.09	28.09
636.24	0.00
636.39	51.49
636.53	72.56
636.68	30.43
636.83	32.77
636.98	86.60
637.13	105.32
637.28	32.77
637.43	21.06
637.57	0.00
637.72	95.96
637.87	262.14
638.02	297.25
638.17	330.02
638.32	283.20
638.46	163.84
638.61	145.11
638.76	121.71
638.91	91.28
639.06	79.58
639.20	159.16
639.35	4.68
639.50	67.88
639.65	189.58
639.80	278.52
639.94	351.08
640.09	442.36
640.24	273.84
640.39	241.08
640.54	86.60
640.68	100.64
640.83	51.49
640.98	42.13
641.13	21.06
641.27	9.36
641.42	37.45
641.57	79.58
641.72	35.11
641.86	28.09
642.01	100.64
642.16	0.00
642.31	51.49
642.45	112.35
642.60	25.75
642.75	37.45
642.90	7.02
643.04	11.70
643.19	7.02
643.34	21.06
643.48	0.00
643.63	72.56
643.78	65.54
643.93	84.26
644.07	63.19
644.22	37.45
644.37	37.45
644.51	65.54
644.66	0.00
644.81	46.81
644.95	23.41
645.10	0.00
645.25	0.00
645.39	110.01
645.54	30.43
645.69	32.77
645.83	0.00
645.98	42.13
646.13	133.41
646.27	30.43
646.42	0.00
646.57	0.00
646.71	0.00
646.86	67.88
647.00	42.13
647.15	30.43
647.30	0.00
647.44	0.00
647.59	0.00
647.74	14.04
647.88	35.11
648.03	56.17
648.17	7.02
648.32	46.81
648.47	0.00
648.61	23.41
648.76	0.00
648.90	105.32
649.05	42.13
649.20	39.79
649.34	16.38
649.49	51.49
649.63	4.68
649.78	77.24
649.92	30.43
650.07	112.35
650.21	147.45
650.36	210.65
650.51	278.52
650.65	163.84
650.80	175.54
650.94	74.90
651.09	65.54
651.23	37.45
651.38	32.77
651.52	0.00
651.67	0.00
651.81	0.00
651.96	147.45
652.10	35.11
652.25	44.47
652.39	58.51
652.54	16.38
652.68	9.36
652.83	86.60
652.97	88.94
653.12	149.79
653.26	114.69
653.41	114.69
653.55	25.75
653.70	35.11
653.84	2.34
653.99	60.85
654.13	0.00
654.27	35.11
654.42	56.17
654.56	21.06
654.71	0.00
654.85	53.83
655.00	7.02
655.14	28.09
655.29	0.00
655.43	51.49
655.57	81.92
655.72	0.00
655.86	14.04
656.01	84.26
656.15	23.41
656.30	58.51
656.44	67.88
656.58	65.54
656.73	58.51
656.87	30.43
657.01	11.70
657.16	14.04
657.30	63.19
657.45	56.17
657.59	0.00
657.73	35.11
657.88	58.51
658.02	84.26
658.16	0.00
658.31	0.00
658.45	28.09
658.60	32.77
658.74	67.88
658.88	39.79
659.03	0.00
659.17	7.02
659.31	67.88
659.46	51.49
659.60	175.54
659.74	187.24
659.89	72.56
660.03	138.09
660.17	112.35
660.32	35.11
660.46	70.22
660.60	53.83
660.74	67.88
660.89	0.00
661.03	23.41
661.17	67.88
661.32	81.92
661.46	46.81
661.60	58.51
661.74	2.34
661.89	35.11
662.03	21.06
662.17	18.72
662.31	60.85
662.46	0.00
662.60	9.36
662.74	49.15
662.88	81.92
663.03	0.00
663.17	0.00
663.31	0.00
663.45	11.70
663.60	0.00
663.74	0.00
663.88	46.81
664.02	49.15
664.17	32.77
664.31	37.45
664.45	81.92
664.59	51.49
664.73	25.75
664.88	25.75
665.02	28.09
665.16	16.38
665.30	7.02
665.44	0.00
665.59	39.79
665.73	14.04
665.87	0.00
666.01	37.45
666.15	58.51
666.29	14.04
666.44	35.11
666.58	53.83
666.72	9.36
666.86	0.00
667.00	0.00
667.14	0.00
667.28	98.30
667.43	168.52
667.57	166.18
667.71	250.44
667.85	217.67
667.99	131.07
668.13	32.77
668.27	67.88
668.41	35.11
668.56	0.00
668.70	21.06
668.84	53.83
668.98	72.56
669.12	49.15
669.26	42.13
669.40	0.00
669.54	11.70
669.68	7.02
669.82	44.47
669.96	70.22
670.10	58.51
670.25	39.79
670.39	32.77
670.53	0.00
670.67	44.47
670.81	72.56
670.95	0.00
671.09	0.00
671.23	79.58
671.37	98.30
671.51	117.03
671.65	133.41
671.79	67.88
671.93	100.64
672.07	56.17
672.21	25.75
672.35	2.34
672.49	16.38
672.63	58.51
672.77	0.00
672.91	32.77
673.05	32.77
673.19	16.38
673.33	60.85
673.47	84.26
673.61	79.58
673.75	100.64
673.89	28.09
674.03	100.64
674.17	95.96
674.31	53.83
674.45	0.00
674.59	7.02
674.73	4.68
674.87	30.43
675.01	28.09
675.15	4.68
675.29	0.00
675.43	60.85
675.56	0.00
675.70	81.92
675.84	23.41
675.98	0.00
676.12	88.94
676.26	11.70
676.40	67.88
676.54	44.47
676.68	0.00
676.82	11.70
676.96	39.79
677.10	11.70
677.23	67.88
677.37	77.24
677.51	4.68
677.65	0.00
677.79	39.79
677.93	35.11
678.07	21.06
678.21	23.41
678.34	0.00
678.48	0.00
678.62	9.36
678.76	53.83
678.90	16.38
679.04	0.00
679.18	39.79
679.31	60.85
679.45	37.45
679.59	14.04
679.73	49.15
679.87	21.06
680.00	88.94
680.14	23.41
680.28	86.60
680.42	11.70
680.56	7.02
680.70	21.06
680.83	65.54
680.97	30.43
681.11	44.47
681.25	7.02
681.39	21.06
681.52	0.00
681.66	30.43
681.80	86.60
681.94	53.83
682.07	35.11
682.21	77.24
682.35	42.13
682.49	0.00
682.62	77.24
682.76	28.09
682.90	51.49
683.04	95.96
683.17	23.41
683.31	56.17
683.45	37.45
683.59	49.15
683.72	72.56
683.86	42.13
684.00	81.92
684.13	21.06
684.27	56.17
684.41	70.22
684.55	25.75
684.68	30.43
684.82	0.00
684.96	0.00
685.09	32.77
685.23	0.00
685.37	16.38
685.50	0.00
685.64	14.04
685.78	14.04
685.91	70.22
686.05	63.19
686.19	91.28
686.32	0.00
686.46	37.45
686.60	14.04
686.73	49.15
686.87	37.45
687.01	70.22
687.14	21.06
687.28	21.06
687.42	0.00
687.55	4.68
687.69	35.11
687.82	25.75
687.96	0.00
688.10	0.00
688.23	0.00
688.37	11.70
688.50	0.00
688.64	0.00
688.78	79.58
688.91	32.77
689.05	32.77
689.18	95.96
689.32	44.47
689.46	18.72
689.59	56.17
689.73	0.00
689.86	25.75
690.00	2.34
690.13	0.00
690.27	0.00
690.41	107.66
690.54	46.81
690.68	56.17
690.81	35.11
690.95	11.70
691.08	79.58
691.22	70.22
691.35	88.94
691.49	84.26
691.62	16.38
691.76	0.00
691.89	0.00
692.03	16.38
692.16	0.00
692.30	117.03
692.43	23.41
692.57	88.94
692.70	102.98
692.84	107.66
692.97	60.85
693.11	30.43
693.24	67.88
693.38	11.70
693.51	9.36
693.65	7.02
693.78	93.62
693.92	30.43
694.05	49.15
694.19	65.54
694.32	32.77
694.45	30.43
694.59	51.49
694.72	0.00
694.86	42.13
694.99	58.51
695.13	25.75
695.26	67.88
695.39	0.00
695.53	67.88
695.66	35.11
695.80	0.00
695.93	63.19
696.07	0.00
696.20	39.79
696.33	67.88
696.47	51.49
696.60	21.06
696.73	84.26
696.87	77.24
697.00	21.06
697.14	70.22
697.27	0.00
697.40	39.79
697.54	0.00
697.67	30.43
697.80	0.00
697.94	18.72
698.07	105.32
698.21	56.17
698.34	11.70
698.47	0.00
698.61	11.70
698.74	11.70
698.87	81.92
699.01	0.00
699.14	49.15
699.27	16.38
699.40	51.49
699.54	0.00
699.67	39.79
699.80	35.11
699.94	0.00
700.07	93.62
700.20	67.88
700.34	44.47
700.47	100.64
700.60	0.00
700.73	0.00
700.87	67.88
701.00	0.00
701.13	21.06
701.26	7.02
701.40	56.17
701.53	81.92
701.66	91.28
701.79	0.00
701.93	39.79
702.06	14.04
702.19	56.17
702.32	23.41
702.46	102.98
702.59	9.36
702.72	60.85
702.85	81.92
702.99	147.45
703.12	105.32
703.25	152.13
703.38	177.88
703.51	175.54
703.65	98.30
703.78	105.32
703.91	18.72
704.04	0.00
704.17	67.88
704.31	28.09
704.44	65.54
704.57	81.92
704.70	135.75
704.83	0.00
704.96	0.00
705.10	72.56
705.23	46.81
>>>>>End Processed Spectral Data<<<<<
