SpectraSuite Data File
++++++++++++++++++++++++++++++++++++
Date: Fri Oct 04 12:13:31 GMT-05:00 2013
User: price-jones
Dark Spectrum Present: No
Reference Spectrum Present: No
Number of Sampled Component Spectra: 1
Spectrometers: USB2+H05261
Integration Time (usec): 10000 (USB2+H05261)
Spectra Averaged: 1 (USB2+H05261)
Boxcar Smoothing: 0 (USB2+H05261)
Correct for Electrical Dark: No (USB2+H05261)
Strobe/Lamp Enabled: No (USB2+H05261)
Correct for Detector Non-linearity: No (USB2+H05261)
Correct for Stray Light: No (USB2+H05261)
Number of Pixels in Processed Spectrum: 2048
>>>>>Begin Processed Spectral Data<<<<<
365.73	0.00
365.92	0.00
366.12	0.00
366.32	0.00
366.52	0.00
366.72	0.00
366.91	0.00
367.11	0.00
367.31	0.00
367.51	0.00
367.70	0.00
367.90	0.00
368.10	0.00
368.30	0.00
368.49	0.00
368.69	0.00
368.89	0.00
369.09	0.00
369.28	0.00
369.48	0.00
369.68	0.00
369.87	0.00
370.07	0.00
370.27	0.00
370.47	0.00
370.66	0.00
370.86	0.00
371.06	0.00
371.25	0.00
371.45	0.00
371.65	0.00
371.84	7.02
372.04	0.00
372.24	4.68
372.44	0.00
372.63	0.00
372.83	25.75
373.03	0.00
373.22	37.45
373.42	77.24
373.62	44.47
373.81	81.92
374.01	0.00
374.21	42.13
374.40	30.43
374.60	0.00
374.79	46.81
374.99	32.77
375.19	23.41
375.38	67.88
375.58	88.94
375.78	91.28
375.97	86.60
376.17	4.68
376.37	117.03
376.56	0.00
376.76	60.85
376.95	32.77
377.15	16.38
377.35	110.01
377.54	0.00
377.74	28.09
377.93	35.11
378.13	0.00
378.33	0.00
378.52	0.00
378.72	4.68
378.91	7.02
379.11	21.06
379.31	65.54
379.50	7.02
379.70	0.00
379.89	0.00
380.09	16.38
380.28	0.00
380.48	65.54
380.68	0.00
380.87	65.54
381.07	0.00
381.26	63.19
381.46	0.00
381.65	9.36
381.85	11.70
382.04	2.34
382.24	53.83
382.43	11.70
382.63	23.41
382.83	51.49
383.02	0.00
383.22	0.00
383.41	32.77
383.61	0.00
383.80	0.00
384.00	67.88
384.19	23.41
384.39	0.00
384.58	44.47
384.78	46.81
384.97	0.00
385.17	0.00
385.36	0.00
385.56	51.49
385.75	28.09
385.95	25.75
386.14	44.47
386.34	142.77
386.53	7.02
386.72	53.83
386.92	91.28
387.11	53.83
387.31	21.06
387.50	65.54
387.70	63.19
387.89	23.41
388.09	0.00
388.28	16.38
388.48	44.47
388.67	0.00
388.86	0.00
389.06	42.13
389.25	91.28
389.45	28.09
389.64	0.00
389.84	4.68
390.03	23.41
390.22	28.09
390.42	70.22
390.61	53.83
390.81	0.00
391.00	32.77
391.19	58.51
391.39	14.04
391.58	56.17
391.78	2.34
391.97	0.00
392.16	0.00
392.36	9.36
392.55	51.49
392.75	11.70
392.94	39.79
393.13	35.11
393.33	16.38
393.52	0.00
393.71	7.02
393.91	7.02
394.10	0.00
394.29	67.88
394.49	46.81
394.68	51.49
394.88	51.49
395.07	60.85
395.26	0.00
395.46	51.49
395.65	65.54
395.84	30.43
396.04	0.00
396.23	21.06
396.42	21.06
396.62	0.00
396.81	2.34
397.00	35.11
397.19	0.00
397.39	95.96
397.58	18.72
397.77	0.00
397.97	0.00
398.16	44.47
398.35	0.00
398.55	0.00
398.74	86.60
398.93	0.00
399.12	98.30
399.32	49.15
399.51	46.81
399.70	23.41
399.90	44.47
400.09	4.68
400.28	58.51
400.47	42.13
400.67	32.77
400.86	65.54
401.05	0.00
401.24	0.00
401.44	67.88
401.63	28.09
401.82	32.77
402.01	70.22
402.21	28.09
402.40	0.00
402.59	51.49
402.78	51.49
402.97	28.09
403.17	16.38
403.36	16.38
403.55	95.96
403.74	70.22
403.93	0.00
404.13	84.26
404.32	65.54
404.51	0.00
404.70	0.00
404.89	0.00
405.09	0.00
405.28	14.04
405.47	79.58
405.66	126.39
405.85	53.83
406.05	0.00
406.24	58.51
406.43	0.00
406.62	53.83
406.81	28.09
407.00	0.00
407.20	0.00
407.39	49.15
407.58	0.00
407.77	0.00
407.96	32.77
408.15	56.17
408.34	14.04
408.54	0.00
408.73	0.00
408.92	28.09
409.11	21.06
409.30	102.98
409.49	70.22
409.68	32.77
409.87	86.60
410.07	21.06
410.26	56.17
410.45	14.04
410.64	0.00
410.83	65.54
411.02	14.04
411.21	0.00
411.40	25.75
411.59	0.00
411.78	58.51
411.98	0.00
412.17	0.00
412.36	79.58
412.55	0.00
412.74	0.00
412.93	25.75
413.12	30.43
413.31	42.13
413.50	84.26
413.69	0.00
413.88	14.04
414.07	2.34
414.26	21.06
414.45	0.00
414.64	23.41
414.83	0.00
415.02	72.56
415.22	0.00
415.41	23.41
415.60	0.00
415.79	35.11
415.98	0.00
416.17	9.36
416.36	23.41
416.55	2.34
416.74	46.81
416.93	37.45
417.12	7.02
417.31	7.02
417.50	0.00
417.69	21.06
417.88	70.22
418.07	9.36
418.26	91.28
418.45	56.17
418.64	16.38
418.83	0.00
419.02	32.77
419.21	67.88
419.39	67.88
419.58	65.54
419.77	35.11
419.96	35.11
420.15	0.00
420.34	25.75
420.53	4.68
420.72	30.43
420.91	0.00
421.10	60.85
421.29	4.68
421.48	0.00
421.67	65.54
421.86	16.38
422.05	51.49
422.24	44.47
422.43	32.77
422.61	14.04
422.80	84.26
422.99	51.49
423.18	0.00
423.37	37.45
423.56	46.81
423.75	0.00
423.94	86.60
424.13	16.38
424.32	32.77
424.50	9.36
424.69	16.38
424.88	88.94
425.07	81.92
425.26	30.43
425.45	44.47
425.64	2.34
425.83	60.85
426.01	37.45
426.20	21.06
426.39	0.00
426.58	72.56
426.77	63.19
426.96	25.75
427.15	51.49
427.33	72.56
427.52	84.26
427.71	28.09
427.90	4.68
428.09	0.00
428.28	98.30
428.46	102.98
428.65	60.85
428.84	63.19
429.03	79.58
429.22	23.41
429.40	56.17
429.59	0.00
429.78	18.72
429.97	11.70
430.16	7.02
430.34	46.81
430.53	0.00
430.72	56.17
430.91	25.75
431.10	95.96
431.28	37.45
431.47	70.22
431.66	91.28
431.85	65.54
432.03	32.77
432.22	46.81
432.41	0.00
432.60	51.49
432.79	9.36
432.97	23.41
433.16	35.11
433.35	18.72
433.54	11.70
433.72	79.58
433.91	14.04
434.10	0.00
434.28	7.02
434.47	56.17
434.66	28.09
434.85	23.41
435.03	11.70
435.22	100.64
435.41	105.32
435.59	77.24
435.78	0.00
435.97	32.77
436.16	84.26
436.34	53.83
436.53	0.00
436.72	0.00
436.90	9.36
437.09	42.13
437.28	37.45
437.46	7.02
437.65	72.56
437.84	35.11
438.02	28.09
438.21	63.19
438.40	0.00
438.58	77.24
438.77	72.56
438.96	49.15
439.14	0.00
439.33	0.00
439.52	25.75
439.70	23.41
439.89	77.24
440.08	0.00
440.26	0.00
440.45	79.58
440.63	56.17
440.82	81.92
441.01	0.00
441.19	0.00
441.38	0.00
441.57	46.81
441.75	70.22
441.94	16.38
442.12	30.43
442.31	65.54
442.50	30.43
442.68	25.75
442.87	37.45
443.05	0.00
443.24	0.00
443.43	0.00
443.61	77.24
443.80	23.41
443.98	49.15
444.17	0.00
444.35	0.00
444.54	25.75
444.73	72.56
444.91	60.85
445.10	35.11
445.28	18.72
445.47	72.56
445.65	23.41
445.84	0.00
446.02	84.26
446.21	7.02
446.39	0.00
446.58	0.00
446.77	0.00
446.95	32.77
447.14	0.00
447.32	46.81
447.51	0.00
447.69	18.72
447.88	72.56
448.06	0.00
448.25	0.00
448.43	53.83
448.62	77.24
448.80	7.02
448.99	42.13
449.17	42.13
449.36	14.04
449.54	0.00
449.73	56.17
449.91	72.56
450.10	58.51
450.28	0.00
450.46	7.02
450.65	35.11
450.83	65.54
451.02	105.32
451.20	88.94
451.39	39.79
451.57	0.00
451.76	51.49
451.94	77.24
452.13	53.83
452.31	9.36
452.49	14.04
452.68	42.13
452.86	0.00
453.05	72.56
453.23	0.00
453.42	42.13
453.60	0.00
453.78	2.34
453.97	2.34
454.15	46.81
454.34	0.00
454.52	74.90
454.70	18.72
454.89	114.69
455.07	18.72
455.26	0.00
455.44	37.45
455.62	105.32
455.81	0.00
455.99	0.00
456.17	42.13
456.36	4.68
456.54	4.68
456.73	49.15
456.91	88.94
457.09	81.92
457.28	46.81
457.46	0.00
457.64	39.79
457.83	4.68
458.01	0.00
458.19	0.00
458.38	51.49
458.56	0.00
458.74	65.54
458.93	42.13
459.11	0.00
459.29	0.00
459.48	37.45
459.66	14.04
459.84	53.83
460.03	67.88
460.21	100.64
460.39	21.06
460.57	14.04
460.76	32.77
460.94	63.19
461.12	51.49
461.31	0.00
461.49	0.00
461.67	0.00
461.85	30.43
462.04	4.68
462.22	58.51
462.40	28.09
462.59	9.36
462.77	25.75
462.95	11.70
463.13	2.34
463.32	58.51
463.50	91.28
463.68	79.58
463.86	53.83
464.05	74.90
464.23	74.90
464.41	58.51
464.59	58.51
464.78	53.83
464.96	110.01
465.14	49.15
465.32	25.75
465.50	23.41
465.69	53.83
465.87	46.81
466.05	49.15
466.23	4.68
466.41	0.00
466.60	25.75
466.78	16.38
466.96	14.04
467.14	0.00
467.32	28.09
467.51	49.15
467.69	77.24
467.87	72.56
468.05	16.38
468.23	110.01
468.41	65.54
468.60	42.13
468.78	37.45
468.96	16.38
469.14	7.02
469.32	0.00
469.50	16.38
469.69	67.88
469.87	37.45
470.05	7.02
470.23	74.90
470.41	0.00
470.59	39.79
470.77	0.00
470.95	42.13
471.14	39.79
471.32	53.83
471.50	0.00
471.68	39.79
471.86	0.00
472.04	0.00
472.22	56.17
472.40	0.00
472.58	14.04
472.77	100.64
472.95	39.79
473.13	74.90
473.31	42.13
473.49	67.88
473.67	37.45
473.85	44.47
474.03	110.01
474.21	11.70
474.39	0.00
474.57	0.00
474.75	133.41
474.93	35.11
475.12	11.70
475.30	21.06
475.48	105.32
475.66	65.54
475.84	77.24
476.02	16.38
476.20	0.00
476.38	65.54
476.56	0.00
476.74	105.32
476.92	30.43
477.10	93.62
477.28	42.13
477.46	2.34
477.64	0.00
477.82	49.15
478.00	79.58
478.18	35.11
478.36	32.77
478.54	35.11
478.72	86.60
478.90	23.41
479.08	60.85
479.26	51.49
479.44	0.00
479.62	0.00
479.80	44.47
479.98	112.35
480.16	30.43
480.34	93.62
480.52	65.54
480.70	60.85
480.88	70.22
481.06	51.49
481.24	28.09
481.41	2.34
481.59	51.49
481.77	51.49
481.95	49.15
482.13	60.85
482.31	0.00
482.49	44.47
482.67	0.00
482.85	100.64
483.03	37.45
483.21	28.09
483.39	86.60
483.57	14.04
483.74	0.00
483.92	18.72
484.10	21.06
484.28	0.00
484.46	79.58
484.64	25.75
484.82	28.09
485.00	46.81
485.18	9.36
485.35	67.88
485.53	23.41
485.71	74.90
485.89	49.15
486.07	72.56
486.25	51.49
486.43	44.47
486.61	4.68
486.78	84.26
486.96	124.05
487.14	126.39
487.32	23.41
487.50	67.88
487.68	0.00
487.85	49.15
488.03	4.68
488.21	65.54
488.39	0.00
488.57	44.47
488.75	67.88
488.92	112.35
489.10	58.51
489.28	70.22
489.46	84.26
489.64	0.00
489.81	65.54
489.99	0.00
490.17	0.00
490.35	23.41
490.53	16.38
490.70	23.41
490.88	21.06
491.06	21.06
491.24	72.56
491.41	28.09
491.59	67.88
491.77	30.43
491.95	84.26
492.13	0.00
492.30	28.09
492.48	65.54
492.66	11.70
492.84	60.85
493.01	23.41
493.19	65.54
493.37	0.00
493.54	58.51
493.72	23.41
493.90	110.01
494.08	9.36
494.25	46.81
494.43	25.75
494.61	35.11
494.79	0.00
494.96	67.88
495.14	0.00
495.32	37.45
495.49	2.34
495.67	11.70
495.85	44.47
496.02	23.41
496.20	25.75
496.38	9.36
496.55	16.38
496.73	30.43
496.91	28.09
497.09	23.41
497.26	0.00
497.44	9.36
497.62	56.17
497.79	28.09
497.97	18.72
498.14	28.09
498.32	32.77
498.50	30.43
498.67	35.11
498.85	25.75
499.03	30.43
499.20	32.77
499.38	18.72
499.56	11.70
499.73	44.47
499.91	60.85
500.08	65.54
500.26	74.90
500.44	16.38
500.61	32.77
500.79	72.56
500.97	60.85
501.14	58.51
501.32	49.15
501.49	18.72
501.67	39.79
501.84	37.45
502.02	16.38
502.20	65.54
502.37	30.43
502.55	37.45
502.72	0.00
502.90	21.06
503.07	0.00
503.25	70.22
503.43	39.79
503.60	91.28
503.78	74.90
503.95	58.51
504.13	91.28
504.30	9.36
504.48	0.00
504.65	42.13
504.83	11.70
505.01	21.06
505.18	35.11
505.36	53.83
505.53	51.49
505.71	25.75
505.88	30.43
506.06	102.98
506.23	35.11
506.41	65.54
506.58	30.43
506.76	23.41
506.93	102.98
507.11	14.04
507.28	23.41
507.46	74.90
507.63	25.75
507.81	0.00
507.98	107.66
508.16	72.56
508.33	11.70
508.50	35.11
508.68	0.00
508.85	0.00
509.03	0.00
509.20	44.47
509.38	39.79
509.55	44.47
509.73	67.88
509.90	16.38
510.08	0.00
510.25	70.22
510.42	60.85
510.60	37.45
510.77	98.30
510.95	63.19
511.12	67.88
511.30	9.36
511.47	58.51
511.64	25.75
511.82	77.24
511.99	112.35
512.17	63.19
512.34	0.00
512.51	39.79
512.69	23.41
512.86	102.98
513.04	28.09
513.21	16.38
513.38	32.77
513.56	7.02
513.73	53.83
513.90	7.02
514.08	0.00
514.25	14.04
514.43	65.54
514.60	37.45
514.77	4.68
514.95	107.66
515.12	30.43
515.29	25.75
515.47	44.47
515.64	11.70
515.81	44.47
515.99	91.28
516.16	23.41
516.33	56.17
516.51	42.13
516.68	0.00
516.85	9.36
517.03	9.36
517.20	74.90
517.37	60.85
517.54	95.96
517.72	88.94
517.89	131.07
518.06	49.15
518.24	51.49
518.41	67.88
518.58	25.75
518.75	18.72
518.93	138.09
519.10	42.13
519.27	11.70
519.45	88.94
519.62	95.96
519.79	21.06
519.96	63.19
520.14	25.75
520.31	0.00
520.48	72.56
520.65	49.15
520.83	49.15
521.00	53.83
521.17	81.92
521.34	102.98
521.52	60.85
521.69	25.75
521.86	16.38
522.03	23.41
522.20	86.60
522.38	95.96
522.55	51.49
522.72	58.51
522.89	11.70
523.07	77.24
523.24	58.51
523.41	63.19
523.58	37.45
523.75	56.17
523.92	95.96
524.10	30.43
524.27	140.43
524.44	39.79
524.61	72.56
524.78	23.41
524.96	93.62
525.13	42.13
525.30	30.43
525.47	70.22
525.64	145.11
525.81	11.70
525.98	23.41
526.16	16.38
526.33	0.00
526.50	51.49
526.67	58.51
526.84	30.43
527.01	16.38
527.18	0.00
527.36	58.51
527.53	107.66
527.70	35.11
527.87	42.13
528.04	67.88
528.21	0.00
528.38	37.45
528.55	7.02
528.72	63.19
528.89	128.73
529.07	25.75
529.24	37.45
529.41	32.77
529.58	39.79
529.75	28.09
529.92	23.41
530.09	79.58
530.26	44.47
530.43	0.00
530.60	30.43
530.77	28.09
530.94	42.13
531.11	46.81
531.28	77.24
531.46	67.88
531.63	32.77
531.80	18.72
531.97	44.47
532.14	121.71
532.31	0.00
532.48	65.54
532.65	110.01
532.82	49.15
532.99	28.09
533.16	117.03
533.33	100.64
533.50	65.54
533.67	4.68
533.84	56.17
534.01	44.47
534.18	79.58
534.35	63.19
534.52	51.49
534.69	88.94
534.86	35.11
535.03	53.83
535.20	72.56
535.37	4.68
535.54	79.58
535.71	14.04
535.88	21.06
536.05	18.72
536.22	114.69
536.38	53.83
536.55	11.70
536.72	14.04
536.89	28.09
537.06	44.47
537.23	84.26
537.40	21.06
537.57	131.07
537.74	44.47
537.91	7.02
538.08	42.13
538.25	28.09
538.42	44.47
538.59	53.83
538.75	18.72
538.92	51.49
539.09	32.77
539.26	77.24
539.43	49.15
539.60	4.68
539.77	147.45
539.94	184.90
540.11	70.22
540.28	128.73
540.44	86.60
540.61	56.17
540.78	49.15
540.95	63.19
541.12	63.19
541.29	35.11
541.46	7.02
541.62	16.38
541.79	44.47
541.96	14.04
542.13	65.54
542.30	56.17
542.47	98.30
542.63	46.81
542.80	0.00
542.97	74.90
543.14	28.09
543.31	88.94
543.48	0.00
543.64	86.60
543.81	51.49
543.98	0.00
544.15	0.00
544.32	2.34
544.48	21.06
544.65	42.13
544.82	0.00
544.99	58.51
545.16	35.11
545.32	74.90
545.49	0.00
545.66	35.11
545.83	28.09
546.00	84.26
546.16	53.83
546.33	18.72
546.50	107.66
546.67	65.54
546.83	42.13
547.00	44.47
547.17	60.85
547.34	81.92
547.50	51.49
547.67	51.49
547.84	0.00
548.00	0.00
548.17	58.51
548.34	30.43
548.51	30.43
548.67	72.56
548.84	63.19
549.01	105.32
549.18	44.47
549.34	46.81
549.51	46.81
549.68	7.02
549.84	35.11
550.01	11.70
550.18	51.49
550.34	79.58
550.51	0.00
550.68	53.83
550.84	65.54
551.01	37.45
551.18	23.41
551.34	0.00
551.51	16.38
551.68	84.26
551.84	67.88
552.01	32.77
552.18	46.81
552.34	0.00
552.51	51.49
552.68	53.83
552.84	32.77
553.01	77.24
553.18	44.47
553.34	102.98
553.51	7.02
553.67	58.51
553.84	65.54
554.01	77.24
554.17	51.49
554.34	53.83
554.51	32.77
554.67	7.02
554.84	30.43
555.00	88.94
555.17	84.26
555.33	28.09
555.50	84.26
555.67	65.54
555.83	63.19
556.00	0.00
556.16	110.01
556.33	16.38
556.50	7.02
556.66	0.00
556.83	23.41
556.99	93.62
557.16	0.00
557.32	95.96
557.49	32.77
557.65	72.56
557.82	0.00
557.98	9.36
558.15	56.17
558.32	14.04
558.48	65.54
558.65	44.47
558.81	0.00
558.98	37.45
559.14	67.88
559.31	35.11
559.47	7.02
559.64	0.00
559.80	102.98
559.97	30.43
560.13	0.00
560.30	21.06
560.46	46.81
560.63	0.00
560.79	81.92
560.96	46.81
561.12	23.41
561.29	32.77
561.45	63.19
561.61	0.00
561.78	42.13
561.94	145.11
562.11	0.00
562.27	60.85
562.44	42.13
562.60	18.72
562.77	79.58
562.93	63.19
563.10	77.24
563.26	0.00
563.42	84.26
563.59	110.01
563.75	112.35
563.92	51.49
564.08	0.00
564.24	30.43
564.41	60.85
564.57	2.34
564.74	23.41
564.90	58.51
565.07	74.90
565.23	51.49
565.39	56.17
565.56	0.00
565.72	30.43
565.88	23.41
566.05	53.83
566.21	32.77
566.38	0.00
566.54	58.51
566.70	63.19
566.87	42.13
567.03	0.00
567.19	135.75
567.36	44.47
567.52	11.70
567.68	30.43
567.85	21.06
568.01	42.13
568.17	0.00
568.34	60.85
568.50	0.00
568.66	0.00
568.83	0.00
568.99	49.15
569.15	95.96
569.32	46.81
569.48	79.58
569.64	0.00
569.81	9.36
569.97	0.00
570.13	30.43
570.30	102.98
570.46	39.79
570.62	67.88
570.78	42.13
570.95	30.43
571.11	23.41
571.27	0.00
571.43	18.72
571.60	2.34
571.76	93.62
571.92	11.70
572.09	0.00
572.25	0.00
572.41	0.00
572.57	28.09
572.74	42.13
572.90	30.43
573.06	9.36
573.22	2.34
573.38	46.81
573.55	81.92
573.71	23.41
573.87	86.60
574.03	25.75
574.20	77.24
574.36	51.49
574.52	117.03
574.68	67.88
574.84	21.06
575.01	42.13
575.17	65.54
575.33	95.96
575.49	30.43
575.65	112.35
575.82	140.43
575.98	30.43
576.14	77.24
576.30	88.94
576.46	0.00
576.62	37.45
576.79	63.19
576.95	0.00
577.11	65.54
577.27	30.43
577.43	51.49
577.59	95.96
577.75	0.00
577.92	46.81
578.08	42.13
578.24	18.72
578.40	4.68
578.56	21.06
578.72	121.71
578.88	23.41
579.04	23.41
579.21	72.56
579.37	79.58
579.53	110.01
579.69	117.03
579.85	93.62
580.01	91.28
580.17	56.17
580.33	49.15
580.49	23.41
580.65	28.09
580.82	18.72
580.98	14.04
581.14	77.24
581.30	53.83
581.46	81.92
581.62	32.77
581.78	138.09
581.94	65.54
582.10	77.24
582.26	53.83
582.42	0.00
582.58	110.01
582.74	46.81
582.90	93.62
583.06	74.90
583.22	58.51
583.38	100.64
583.54	128.73
583.70	63.19
583.86	121.71
584.02	63.19
584.18	142.77
584.34	187.24
584.50	285.55
584.66	1898.17
584.82	4674.05
584.98	6757.13
585.14	6120.50
585.30	3822.09
585.46	2333.51
585.62	1329.42
585.78	720.88
585.94	259.80
586.10	187.24
586.26	30.43
586.42	119.37
586.58	105.32
586.74	159.16
586.90	102.98
587.06	28.09
587.22	44.47
587.38	42.13
587.54	145.11
587.70	322.99
587.86	477.47
588.02	631.94
588.18	402.57
588.34	273.84
588.49	217.67
588.65	60.85
588.81	37.45
588.97	72.56
589.13	21.06
589.29	0.00
589.45	81.92
589.61	7.02
589.77	0.00
589.93	91.28
590.08	93.62
590.24	39.79
590.40	84.26
590.56	42.13
590.72	70.22
590.88	58.51
591.04	23.41
591.20	0.00
591.35	86.60
591.51	49.15
591.67	133.41
591.83	46.81
591.99	0.00
592.15	18.72
592.31	65.54
592.46	110.01
592.62	0.00
592.78	56.17
592.94	88.94
593.10	63.19
593.26	30.43
593.41	74.90
593.57	46.81
593.73	112.35
593.89	269.16
594.05	550.03
594.20	931.53
594.36	870.68
594.52	535.98
594.68	390.87
594.84	276.18
594.99	117.03
595.15	32.77
595.31	25.75
595.47	95.96
595.62	35.11
595.78	44.47
595.94	18.72
596.10	93.62
596.25	35.11
596.41	56.17
596.57	44.47
596.73	39.79
596.88	0.00
597.04	119.37
597.20	250.44
597.36	210.65
597.51	203.63
597.67	154.48
597.83	126.39
597.99	49.15
598.14	65.54
598.30	53.83
598.46	46.81
598.61	0.00
598.77	0.00
598.93	0.00
599.09	95.96
599.24	77.24
599.40	42.13
599.56	4.68
599.71	35.11
599.87	0.00
600.03	46.81
600.18	138.09
600.34	0.00
600.50	23.41
600.65	84.26
600.81	72.56
600.97	88.94
601.12	0.00
601.28	25.75
601.44	25.75
601.59	49.15
601.75	0.00
601.91	4.68
602.06	11.70
602.22	102.98
602.37	79.58
602.53	145.11
602.69	234.05
602.84	201.29
603.00	184.90
603.16	79.58
603.31	114.69
603.47	107.66
603.62	70.22
603.78	14.04
603.94	32.77
604.09	32.77
604.25	51.49
604.40	88.94
604.56	42.13
604.71	51.49
604.87	72.56
605.03	67.88
605.18	0.00
605.34	46.81
605.49	51.49
605.65	102.98
605.80	79.58
605.96	58.51
606.12	49.15
606.27	23.41
606.43	14.04
606.58	74.90
606.74	156.82
606.89	346.40
607.05	526.62
607.20	730.25
607.36	620.24
607.51	423.64
607.67	325.33
607.82	252.78
607.98	149.79
608.13	56.17
608.29	0.00
608.44	65.54
608.60	100.64
608.75	49.15
608.91	121.71
609.06	514.92
609.22	990.05
609.37	1310.70
609.53	1212.40
609.68	807.48
609.84	500.87
609.99	320.65
610.15	177.88
610.30	128.73
610.46	2.34
610.61	133.41
610.76	84.26
610.92	91.28
611.07	53.83
611.23	53.83
611.38	0.00
611.54	58.51
611.69	39.79
611.84	30.43
612.00	30.43
612.15	23.41
612.31	0.00
612.46	84.26
612.62	65.54
612.77	49.15
612.92	28.09
613.08	46.81
613.23	60.85
613.39	32.77
613.54	86.60
613.69	482.15
613.85	1184.31
614.00	1818.60
614.15	2085.42
614.31	1444.11
614.46	1029.84
614.62	676.41
614.77	386.19
614.92	264.48
615.08	67.88
615.23	126.39
615.38	77.24
615.54	117.03
615.69	86.60
615.84	299.59
616.00	367.46
616.15	444.70
616.30	503.22
616.46	238.73
616.61	177.88
616.76	149.79
616.92	124.05
617.07	88.94
617.22	105.32
617.37	70.22
617.53	0.00
617.68	49.15
617.83	63.19
617.99	58.51
618.14	0.00
618.29	23.41
618.45	107.66
618.60	30.43
618.75	0.00
618.90	0.00
619.06	42.13
619.21	11.70
619.36	74.90
619.51	60.85
619.67	81.92
619.82	72.56
619.97	0.00
620.12	67.88
620.28	44.47
620.43	100.64
620.58	7.02
620.73	110.01
620.89	0.00
621.04	7.02
621.19	131.07
621.34	285.55
621.49	362.78
621.65	308.95
621.80	252.78
621.95	93.62
622.10	126.39
622.25	49.15
622.41	112.35
622.56	37.45
622.71	0.00
622.86	23.41
623.01	88.94
623.16	23.41
623.32	23.41
623.47	30.43
623.62	56.17
623.77	86.60
623.92	39.79
624.07	16.38
624.23	28.09
624.38	23.41
624.53	11.70
624.68	9.36
624.83	56.17
624.98	58.51
625.13	30.43
625.29	30.43
625.44	114.69
625.59	91.28
625.74	65.54
625.89	51.49
626.04	266.82
626.19	669.39
626.34	854.30
626.49	1067.28
626.65	779.40
626.80	550.03
626.95	299.59
627.10	241.08
627.25	124.05
627.40	53.83
627.55	0.00
627.70	72.56
627.85	42.13
628.00	32.77
628.15	30.43
628.30	0.00
628.45	25.75
628.60	119.37
628.76	0.00
628.91	42.13
629.06	105.32
629.21	93.62
629.36	37.45
629.51	86.60
629.66	0.00
629.81	142.77
629.96	159.16
630.11	119.37
630.26	220.01
630.41	168.52
630.56	229.37
630.71	189.58
630.86	128.73
631.01	95.96
631.16	112.35
631.31	49.15
631.46	51.49
631.61	30.43
631.76	0.00
631.91	63.19
632.06	21.06
632.21	21.06
632.36	0.00
632.51	0.00
632.66	11.70
632.81	149.79
632.96	362.78
633.10	582.79
633.25	770.04
633.40	645.99
633.55	400.23
633.70	217.67
633.85	245.76
634.00	201.29
634.15	86.60
634.30	11.70
634.45	32.77
634.60	100.64
634.75	56.17
634.90	32.77
635.05	32.77
635.19	0.00
635.34	60.85
635.49	77.24
635.64	110.01
635.79	95.96
635.94	7.02
636.09	0.00
636.24	70.22
636.39	14.04
636.53	84.26
636.68	4.68
636.83	28.09
636.98	65.54
637.13	72.56
637.28	100.64
637.43	49.15
637.57	100.64
637.72	304.27
637.87	779.40
638.02	1240.48
638.17	1359.85
638.32	917.49
638.46	720.88
638.61	519.60
638.76	332.36
638.91	182.56
639.06	70.22
639.20	28.09
639.35	110.01
639.50	135.75
639.65	465.77
639.80	1179.63
639.94	1968.39
640.09	2087.76
640.24	1680.50
640.39	1121.12
640.54	826.21
640.68	531.30
640.83	262.14
640.98	168.52
641.13	60.85
641.27	53.83
641.42	84.26
641.57	112.35
641.72	16.38
641.86	25.75
642.01	93.62
642.16	79.58
642.31	32.77
642.45	77.24
642.60	18.72
642.75	46.81
642.90	4.68
643.04	56.17
643.19	100.64
643.34	60.85
643.48	14.04
643.63	56.17
643.78	42.13
643.93	7.02
644.07	32.77
644.22	49.15
644.37	46.81
644.51	88.94
644.66	77.24
644.81	0.00
644.95	42.13
645.10	23.41
645.25	126.39
645.39	44.47
645.54	18.72
645.69	95.96
645.83	60.85
645.98	30.43
646.13	11.70
646.27	56.17
646.42	28.09
646.57	77.24
646.71	44.47
646.86	0.00
647.00	63.19
647.15	21.06
647.30	25.75
647.44	18.72
647.59	84.26
647.74	39.79
647.88	67.88
648.03	9.36
648.17	4.68
648.32	2.34
648.47	60.85
648.61	9.36
648.76	35.11
648.90	28.09
649.05	88.94
649.20	39.79
649.34	112.35
649.49	0.00
649.63	0.00
649.78	65.54
649.92	53.83
650.07	140.43
650.21	517.26
650.36	922.17
650.51	1067.28
650.65	873.02
650.80	702.16
650.94	514.92
651.09	269.16
651.23	159.16
651.38	110.01
651.52	60.85
651.67	32.77
651.81	0.00
651.96	16.38
652.10	63.19
652.25	0.00
652.39	86.60
652.54	60.85
652.68	65.54
652.83	215.33
652.97	301.93
653.12	374.49
653.26	407.25
653.41	301.93
653.55	147.45
653.70	140.43
653.84	93.62
653.99	23.41
654.13	0.00
654.27	79.58
654.42	98.30
654.56	100.64
654.71	105.32
654.85	0.00
655.00	42.13
655.14	110.01
655.29	81.92
655.43	105.32
655.57	11.70
655.72	23.41
655.86	18.72
656.01	23.41
656.15	18.72
656.30	37.45
656.44	72.56
656.58	14.04
656.73	32.77
656.87	0.00
657.01	0.00
657.16	16.38
657.30	32.77
657.45	28.09
657.59	23.41
657.73	77.24
657.88	77.24
658.02	65.54
658.16	0.00
658.31	23.41
658.45	0.00
658.60	65.54
658.74	0.00
658.88	51.49
659.03	95.96
659.17	0.00
659.31	114.69
659.46	238.73
659.60	395.55
659.74	596.84
659.89	472.79
660.03	374.49
660.17	299.59
660.32	154.48
660.46	88.94
660.60	16.38
660.74	23.41
660.89	37.45
661.03	16.38
661.17	18.72
661.32	28.09
661.46	46.81
661.60	0.00
661.74	25.75
661.89	37.45
662.03	0.00
662.17	0.00
662.31	72.56
662.46	70.22
662.60	44.47
662.74	65.54
662.88	11.70
663.03	0.00
663.17	0.00
663.31	21.06
663.45	0.00
663.60	60.85
663.74	0.00
663.88	4.68
664.02	0.00
664.17	30.43
664.31	0.00
664.45	0.00
664.59	0.00
664.73	9.36
664.88	0.00
665.02	0.00
665.16	0.00
665.30	0.00
665.44	46.81
665.59	58.51
665.73	72.56
665.87	21.06
666.01	46.81
666.15	102.98
666.29	11.70
666.44	4.68
666.58	74.90
666.72	79.58
666.86	79.58
667.00	149.79
667.14	107.66
667.28	156.82
667.43	493.85
667.57	763.01
667.71	1018.13
667.85	851.96
667.99	557.05
668.13	369.80
668.27	269.16
668.41	180.22
668.56	131.07
668.70	30.43
668.84	67.88
668.98	98.30
669.12	95.96
669.26	60.85
669.40	37.45
669.54	0.00
669.68	39.79
669.82	67.88
669.96	49.15
670.10	0.00
670.25	2.34
670.39	9.36
670.53	63.19
670.67	32.77
670.81	0.00
670.95	0.00
671.09	65.54
671.23	201.29
671.37	418.96
671.51	624.92
671.65	657.69
671.79	484.49
671.93	304.27
672.07	180.22
672.21	163.84
672.35	138.09
672.49	86.60
672.63	65.54
672.77	49.15
672.91	4.68
673.05	25.75
673.19	84.26
673.33	88.94
673.47	58.51
673.61	32.77
673.75	11.70
673.89	0.00
674.03	67.88
674.17	0.00
674.31	32.77
674.45	32.77
674.59	98.30
674.73	67.88
674.87	0.00
675.01	37.45
675.15	30.43
675.29	28.09
675.43	74.90
675.56	51.49
675.70	11.70
675.84	65.54
675.98	0.00
676.12	0.00
676.26	67.88
676.40	0.00
676.54	119.37
676.68	28.09
676.82	105.32
676.96	58.51
677.10	67.88
677.23	42.13
677.37	16.38
677.51	16.38
677.65	51.49
677.79	74.90
677.93	23.41
678.07	49.15
678.21	0.00
678.34	32.77
678.48	30.43
678.62	67.88
678.76	28.09
678.90	79.58
679.04	4.68
679.18	14.04
679.31	23.41
679.45	51.49
679.59	0.00
679.73	18.72
679.87	93.62
680.00	0.00
680.14	0.00
680.28	0.00
680.42	4.68
680.56	0.00
680.70	0.00
680.83	107.66
680.97	16.38
681.11	23.41
681.25	53.83
681.39	23.41
681.52	56.17
681.66	16.38
681.80	28.09
681.94	0.00
682.07	58.51
682.21	77.24
682.35	0.00
682.49	7.02
682.62	63.19
682.76	11.70
682.90	14.04
683.04	60.85
683.17	14.04
683.31	21.06
683.45	51.49
683.59	44.47
683.72	28.09
683.86	49.15
684.00	44.47
684.13	65.54
684.27	46.81
684.41	46.81
684.55	37.45
684.68	23.41
684.82	0.00
684.96	84.26
685.09	63.19
685.23	39.79
685.37	42.13
685.50	100.64
685.64	0.00
685.78	0.00
685.91	28.09
686.05	46.81
686.19	84.26
686.32	28.09
686.46	0.00
686.60	63.19
686.73	0.00
686.87	39.79
687.01	21.06
687.14	60.85
687.28	0.00
687.42	77.24
687.55	32.77
687.69	58.51
687.82	81.92
687.96	42.13
688.10	42.13
688.23	42.13
688.37	0.00
688.50	21.06
688.64	0.00
688.78	14.04
688.91	18.72
689.05	25.75
689.18	0.00
689.32	18.72
689.46	46.81
689.59	53.83
689.73	32.77
689.86	0.00
690.00	32.77
690.13	18.72
690.27	28.09
690.41	2.34
690.54	56.17
690.68	49.15
690.81	63.19
690.95	53.83
691.08	25.75
691.22	0.00
691.35	4.68
691.49	32.77
691.62	7.02
691.76	37.45
691.89	79.58
692.03	2.34
692.16	51.49
692.30	0.00
692.43	119.37
692.57	201.29
692.70	278.52
692.84	423.64
692.97	433.00
693.11	358.10
693.24	208.31
693.38	177.88
693.51	145.11
693.65	117.03
693.78	67.88
693.92	0.00
694.05	46.81
694.19	42.13
694.32	9.36
694.45	42.13
694.59	4.68
694.72	0.00
694.86	11.70
694.99	119.37
695.13	84.26
695.26	0.00
695.39	0.00
695.53	14.04
695.66	0.00
695.80	46.81
695.93	44.47
696.07	30.43
696.20	49.15
696.33	70.22
696.47	74.90
696.60	18.72
696.73	0.00
696.87	0.00
697.00	0.00
697.14	14.04
697.27	63.19
697.40	42.13
697.54	23.41
697.67	46.81
697.80	18.72
697.94	16.38
698.07	56.17
698.21	0.00
698.34	56.17
698.47	112.35
698.61	0.00
698.74	44.47
698.87	107.66
699.01	11.70
699.14	0.00
699.27	0.00
699.40	9.36
699.54	93.62
699.67	11.70
699.80	11.70
699.94	0.00
700.07	42.13
700.20	114.69
700.34	30.43
700.47	0.00
700.60	53.83
700.73	25.75
700.87	53.83
701.00	44.47
701.13	39.79
701.26	44.47
701.40	9.36
701.53	23.41
701.66	0.00
701.79	16.38
701.93	0.00
702.06	42.13
702.19	51.49
702.32	65.54
702.46	74.90
702.59	60.85
702.72	100.64
702.85	315.97
702.99	554.71
703.12	716.20
703.25	802.80
703.38	741.95
703.51	526.62
703.65	409.59
703.78	311.29
703.91	236.39
704.04	147.45
704.17	91.28
704.31	184.90
704.44	107.66
704.57	0.00
704.70	25.75
704.83	7.02
704.96	2.34
705.10	126.39
705.23	77.24
>>>>>End Processed Spectral Data<<<<<
