SpectraSuite Data File
++++++++++++++++++++++++++++++++++++
Date: Fri Oct 04 12:13:45 GMT-05:00 2013
User: price-jones
Dark Spectrum Present: No
Reference Spectrum Present: No
Number of Sampled Component Spectra: 1
Spectrometers: USB2+H05261
Integration Time (usec): 10000 (USB2+H05261)
Spectra Averaged: 1 (USB2+H05261)
Boxcar Smoothing: 0 (USB2+H05261)
Correct for Electrical Dark: No (USB2+H05261)
Strobe/Lamp Enabled: No (USB2+H05261)
Correct for Detector Non-linearity: No (USB2+H05261)
Correct for Stray Light: No (USB2+H05261)
Number of Pixels in Processed Spectrum: 2048
>>>>>Begin Processed Spectral Data<<<<<
365.73	0.00
365.92	0.00
366.12	0.00
366.32	0.00
366.52	0.00
366.72	0.00
366.91	0.00
367.11	0.00
367.31	0.00
367.51	0.00
367.70	0.00
367.90	0.00
368.10	0.00
368.30	0.00
368.49	0.00
368.69	0.00
368.89	0.00
369.09	0.00
369.28	0.00
369.48	0.00
369.68	0.00
369.87	0.00
370.07	0.00
370.27	0.00
370.47	0.00
370.66	0.00
370.86	42.13
371.06	0.00
371.25	0.00
371.45	0.00
371.65	46.81
371.84	0.00
372.04	25.75
372.24	9.36
372.44	0.00
372.63	16.38
372.83	79.58
373.03	0.00
373.22	16.38
373.42	84.26
373.62	39.79
373.81	0.00
374.01	25.75
374.21	81.92
374.40	86.60
374.60	49.15
374.79	74.90
374.99	46.81
375.19	0.00
375.38	74.90
375.58	0.00
375.78	0.00
375.97	60.85
376.17	72.56
376.37	95.96
376.56	39.79
376.76	21.06
376.95	37.45
377.15	4.68
377.35	0.00
377.54	0.00
377.74	42.13
377.93	18.72
378.13	42.13
378.33	65.54
378.52	58.51
378.72	21.06
378.91	28.09
379.11	70.22
379.31	46.81
379.50	65.54
379.70	0.00
379.89	70.22
380.09	23.41
380.28	53.83
380.48	11.70
380.68	100.64
380.87	2.34
381.07	0.00
381.26	14.04
381.46	0.00
381.65	128.73
381.85	0.00
382.04	0.00
382.24	49.15
382.43	0.00
382.63	28.09
382.83	100.64
383.02	42.13
383.22	0.00
383.41	18.72
383.61	65.54
383.80	0.00
384.00	23.41
384.19	114.69
384.39	51.49
384.58	9.36
384.78	60.85
384.97	63.19
385.17	81.92
385.36	60.85
385.56	0.00
385.75	0.00
385.95	46.81
386.14	42.13
386.34	0.00
386.53	18.72
386.72	0.00
386.92	44.47
387.11	42.13
387.31	21.06
387.50	42.13
387.70	14.04
387.89	25.75
388.09	86.60
388.28	21.06
388.48	44.47
388.67	77.24
388.86	0.00
389.06	11.70
389.25	72.56
389.45	37.45
389.64	2.34
389.84	77.24
390.03	4.68
390.22	0.00
390.42	28.09
390.61	42.13
390.81	25.75
391.00	0.00
391.19	39.79
391.39	0.00
391.58	0.00
391.78	72.56
391.97	42.13
392.16	51.49
392.36	53.83
392.55	79.58
392.75	28.09
392.94	0.00
393.13	11.70
393.33	35.11
393.52	0.00
393.71	0.00
393.91	0.00
394.10	0.00
394.29	32.77
394.49	25.75
394.68	46.81
394.88	11.70
395.07	23.41
395.26	32.77
395.46	39.79
395.65	77.24
395.84	0.00
396.04	93.62
396.23	23.41
396.42	42.13
396.62	25.75
396.81	30.43
397.00	60.85
397.19	110.01
397.39	39.79
397.58	58.51
397.77	0.00
397.97	0.00
398.16	53.83
398.35	49.15
398.55	25.75
398.74	0.00
398.93	49.15
399.12	18.72
399.32	65.54
399.51	67.88
399.70	2.34
399.90	37.45
400.09	18.72
400.28	14.04
400.47	0.00
400.67	35.11
400.86	42.13
401.05	18.72
401.24	37.45
401.44	28.09
401.63	28.09
401.82	49.15
402.01	46.81
402.21	0.00
402.40	56.17
402.59	37.45
402.78	18.72
402.97	11.70
403.17	0.00
403.36	60.85
403.55	107.66
403.74	39.79
403.93	0.00
404.13	0.00
404.32	53.83
404.51	32.77
404.70	79.58
404.89	32.77
405.09	16.38
405.28	0.00
405.47	7.02
405.66	16.38
405.85	49.15
406.05	58.51
406.24	4.68
406.43	21.06
406.62	56.17
406.81	79.58
407.00	56.17
407.20	0.00
407.39	4.68
407.58	18.72
407.77	25.75
407.96	56.17
408.15	32.77
408.34	42.13
408.54	35.11
408.73	28.09
408.92	9.36
409.11	44.47
409.30	32.77
409.49	65.54
409.68	16.38
409.87	2.34
410.07	0.00
410.26	14.04
410.45	7.02
410.64	0.00
410.83	58.51
411.02	0.00
411.21	60.85
411.40	51.49
411.59	56.17
411.78	114.69
411.98	53.83
412.17	23.41
412.36	88.94
412.55	0.00
412.74	46.81
412.93	117.03
413.12	14.04
413.31	35.11
413.50	0.00
413.69	0.00
413.88	7.02
414.07	39.79
414.26	0.00
414.45	25.75
414.64	0.00
414.83	0.00
415.02	2.34
415.22	0.00
415.41	18.72
415.60	70.22
415.79	16.38
415.98	107.66
416.17	0.00
416.36	32.77
416.55	35.11
416.74	18.72
416.93	35.11
417.12	63.19
417.31	4.68
417.50	0.00
417.69	21.06
417.88	37.45
418.07	0.00
418.26	79.58
418.45	0.00
418.64	0.00
418.83	49.15
419.02	63.19
419.21	51.49
419.39	100.64
419.58	100.64
419.77	25.75
419.96	46.81
420.15	0.00
420.34	0.00
420.53	126.39
420.72	18.72
420.91	18.72
421.10	0.00
421.29	51.49
421.48	74.90
421.67	25.75
421.86	44.47
422.05	16.38
422.24	35.11
422.43	18.72
422.61	16.38
422.80	25.75
422.99	7.02
423.18	100.64
423.37	21.06
423.56	60.85
423.75	16.38
423.94	44.47
424.13	2.34
424.32	0.00
424.50	42.13
424.69	51.49
424.88	46.81
425.07	46.81
425.26	35.11
425.45	21.06
425.64	11.70
425.83	42.13
426.01	0.00
426.20	4.68
426.39	65.54
426.58	0.00
426.77	16.38
426.96	65.54
427.15	44.47
427.33	65.54
427.52	70.22
427.71	32.77
427.90	53.83
428.09	28.09
428.28	51.49
428.46	0.00
428.65	65.54
428.84	23.41
429.03	30.43
429.22	63.19
429.40	28.09
429.59	0.00
429.78	0.00
429.97	44.47
430.16	9.36
430.34	0.00
430.53	14.04
430.72	30.43
430.91	0.00
431.10	37.45
431.28	23.41
431.47	49.15
431.66	93.62
431.85	46.81
432.03	102.98
432.22	0.00
432.41	51.49
432.60	65.54
432.79	21.06
432.97	88.94
433.16	16.38
433.35	0.00
433.54	11.70
433.72	65.54
433.91	63.19
434.10	4.68
434.28	9.36
434.47	7.02
434.66	53.83
434.85	60.85
435.03	91.28
435.22	60.85
435.41	53.83
435.59	28.09
435.78	0.00
435.97	30.43
436.16	46.81
436.34	30.43
436.53	23.41
436.72	0.00
436.90	72.56
437.09	44.47
437.28	28.09
437.46	0.00
437.65	0.00
437.84	0.00
438.02	35.11
438.21	0.00
438.40	0.00
438.58	60.85
438.77	37.45
438.96	37.45
439.14	28.09
439.33	23.41
439.52	4.68
439.70	0.00
439.89	21.06
440.08	39.79
440.26	23.41
440.45	74.90
440.63	0.00
440.82	37.45
441.01	42.13
441.19	35.11
441.38	67.88
441.57	32.77
441.75	25.75
441.94	0.00
442.12	4.68
442.31	7.02
442.50	4.68
442.68	0.00
442.87	95.96
443.05	23.41
443.24	7.02
443.43	16.38
443.61	28.09
443.80	0.00
443.98	121.71
444.17	67.88
444.35	0.00
444.54	25.75
444.73	28.09
444.91	60.85
445.10	28.09
445.28	88.94
445.47	49.15
445.65	0.00
445.84	49.15
446.02	0.00
446.21	65.54
446.39	44.47
446.58	46.81
446.77	0.00
446.95	44.47
447.14	77.24
447.32	0.00
447.51	28.09
447.69	16.38
447.88	0.00
448.06	16.38
448.25	0.00
448.43	91.28
448.62	0.00
448.80	30.43
448.99	39.79
449.17	18.72
449.36	63.19
449.54	53.83
449.73	0.00
449.91	67.88
450.10	0.00
450.28	16.38
450.46	91.28
450.65	42.13
450.83	30.43
451.02	70.22
451.20	28.09
451.39	23.41
451.57	18.72
451.76	0.00
451.94	88.94
452.13	0.00
452.31	81.92
452.49	0.00
452.68	0.00
452.86	0.00
453.05	77.24
453.23	110.01
453.42	7.02
453.60	18.72
453.78	67.88
453.97	28.09
454.15	53.83
454.34	112.35
454.52	28.09
454.70	93.62
454.89	9.36
455.07	0.00
455.26	4.68
455.44	42.13
455.62	23.41
455.81	84.26
455.99	11.70
456.17	128.73
456.36	56.17
456.54	21.06
456.73	49.15
456.91	23.41
457.09	79.58
457.28	86.60
457.46	18.72
457.64	117.03
457.83	67.88
458.01	39.79
458.19	72.56
458.38	28.09
458.56	0.00
458.74	28.09
458.93	2.34
459.11	91.28
459.29	58.51
459.48	119.37
459.66	67.88
459.84	49.15
460.03	67.88
460.21	0.00
460.39	49.15
460.57	0.00
460.76	16.38
460.94	79.58
461.12	25.75
461.31	23.41
461.49	37.45
461.67	46.81
461.85	35.11
462.04	11.70
462.22	102.98
462.40	21.06
462.59	53.83
462.77	2.34
462.95	39.79
463.13	0.00
463.32	42.13
463.50	0.00
463.68	74.90
463.86	84.26
464.05	44.47
464.23	105.32
464.41	0.00
464.59	51.49
464.78	28.09
464.96	0.00
465.14	11.70
465.32	4.68
465.50	72.56
465.69	0.00
465.87	0.00
466.05	7.02
466.23	49.15
466.41	46.81
466.60	9.36
466.78	65.54
466.96	23.41
467.14	7.02
467.32	65.54
467.51	44.47
467.69	9.36
467.87	0.00
468.05	42.13
468.23	117.03
468.41	23.41
468.60	30.43
468.78	49.15
468.96	107.66
469.14	4.68
469.32	51.49
469.50	7.02
469.69	0.00
469.87	39.79
470.05	63.19
470.23	60.85
470.41	46.81
470.59	98.30
470.77	70.22
470.95	0.00
471.14	70.22
471.32	16.38
471.50	63.19
471.68	30.43
471.86	0.00
472.04	93.62
472.22	14.04
472.40	0.00
472.58	58.51
472.77	0.00
472.95	44.47
473.13	0.00
473.31	39.79
473.49	16.38
473.67	86.60
473.85	0.00
474.03	0.00
474.21	51.49
474.39	25.75
474.57	11.70
474.75	23.41
474.93	51.49
475.12	105.32
475.30	114.69
475.48	77.24
475.66	95.96
475.84	0.00
476.02	0.00
476.20	60.85
476.38	23.41
476.56	30.43
476.74	56.17
476.92	16.38
477.10	4.68
477.28	93.62
477.46	0.00
477.64	11.70
477.82	18.72
478.00	88.94
478.18	4.68
478.36	18.72
478.54	21.06
478.72	65.54
478.90	23.41
479.08	11.70
479.26	81.92
479.44	0.00
479.62	0.00
479.80	16.38
479.98	0.00
480.16	0.00
480.34	0.00
480.52	65.54
480.70	105.32
480.88	23.41
481.06	0.00
481.24	23.41
481.41	32.77
481.59	65.54
481.77	84.26
481.95	112.35
482.13	60.85
482.31	95.96
482.49	0.00
482.67	23.41
482.85	79.58
483.03	72.56
483.21	79.58
483.39	4.68
483.57	0.00
483.74	32.77
483.92	67.88
484.10	56.17
484.28	102.98
484.46	23.41
484.64	0.00
484.82	65.54
485.00	124.05
485.18	4.68
485.35	0.00
485.53	0.00
485.71	44.47
485.89	56.17
486.07	28.09
486.25	35.11
486.43	79.58
486.61	21.06
486.78	0.00
486.96	0.00
487.14	0.00
487.32	63.19
487.50	7.02
487.68	65.54
487.85	0.00
488.03	18.72
488.21	28.09
488.39	0.00
488.57	93.62
488.75	30.43
488.92	21.06
489.10	0.00
489.28	49.15
489.46	51.49
489.64	39.79
489.81	100.64
489.99	58.51
490.17	95.96
490.35	28.09
490.53	32.77
490.70	14.04
490.88	88.94
491.06	88.94
491.24	2.34
491.41	56.17
491.59	46.81
491.77	35.11
491.95	67.88
492.13	112.35
492.30	77.24
492.48	18.72
492.66	79.58
492.84	51.49
493.01	49.15
493.19	23.41
493.37	91.28
493.54	72.56
493.72	0.00
493.90	28.09
494.08	74.90
494.25	91.28
494.43	65.54
494.61	18.72
494.79	58.51
494.96	0.00
495.14	28.09
495.32	0.00
495.49	7.02
495.67	65.54
495.85	32.77
496.02	74.90
496.20	110.01
496.38	49.15
496.55	77.24
496.73	32.77
496.91	70.22
497.09	138.09
497.26	56.17
497.44	28.09
497.62	23.41
497.79	86.60
497.97	65.54
498.14	63.19
498.32	72.56
498.50	39.79
498.67	88.94
498.85	91.28
499.03	18.72
499.20	53.83
499.38	0.00
499.56	77.24
499.73	58.51
499.91	56.17
500.08	74.90
500.26	56.17
500.44	28.09
500.61	0.00
500.79	107.66
500.97	65.54
501.14	65.54
501.32	84.26
501.49	58.51
501.67	91.28
501.84	107.66
502.02	112.35
502.20	0.00
502.37	0.00
502.55	0.00
502.72	145.11
502.90	9.36
503.07	72.56
503.25	30.43
503.43	11.70
503.60	79.58
503.78	56.17
503.95	100.64
504.13	32.77
504.30	70.22
504.48	46.81
504.65	91.28
504.83	95.96
505.01	0.00
505.18	16.38
505.36	30.43
505.53	128.73
505.71	44.47
505.88	81.92
506.06	0.00
506.23	72.56
506.41	16.38
506.58	70.22
506.76	11.70
506.93	11.70
507.11	51.49
507.28	39.79
507.46	42.13
507.63	74.90
507.81	0.00
507.98	2.34
508.16	0.00
508.33	37.45
508.50	0.00
508.68	65.54
508.85	67.88
509.03	18.72
509.20	102.98
509.38	79.58
509.55	56.17
509.73	98.30
509.90	102.98
510.08	14.04
510.25	49.15
510.42	51.49
510.60	42.13
510.77	0.00
510.95	23.41
511.12	72.56
511.30	0.00
511.47	84.26
511.64	2.34
511.82	70.22
511.99	4.68
512.17	0.00
512.34	51.49
512.51	14.04
512.69	79.58
512.86	81.92
513.04	9.36
513.21	30.43
513.38	28.09
513.56	44.47
513.73	0.00
513.90	30.43
514.08	32.77
514.25	18.72
514.43	51.49
514.60	70.22
514.77	56.17
514.95	56.17
515.12	32.77
515.29	60.85
515.47	93.62
515.64	11.70
515.81	98.30
515.99	0.00
516.16	11.70
516.33	70.22
516.51	23.41
516.68	37.45
516.85	65.54
517.03	51.49
517.20	67.88
517.37	77.24
517.54	0.00
517.72	56.17
517.89	49.15
518.06	35.11
518.24	37.45
518.41	58.51
518.58	30.43
518.75	53.83
518.93	32.77
519.10	88.94
519.27	44.47
519.45	42.13
519.62	2.34
519.79	88.94
519.96	65.54
520.14	67.88
520.31	91.28
520.48	70.22
520.65	100.64
520.83	135.75
521.00	44.47
521.17	30.43
521.34	107.66
521.52	65.54
521.69	0.00
521.86	21.06
522.03	187.24
522.20	23.41
522.38	72.56
522.55	14.04
522.72	93.62
522.89	95.96
523.07	16.38
523.24	60.85
523.41	70.22
523.58	114.69
523.75	58.51
523.92	79.58
524.10	51.49
524.27	67.88
524.44	25.75
524.61	30.43
524.78	95.96
524.96	60.85
525.13	21.06
525.30	2.34
525.47	72.56
525.64	0.00
525.81	46.81
525.98	84.26
526.16	60.85
526.33	4.68
526.50	0.00
526.67	63.19
526.84	84.26
527.01	7.02
527.18	56.17
527.36	72.56
527.53	56.17
527.70	65.54
527.87	67.88
528.04	49.15
528.21	14.04
528.38	70.22
528.55	11.70
528.72	0.00
528.89	72.56
529.07	58.51
529.24	86.60
529.41	11.70
529.58	4.68
529.75	67.88
529.92	67.88
530.09	63.19
530.26	81.92
530.43	30.43
530.60	14.04
530.77	0.00
530.94	46.81
531.11	84.26
531.28	0.00
531.46	91.28
531.63	121.71
531.80	46.81
531.97	23.41
532.14	56.17
532.31	74.90
532.48	65.54
532.65	114.69
532.82	32.77
532.99	63.19
533.16	74.90
533.33	0.00
533.50	35.11
533.67	63.19
533.84	46.81
534.01	135.75
534.18	65.54
534.35	25.75
534.52	67.88
534.69	42.13
534.86	28.09
535.03	42.13
535.20	37.45
535.37	72.56
535.54	84.26
535.71	63.19
535.88	102.98
536.05	72.56
536.22	2.34
536.38	77.24
536.55	39.79
536.72	0.00
536.89	51.49
537.06	7.02
537.23	67.88
537.40	37.45
537.57	51.49
537.74	18.72
537.91	58.51
538.08	18.72
538.25	0.00
538.42	11.70
538.59	23.41
538.75	93.62
538.92	84.26
539.09	0.00
539.26	42.13
539.43	74.90
539.60	56.17
539.77	70.22
539.94	46.81
540.11	114.69
540.28	56.17
540.44	14.04
540.61	98.30
540.78	23.41
540.95	107.66
541.12	65.54
541.29	49.15
541.46	28.09
541.62	70.22
541.79	98.30
541.96	60.85
542.13	21.06
542.30	74.90
542.47	74.90
542.63	0.00
542.80	88.94
542.97	46.81
543.14	67.88
543.31	86.60
543.48	21.06
543.64	79.58
543.81	21.06
543.98	65.54
544.15	46.81
544.32	65.54
544.48	18.72
544.65	23.41
544.82	0.00
544.99	84.26
545.16	84.26
545.32	9.36
545.49	28.09
545.66	88.94
545.83	79.58
546.00	4.68
546.16	124.05
546.33	30.43
546.50	95.96
546.67	44.47
546.83	0.00
547.00	18.72
547.17	72.56
547.34	74.90
547.50	81.92
547.67	105.32
547.84	95.96
548.00	30.43
548.17	56.17
548.34	11.70
548.51	44.47
548.67	81.92
548.84	86.60
549.01	0.00
549.18	114.69
549.34	44.47
549.51	56.17
549.68	9.36
549.84	46.81
550.01	86.60
550.18	58.51
550.34	35.11
550.51	72.56
550.68	49.15
550.84	81.92
551.01	37.45
551.18	32.77
551.34	114.69
551.51	60.85
551.68	65.54
551.84	49.15
552.01	28.09
552.18	51.49
552.34	53.83
552.51	28.09
552.68	35.11
552.84	32.77
553.01	107.66
553.18	88.94
553.34	7.02
553.51	23.41
553.67	0.00
553.84	16.38
554.01	63.19
554.17	58.51
554.34	49.15
554.51	70.22
554.67	79.58
554.84	86.60
555.00	23.41
555.17	0.00
555.33	105.32
555.50	65.54
555.67	28.09
555.83	9.36
556.00	95.96
556.16	105.32
556.33	70.22
556.50	65.54
556.66	2.34
556.83	86.60
556.99	112.35
557.16	11.70
557.32	98.30
557.49	110.01
557.65	42.13
557.82	119.37
557.98	0.00
558.15	0.00
558.32	102.98
558.48	23.41
558.65	18.72
558.81	58.51
558.98	74.90
559.14	30.43
559.31	11.70
559.47	28.09
559.64	74.90
559.80	37.45
559.97	46.81
560.13	107.66
560.30	37.45
560.46	25.75
560.63	28.09
560.79	63.19
560.96	0.00
561.12	4.68
561.29	14.04
561.45	44.47
561.61	114.69
561.78	49.15
561.94	25.75
562.11	0.00
562.27	0.00
562.44	0.00
562.60	18.72
562.77	25.75
562.93	65.54
563.10	39.79
563.26	0.00
563.42	37.45
563.59	49.15
563.75	79.58
563.92	91.28
564.08	67.88
564.24	42.13
564.41	14.04
564.57	37.45
564.74	93.62
564.90	86.60
565.07	32.77
565.23	95.96
565.39	107.66
565.56	110.01
565.72	128.73
565.88	16.38
566.05	77.24
566.21	95.96
566.38	84.26
566.54	0.00
566.70	84.26
566.87	0.00
567.03	86.60
567.19	56.17
567.36	98.30
567.52	67.88
567.68	35.11
567.85	35.11
568.01	37.45
568.17	65.54
568.34	14.04
568.50	16.38
568.66	67.88
568.83	74.90
568.99	79.58
569.15	98.30
569.32	77.24
569.48	74.90
569.64	72.56
569.81	128.73
569.97	16.38
570.13	84.26
570.30	93.62
570.46	35.11
570.62	18.72
570.78	0.00
570.95	0.00
571.11	23.41
571.27	77.24
571.43	37.45
571.60	65.54
571.76	14.04
571.92	21.06
572.09	77.24
572.25	72.56
572.41	11.70
572.57	18.72
572.74	100.64
572.90	77.24
573.06	25.75
573.22	72.56
573.38	65.54
573.55	112.35
573.71	60.85
573.87	39.79
574.03	37.45
574.20	0.00
574.36	44.47
574.52	56.17
574.68	42.13
574.84	72.56
575.01	84.26
575.17	0.00
575.33	0.00
575.49	39.79
575.65	56.17
575.82	91.28
575.98	37.45
576.14	58.51
576.30	37.45
576.46	16.38
576.62	7.02
576.79	58.51
576.95	28.09
577.11	44.47
577.27	44.47
577.43	98.30
577.59	70.22
577.75	84.26
577.92	65.54
578.08	30.43
578.24	35.11
578.40	16.38
578.56	30.43
578.72	14.04
578.88	18.72
579.04	37.45
579.21	86.60
579.37	95.96
579.53	14.04
579.69	58.51
579.85	91.28
580.01	44.47
580.17	39.79
580.33	51.49
580.49	35.11
580.65	88.94
580.82	56.17
580.98	42.13
581.14	98.30
581.30	0.00
581.46	98.30
581.62	56.17
581.78	37.45
581.94	88.94
582.10	126.39
582.26	84.26
582.42	114.69
582.58	44.47
582.74	14.04
582.90	100.64
583.06	7.02
583.22	102.98
583.38	23.41
583.54	56.17
583.70	0.00
583.86	44.47
584.02	0.00
584.18	0.00
584.34	21.06
584.50	0.00
584.66	37.45
584.82	63.19
584.98	28.09
585.14	35.11
585.30	42.13
585.46	0.00
585.62	11.70
585.78	0.00
585.94	63.19
586.10	37.45
586.26	114.69
586.42	74.90
586.58	46.81
586.74	74.90
586.90	86.60
587.06	32.77
587.22	98.30
587.38	74.90
587.54	0.00
587.70	7.02
587.86	39.79
588.02	67.88
588.18	39.79
588.34	11.70
588.49	81.92
588.65	0.00
588.81	88.94
588.97	86.60
589.13	46.81
589.29	35.11
589.45	79.58
589.61	0.00
589.77	0.00
589.93	42.13
590.08	2.34
590.24	65.54
590.40	44.47
590.56	84.26
590.72	32.77
590.88	16.38
591.04	67.88
591.20	56.17
591.35	86.60
591.51	18.72
591.67	60.85
591.83	25.75
591.99	77.24
592.15	74.90
592.31	46.81
592.46	11.70
592.62	86.60
592.78	53.83
592.94	39.79
593.10	0.00
593.26	56.17
593.41	7.02
593.57	21.06
593.73	58.51
593.89	60.85
594.05	0.00
594.20	67.88
594.36	53.83
594.52	44.47
594.68	74.90
594.84	81.92
594.99	25.75
595.15	16.38
595.31	21.06
595.47	21.06
595.62	30.43
595.78	0.00
595.94	35.11
596.10	49.15
596.25	74.90
596.41	51.49
596.57	16.38
596.73	70.22
596.88	0.00
597.04	30.43
597.20	23.41
597.36	77.24
597.51	65.54
597.67	44.47
597.83	79.58
597.99	44.47
598.14	7.02
598.30	74.90
598.46	79.58
598.61	18.72
598.77	42.13
598.93	53.83
599.09	51.49
599.24	7.02
599.40	30.43
599.56	79.58
599.71	58.51
599.87	37.45
600.03	28.09
600.18	14.04
600.34	88.94
600.50	74.90
600.65	53.83
600.81	0.00
600.97	77.24
601.12	0.00
601.28	42.13
601.44	0.00
601.59	65.54
601.75	49.15
601.91	72.56
602.06	81.92
602.22	60.85
602.37	154.48
602.53	93.62
602.69	67.88
602.84	21.06
603.00	39.79
603.16	51.49
603.31	56.17
603.47	46.81
603.62	4.68
603.78	7.02
603.94	72.56
604.09	51.49
604.25	107.66
604.40	131.07
604.56	16.38
604.71	30.43
604.87	81.92
605.03	35.11
605.18	30.43
605.34	37.45
605.49	56.17
605.65	105.32
605.80	39.79
605.96	42.13
606.12	42.13
606.27	0.00
606.43	16.38
606.58	67.88
606.74	49.15
606.89	49.15
607.05	112.35
607.20	23.41
607.36	53.83
607.51	63.19
607.67	67.88
607.82	18.72
607.98	21.06
608.13	44.47
608.29	16.38
608.44	126.39
608.60	42.13
608.75	88.94
608.91	2.34
609.06	49.15
609.22	98.30
609.37	30.43
609.53	49.15
609.68	11.70
609.84	105.32
609.99	86.60
610.15	0.00
610.30	86.60
610.46	37.45
610.61	140.43
610.76	25.75
610.92	65.54
611.07	53.83
611.23	0.00
611.38	84.26
611.54	30.43
611.69	21.06
611.84	51.49
612.00	25.75
612.15	79.58
612.31	49.15
612.46	53.83
612.62	56.17
612.77	67.88
612.92	114.69
613.08	58.51
613.23	49.15
613.39	67.88
613.54	42.13
613.69	42.13
613.85	79.58
614.00	95.96
614.15	74.90
614.31	0.00
614.46	0.00
614.62	0.00
614.77	25.75
614.92	67.88
615.08	60.85
615.23	0.00
615.38	58.51
615.54	81.92
615.69	77.24
615.84	0.00
616.00	67.88
616.15	32.77
616.30	51.49
616.46	46.81
616.61	11.70
616.76	0.00
616.92	77.24
617.07	0.00
617.22	51.49
617.37	25.75
617.53	51.49
617.68	18.72
617.83	7.02
617.99	63.19
618.14	0.00
618.29	53.83
618.45	0.00
618.60	35.11
618.75	32.77
618.90	30.43
619.06	74.90
619.21	63.19
619.36	11.70
619.51	23.41
619.67	39.79
619.82	0.00
619.97	30.43
620.12	91.28
620.28	56.17
620.43	14.04
620.58	0.00
620.73	53.83
620.89	0.00
621.04	44.47
621.19	53.83
621.34	14.04
621.49	0.00
621.65	11.70
621.80	117.03
621.95	7.02
622.10	0.00
622.25	0.00
622.41	88.94
622.56	110.01
622.71	35.11
622.86	53.83
623.01	102.98
623.16	46.81
623.32	121.71
623.47	58.51
623.62	74.90
623.77	70.22
623.92	98.30
624.07	0.00
624.23	79.58
624.38	28.09
624.53	79.58
624.68	28.09
624.83	42.13
624.98	60.85
625.13	9.36
625.29	7.02
625.44	58.51
625.59	70.22
625.74	63.19
625.89	53.83
626.04	21.06
626.19	35.11
626.34	0.00
626.49	128.73
626.65	30.43
626.80	32.77
626.95	23.41
627.10	44.47
627.25	0.00
627.40	16.38
627.55	23.41
627.70	42.13
627.85	91.28
628.00	51.49
628.15	23.41
628.30	81.92
628.45	23.41
628.60	93.62
628.76	81.92
628.91	7.02
629.06	44.47
629.21	4.68
629.36	32.77
629.51	0.00
629.66	51.49
629.81	0.00
629.96	9.36
630.11	51.49
630.26	60.85
630.41	0.00
630.56	72.56
630.71	0.00
630.86	60.85
631.01	74.90
631.16	74.90
631.31	0.00
631.46	77.24
631.61	39.79
631.76	70.22
631.91	18.72
632.06	0.00
632.21	0.00
632.36	4.68
632.51	105.32
632.66	18.72
632.81	21.06
632.96	0.00
633.10	30.43
633.25	0.00
633.40	21.06
633.55	56.17
633.70	98.30
633.85	7.02
634.00	44.47
634.15	35.11
634.30	135.75
634.45	16.38
634.60	4.68
634.75	77.24
634.90	7.02
635.05	46.81
635.19	37.45
635.34	124.05
635.49	65.54
635.64	56.17
635.79	46.81
635.94	58.51
636.09	42.13
636.24	30.43
636.39	25.75
636.53	9.36
636.68	30.43
636.83	32.77
636.98	88.94
637.13	14.04
637.28	0.00
637.43	30.43
637.57	28.09
637.72	46.81
637.87	18.72
638.02	21.06
638.17	56.17
638.32	25.75
638.46	0.00
638.61	21.06
638.76	14.04
638.91	11.70
639.06	44.47
639.20	11.70
639.35	70.22
639.50	0.00
639.65	25.75
639.80	0.00
639.94	79.58
640.09	0.00
640.24	51.49
640.39	70.22
640.54	67.88
640.68	46.81
640.83	42.13
640.98	0.00
641.13	28.09
641.27	42.13
641.42	35.11
641.57	0.00
641.72	51.49
641.86	0.00
642.01	28.09
642.16	32.77
642.31	0.00
642.45	60.85
642.60	14.04
642.75	58.51
642.90	44.47
643.04	14.04
643.19	49.15
643.34	79.58
643.48	4.68
643.63	51.49
643.78	88.94
643.93	21.06
644.07	102.98
644.22	175.54
644.37	98.30
644.51	14.04
644.66	35.11
644.81	0.00
644.95	58.51
645.10	0.00
645.25	79.58
645.39	86.60
645.54	56.17
645.69	28.09
645.83	46.81
645.98	56.17
646.13	100.64
646.27	0.00
646.42	25.75
646.57	18.72
646.71	88.94
646.86	25.75
647.00	58.51
647.15	0.00
647.30	46.81
647.44	28.09
647.59	0.00
647.74	0.00
647.88	0.00
648.03	95.96
648.17	0.00
648.32	74.90
648.47	74.90
648.61	18.72
648.76	110.01
648.90	0.00
649.05	18.72
649.20	0.00
649.34	0.00
649.49	0.00
649.63	65.54
649.78	42.13
649.92	140.43
650.07	65.54
650.21	49.15
650.36	0.00
650.51	51.49
650.65	9.36
650.80	30.43
650.94	79.58
651.09	51.49
651.23	88.94
651.38	88.94
651.52	9.36
651.67	72.56
651.81	98.30
651.96	49.15
652.10	21.06
652.25	53.83
652.39	42.13
652.54	46.81
652.68	9.36
652.83	4.68
652.97	44.47
653.12	42.13
653.26	70.22
653.41	25.75
653.55	0.00
653.70	65.54
653.84	60.85
653.99	56.17
654.13	86.60
654.27	30.43
654.42	0.00
654.56	0.00
654.71	0.00
654.85	0.00
655.00	72.56
655.14	49.15
655.29	28.09
655.43	0.00
655.57	4.68
655.72	23.41
655.86	7.02
656.01	0.00
656.15	25.75
656.30	0.00
656.44	11.70
656.58	0.00
656.73	25.75
656.87	11.70
657.01	0.00
657.16	0.00
657.30	11.70
657.45	70.22
657.59	88.94
657.73	18.72
657.88	0.00
658.02	74.90
658.16	0.00
658.31	0.00
658.45	110.01
658.60	51.49
658.74	53.83
658.88	30.43
659.03	39.79
659.17	56.17
659.31	0.00
659.46	60.85
659.60	84.26
659.74	9.36
659.89	28.09
660.03	51.49
660.17	32.77
660.32	63.19
660.46	7.02
660.60	4.68
660.74	25.75
660.89	88.94
661.03	32.77
661.17	16.38
661.32	0.00
661.46	35.11
661.60	0.00
661.74	0.00
661.89	53.83
662.03	32.77
662.17	21.06
662.31	30.43
662.46	25.75
662.60	46.81
662.74	25.75
662.88	32.77
663.03	81.92
663.17	67.88
663.31	14.04
663.45	28.09
663.60	37.45
663.74	46.81
663.88	32.77
664.02	18.72
664.17	88.94
664.31	0.00
664.45	16.38
664.59	18.72
664.73	0.00
664.88	49.15
665.02	37.45
665.16	51.49
665.30	49.15
665.44	25.75
665.59	44.47
665.73	49.15
665.87	84.26
666.01	0.00
666.15	30.43
666.29	37.45
666.44	18.72
666.58	11.70
666.72	0.00
666.86	114.69
667.00	18.72
667.14	23.41
667.28	23.41
667.43	0.00
667.57	56.17
667.71	39.79
667.85	53.83
667.99	49.15
668.13	117.03
668.27	63.19
668.41	53.83
668.56	9.36
668.70	28.09
668.84	23.41
668.98	18.72
669.12	49.15
669.26	30.43
669.40	79.58
669.54	0.00
669.68	30.43
669.82	28.09
669.96	21.06
670.10	16.38
670.25	70.22
670.39	65.54
670.53	0.00
670.67	0.00
670.81	77.24
670.95	14.04
671.09	14.04
671.23	51.49
671.37	51.49
671.51	32.77
671.65	42.13
671.79	0.00
671.93	11.70
672.07	32.77
672.21	11.70
672.35	46.81
672.49	21.06
672.63	74.90
672.77	81.92
672.91	49.15
673.05	65.54
673.19	107.66
673.33	0.00
673.47	32.77
673.61	60.85
673.75	51.49
673.89	32.77
674.03	28.09
674.17	0.00
674.31	0.00
674.45	14.04
674.59	81.92
674.73	32.77
674.87	4.68
675.01	0.00
675.15	121.71
675.29	102.98
675.43	58.51
675.56	67.88
675.70	49.15
675.84	16.38
675.98	117.03
676.12	84.26
676.26	39.79
676.40	0.00
676.54	84.26
676.68	53.83
676.82	46.81
676.96	35.11
677.10	32.77
677.23	37.45
677.37	4.68
677.51	0.00
677.65	88.94
677.79	63.19
677.93	0.00
678.07	60.85
678.21	30.43
678.34	9.36
678.48	84.26
678.62	46.81
678.76	0.00
678.90	53.83
679.04	28.09
679.18	60.85
679.31	58.51
679.45	25.75
679.59	107.66
679.73	53.83
679.87	0.00
680.00	51.49
680.14	0.00
680.28	23.41
680.42	84.26
680.56	46.81
680.70	74.90
680.83	0.00
680.97	107.66
681.11	39.79
681.25	117.03
681.39	58.51
681.52	28.09
681.66	16.38
681.80	63.19
681.94	95.96
682.07	9.36
682.21	79.58
682.35	53.83
682.49	18.72
682.62	65.54
682.76	70.22
682.90	25.75
683.04	46.81
683.17	46.81
683.31	18.72
683.45	28.09
683.59	4.68
683.72	60.85
683.86	81.92
684.00	18.72
684.13	79.58
684.27	7.02
684.41	56.17
684.55	21.06
684.68	56.17
684.82	37.45
684.96	35.11
685.09	0.00
685.23	0.00
685.37	51.49
685.50	25.75
685.64	7.02
685.78	51.49
685.91	121.71
686.05	37.45
686.19	100.64
686.32	65.54
686.46	79.58
686.60	0.00
686.73	37.45
686.87	84.26
687.01	56.17
687.14	46.81
687.28	4.68
687.42	30.43
687.55	63.19
687.69	102.98
687.82	42.13
687.96	16.38
688.10	51.49
688.23	0.00
688.37	4.68
688.50	0.00
688.64	23.41
688.78	0.00
688.91	16.38
689.05	102.98
689.18	21.06
689.32	21.06
689.46	49.15
689.59	30.43
689.73	0.00
689.86	35.11
690.00	56.17
690.13	37.45
690.27	0.00
690.41	7.02
690.54	0.00
690.68	65.54
690.81	63.19
690.95	23.41
691.08	65.54
691.22	56.17
691.35	30.43
691.49	53.83
691.62	37.45
691.76	65.54
691.89	21.06
692.03	2.34
692.16	37.45
692.30	14.04
692.43	74.90
692.57	0.00
692.70	0.00
692.84	28.09
692.97	37.45
693.11	51.49
693.24	74.90
693.38	53.83
693.51	0.00
693.65	0.00
693.78	46.81
693.92	4.68
694.05	112.35
694.19	16.38
694.32	51.49
694.45	70.22
694.59	79.58
694.72	70.22
694.86	21.06
694.99	0.00
695.13	119.37
695.26	60.85
695.39	107.66
695.53	70.22
695.66	0.00
695.80	7.02
695.93	58.51
696.07	23.41
696.20	0.00
696.33	9.36
696.47	88.94
696.60	9.36
696.73	84.26
696.87	21.06
697.00	42.13
697.14	0.00
697.27	21.06
697.40	28.09
697.54	65.54
697.67	9.36
697.80	16.38
697.94	14.04
698.07	4.68
698.21	0.00
698.34	51.49
698.47	0.00
698.61	56.17
698.74	0.00
698.87	0.00
699.01	67.88
699.14	49.15
699.27	32.77
699.40	0.00
699.54	53.83
699.67	30.43
699.80	32.77
699.94	28.09
700.07	16.38
700.20	7.02
700.34	0.00
700.47	23.41
700.60	23.41
700.73	58.51
700.87	56.17
701.00	21.06
701.13	18.72
701.26	0.00
701.40	51.49
701.53	74.90
701.66	21.06
701.79	30.43
701.93	0.00
702.06	0.00
702.19	7.02
702.32	23.41
702.46	16.38
702.59	9.36
702.72	70.22
702.85	14.04
702.99	42.13
703.12	86.60
703.25	53.83
703.38	53.83
703.51	79.58
703.65	42.13
703.78	37.45
703.91	46.81
704.04	84.26
704.17	23.41
704.31	58.51
704.44	18.72
704.57	0.00
704.70	86.60
704.83	44.47
704.96	51.49
705.10	0.00
705.23	11.70
>>>>>End Processed Spectral Data<<<<<
