SpectraSuite Data File
++++++++++++++++++++++++++++++++++++
Date: Tue Oct 01 18:25:10 GMT-05:00 2013
User: stostad
Dark Spectrum Present: No
Reference Spectrum Present: No
Number of Sampled Component Spectra: 1
Spectrometers: USB2+H05261
Integration Time (usec): 100000 (USB2+H05261)
Spectra Averaged: 1 (USB2+H05261)
Boxcar Smoothing: 0 (USB2+H05261)
Correct for Electrical Dark: No (USB2+H05261)
Strobe/Lamp Enabled: No (USB2+H05261)
Correct for Detector Non-linearity: No (USB2+H05261)
Correct for Stray Light: No (USB2+H05261)
Number of Pixels in Processed Spectrum: 2048
>>>>>Begin Processed Spectral Data<<<<<
365.73	114.69
365.92	114.69
366.12	114.69
366.32	9.36
366.52	0.00
366.72	35.11
366.91	0.00
367.11	0.00
367.31	0.00
367.51	0.00
367.70	0.00
367.90	4.68
368.10	0.00
368.30	2.34
368.49	7.02
368.69	0.00
368.89	39.79
369.09	0.00
369.28	0.00
369.48	0.00
369.68	16.38
369.87	0.00
370.07	0.00
370.27	74.90
370.47	35.11
370.66	60.85
370.86	98.30
371.06	65.54
371.25	156.82
371.45	72.56
371.65	131.07
371.84	138.09
372.04	117.03
372.24	93.62
372.44	147.45
372.63	196.60
372.83	35.11
373.03	138.09
373.22	149.79
373.42	107.66
373.62	112.35
373.81	161.50
374.01	140.43
374.21	173.20
374.40	234.05
374.60	243.42
374.79	128.73
374.99	163.84
375.19	147.45
375.38	128.73
375.58	53.83
375.78	163.84
375.97	198.95
376.17	220.01
376.37	145.11
376.56	145.11
376.76	105.32
376.95	142.77
377.15	166.18
377.35	187.24
377.54	170.86
377.74	182.56
377.93	133.41
378.13	124.05
378.33	126.39
378.52	126.39
378.72	215.33
378.91	208.31
379.11	119.37
379.31	159.16
379.50	102.98
379.70	147.45
379.89	222.35
380.09	138.09
380.28	93.62
380.48	131.07
380.68	135.75
380.87	114.69
381.07	91.28
381.26	102.98
381.46	95.96
381.65	138.09
381.85	91.28
382.04	107.66
382.24	154.48
382.43	152.13
382.63	131.07
382.83	126.39
383.02	126.39
383.22	173.20
383.41	215.33
383.61	142.77
383.80	163.84
384.00	140.43
384.19	128.73
384.39	161.50
384.58	154.48
384.78	154.48
384.97	168.52
385.17	110.01
385.36	149.79
385.56	126.39
385.75	182.56
385.95	128.73
386.14	227.03
386.34	79.58
386.53	117.03
386.72	152.13
386.92	159.16
387.11	140.43
387.31	135.75
387.50	91.28
387.70	177.88
387.89	100.64
388.09	198.95
388.28	114.69
388.48	63.19
388.67	222.35
388.86	133.41
389.06	77.24
389.25	121.71
389.45	95.96
389.64	131.07
389.84	159.16
390.03	161.50
390.22	145.11
390.42	95.96
390.61	49.15
390.81	152.13
391.00	184.90
391.19	161.50
391.39	102.98
391.58	166.18
391.78	156.82
391.97	74.90
392.16	86.60
392.36	166.18
392.55	145.11
392.75	65.54
392.94	110.01
393.13	201.29
393.33	126.39
393.52	126.39
393.71	168.52
393.91	105.32
394.10	105.32
394.29	63.19
394.49	93.62
394.68	208.31
394.88	189.58
395.07	201.29
395.26	126.39
395.46	46.81
395.65	196.60
395.84	131.07
396.04	166.18
396.23	161.50
396.42	168.52
396.62	98.30
396.81	168.52
397.00	135.75
397.19	180.22
397.39	79.58
397.58	124.05
397.77	133.41
397.97	126.39
398.16	93.62
398.35	58.51
398.55	154.48
398.74	180.22
398.93	154.48
399.12	79.58
399.32	32.77
399.51	98.30
399.70	117.03
399.90	124.05
400.09	166.18
400.28	128.73
400.47	128.73
400.67	142.77
400.86	231.71
401.05	100.64
401.24	145.11
401.44	166.18
401.63	140.43
401.82	133.41
402.01	112.35
402.21	79.58
402.40	77.24
402.59	77.24
402.78	124.05
402.97	117.03
403.17	128.73
403.36	175.54
403.55	135.75
403.74	205.97
403.93	156.82
404.13	175.54
404.32	201.29
404.51	133.41
404.70	159.16
404.89	117.03
405.09	140.43
405.28	187.24
405.47	182.56
405.66	149.79
405.85	189.58
406.05	65.54
406.24	152.13
406.43	107.66
406.62	117.03
406.81	191.92
407.00	28.09
407.20	121.71
407.39	121.71
407.58	70.22
407.77	142.77
407.96	128.73
408.15	159.16
408.34	149.79
408.54	145.11
408.73	173.20
408.92	147.45
409.11	112.35
409.30	173.20
409.49	166.18
409.68	154.48
409.87	154.48
410.07	117.03
410.26	107.66
410.45	201.29
410.64	72.56
410.83	215.33
411.02	140.43
411.21	166.18
411.40	196.60
411.59	121.71
411.78	79.58
411.98	91.28
412.17	107.66
412.36	138.09
412.55	107.66
412.74	201.29
412.93	126.39
413.12	142.77
413.31	152.13
413.50	159.16
413.69	135.75
413.88	184.90
414.07	93.62
414.26	198.95
414.45	229.37
414.64	145.11
414.83	147.45
415.02	182.56
415.22	135.75
415.41	217.67
415.60	177.88
415.79	107.66
415.98	149.79
416.17	114.69
416.36	187.24
416.55	140.43
416.74	161.50
416.93	170.86
417.12	128.73
417.31	194.26
417.50	173.20
417.69	191.92
417.88	126.39
418.07	156.82
418.26	182.56
418.45	222.35
418.64	198.95
418.83	166.18
419.02	117.03
419.21	152.13
419.39	217.67
419.58	177.88
419.77	138.09
419.96	168.52
420.15	140.43
420.34	147.45
420.53	100.64
420.72	175.54
420.91	133.41
421.10	102.98
421.29	163.84
421.48	163.84
421.67	93.62
421.86	102.98
422.05	135.75
422.24	114.69
422.43	142.77
422.61	135.75
422.80	133.41
422.99	170.86
423.18	77.24
423.37	142.77
423.56	166.18
423.75	107.66
423.94	138.09
424.13	105.32
424.32	166.18
424.50	152.13
424.69	86.60
424.88	194.26
425.07	147.45
425.26	163.84
425.45	220.01
425.64	198.95
425.83	184.90
426.01	145.11
426.20	168.52
426.39	81.92
426.58	28.09
426.77	140.43
426.96	154.48
427.15	133.41
427.33	72.56
427.52	140.43
427.71	152.13
427.90	138.09
428.09	142.77
428.28	131.07
428.46	131.07
428.65	175.54
428.84	117.03
429.03	156.82
429.22	170.86
429.40	77.24
429.59	142.77
429.78	175.54
429.97	74.90
430.16	131.07
430.34	86.60
430.53	149.79
430.72	138.09
430.91	145.11
431.10	142.77
431.28	140.43
431.47	117.03
431.66	128.73
431.85	107.66
432.03	201.29
432.22	205.97
432.41	124.05
432.60	173.20
432.79	131.07
432.97	154.48
433.16	182.56
433.35	184.90
433.54	163.84
433.72	147.45
433.91	196.60
434.10	149.79
434.28	156.82
434.47	98.30
434.66	184.90
434.85	184.90
435.03	140.43
435.22	126.39
435.41	189.58
435.59	170.86
435.78	168.52
435.97	95.96
436.16	128.73
436.34	163.84
436.53	177.88
436.72	173.20
436.90	140.43
437.09	161.50
437.28	140.43
437.46	156.82
437.65	161.50
437.84	107.66
438.02	128.73
438.21	142.77
438.40	110.01
438.58	77.24
438.77	161.50
438.96	163.84
439.14	156.82
439.33	161.50
439.52	114.69
439.70	133.41
439.89	156.82
440.08	135.75
440.26	81.92
440.45	184.90
440.63	163.84
440.82	102.98
441.01	128.73
441.19	161.50
441.38	173.20
441.57	138.09
441.75	135.75
441.94	154.48
442.12	140.43
442.31	74.90
442.50	133.41
442.68	145.11
442.87	145.11
443.05	100.64
443.24	154.48
443.43	110.01
443.61	191.92
443.80	159.16
443.98	124.05
444.17	110.01
444.35	133.41
444.54	135.75
444.73	128.73
444.91	255.12
445.10	117.03
445.28	100.64
445.47	121.71
445.65	128.73
445.84	95.96
446.02	149.79
446.21	210.65
446.39	119.37
446.58	168.52
446.77	107.66
446.95	156.82
447.14	133.41
447.32	175.54
447.51	168.52
447.69	161.50
447.88	236.39
448.06	212.99
448.25	91.28
448.43	133.41
448.62	84.26
448.80	119.37
448.99	107.66
449.17	161.50
449.36	173.20
449.54	163.84
449.73	88.94
449.91	65.54
450.10	119.37
450.28	196.60
450.46	147.45
450.65	138.09
450.83	180.22
451.02	131.07
451.20	166.18
451.39	180.22
451.57	60.85
451.76	182.56
451.94	161.50
452.13	201.29
452.31	142.77
452.49	156.82
452.68	91.28
452.86	91.28
453.05	166.18
453.23	147.45
453.42	166.18
453.60	105.32
453.78	140.43
453.97	107.66
454.15	124.05
454.34	114.69
454.52	107.66
454.70	220.01
454.89	140.43
455.07	191.92
455.26	210.65
455.44	124.05
455.62	107.66
455.81	180.22
455.99	98.30
456.17	149.79
456.36	93.62
456.54	58.51
456.73	166.18
456.91	95.96
457.09	191.92
457.28	159.16
457.46	135.75
457.64	215.33
457.83	112.35
458.01	152.13
458.19	217.67
458.38	152.13
458.56	196.60
458.74	189.58
458.93	166.18
459.11	142.77
459.29	170.86
459.48	168.52
459.66	135.75
459.84	100.64
460.03	208.31
460.21	152.13
460.39	159.16
460.57	175.54
460.76	182.56
460.94	163.84
461.12	196.60
461.31	241.08
461.49	112.35
461.67	77.24
461.85	163.84
462.04	121.71
462.22	571.09
462.40	152.13
462.59	238.73
462.77	135.75
462.95	65.54
463.13	161.50
463.32	88.94
463.50	156.82
463.68	166.18
463.86	126.39
464.05	102.98
464.23	128.73
464.41	147.45
464.59	173.20
464.78	126.39
464.96	81.92
465.14	152.13
465.32	191.92
465.50	163.84
465.69	135.75
465.87	131.07
466.05	154.48
466.23	65.54
466.41	149.79
466.60	152.13
466.78	159.16
466.96	220.01
467.14	149.79
467.32	161.50
467.51	105.32
467.69	140.43
467.87	117.03
468.05	173.20
468.23	159.16
468.41	163.84
468.60	149.79
468.78	173.20
468.96	227.03
469.14	91.28
469.32	161.50
469.50	152.13
469.69	168.52
469.87	224.69
470.05	187.24
470.23	107.66
470.41	124.05
470.59	145.11
470.77	168.52
470.95	114.69
471.14	189.58
471.32	180.22
471.50	161.50
471.68	107.66
471.86	98.30
472.04	133.41
472.22	191.92
472.40	60.85
472.58	177.88
472.77	177.88
472.95	149.79
473.13	198.95
473.31	149.79
473.49	140.43
473.67	86.60
473.85	140.43
474.03	126.39
474.21	110.01
474.39	198.95
474.57	196.60
474.75	133.41
474.93	196.60
475.12	63.19
475.30	121.71
475.48	105.32
475.66	117.03
475.84	140.43
476.02	107.66
476.20	227.03
476.38	128.73
476.56	201.29
476.74	170.86
476.92	196.60
477.10	142.77
477.28	210.65
477.46	147.45
477.64	163.84
477.82	149.79
478.00	95.96
478.18	159.16
478.36	220.01
478.54	112.35
478.72	93.62
478.90	180.22
479.08	100.64
479.26	138.09
479.44	149.79
479.62	159.16
479.80	124.05
479.98	91.28
480.16	88.94
480.34	133.41
480.52	147.45
480.70	142.77
480.88	74.90
481.06	98.30
481.24	37.45
481.41	255.12
481.59	124.05
481.77	149.79
481.95	182.56
482.13	191.92
482.31	74.90
482.49	159.16
482.67	175.54
482.85	135.75
483.03	201.29
483.21	98.30
483.39	67.88
483.57	128.73
483.74	224.69
483.92	53.83
484.10	142.77
484.28	166.18
484.46	205.97
484.64	112.35
484.82	95.96
485.00	88.94
485.18	175.54
485.35	51.49
485.53	133.41
485.71	126.39
485.89	198.95
486.07	107.66
486.25	119.37
486.43	168.52
486.61	168.52
486.78	170.86
486.96	128.73
487.14	142.77
487.32	128.73
487.50	145.11
487.68	133.41
487.85	95.96
488.03	201.29
488.21	161.50
488.39	154.48
488.57	177.88
488.75	149.79
488.92	220.01
489.10	98.30
489.28	86.60
489.46	119.37
489.64	138.09
489.81	70.22
489.99	98.30
490.17	191.92
490.35	161.50
490.53	100.64
490.70	117.03
490.88	163.84
491.06	81.92
491.24	95.96
491.41	156.82
491.59	131.07
491.77	175.54
491.95	133.41
492.13	102.98
492.30	201.29
492.48	121.71
492.66	128.73
492.84	128.73
493.01	163.84
493.19	163.84
493.37	152.13
493.54	222.35
493.72	95.96
493.90	173.20
494.08	77.24
494.25	205.97
494.43	138.09
494.61	105.32
494.79	70.22
494.96	105.32
495.14	156.82
495.32	119.37
495.49	142.77
495.67	135.75
495.85	95.96
496.02	121.71
496.20	182.56
496.38	121.71
496.55	175.54
496.73	147.45
496.91	32.77
497.09	142.77
497.26	187.24
497.44	184.90
497.62	112.35
497.79	140.43
497.97	128.73
498.14	147.45
498.32	114.69
498.50	175.54
498.67	131.07
498.85	84.26
499.03	170.86
499.20	168.52
499.38	112.35
499.56	154.48
499.73	196.60
499.91	140.43
500.08	196.60
500.26	168.52
500.44	63.19
500.61	142.77
500.79	161.50
500.97	170.86
501.14	140.43
501.32	159.16
501.49	191.92
501.67	128.73
501.84	147.45
502.02	79.58
502.20	175.54
502.37	112.35
502.55	112.35
502.72	133.41
502.90	154.48
503.07	121.71
503.25	154.48
503.43	175.54
503.60	147.45
503.78	173.20
503.95	138.09
504.13	121.71
504.30	81.92
504.48	175.54
504.65	205.97
504.83	170.86
505.01	112.35
505.18	166.18
505.36	156.82
505.53	46.81
505.71	187.24
505.88	131.07
506.06	170.86
506.23	95.96
506.41	177.88
506.58	110.01
506.76	140.43
506.93	142.77
507.11	215.33
507.28	124.05
507.46	65.54
507.63	182.56
507.81	114.69
507.98	124.05
508.16	154.48
508.33	81.92
508.50	126.39
508.68	177.88
508.85	154.48
509.03	124.05
509.20	112.35
509.38	102.98
509.55	184.90
509.73	222.35
509.90	131.07
510.08	149.79
510.25	184.90
510.42	86.60
510.60	126.39
510.77	177.88
510.95	133.41
511.12	131.07
511.30	194.26
511.47	205.97
511.64	194.26
511.82	159.16
511.99	114.69
512.17	161.50
512.34	84.26
512.51	81.92
512.69	149.79
512.86	184.90
513.04	105.32
513.21	95.96
513.38	112.35
513.56	203.63
513.73	100.64
513.90	88.94
514.08	119.37
514.25	182.56
514.43	142.77
514.60	70.22
514.77	72.56
514.95	81.92
515.12	72.56
515.29	159.16
515.47	110.01
515.64	126.39
515.81	133.41
515.99	175.54
516.16	184.90
516.33	142.77
516.51	203.63
516.68	105.32
516.85	105.32
517.03	156.82
517.20	177.88
517.37	147.45
517.54	138.09
517.72	65.54
517.89	39.79
518.06	135.75
518.24	205.97
518.41	175.54
518.58	95.96
518.75	170.86
518.93	119.37
519.10	156.82
519.27	147.45
519.45	117.03
519.62	98.30
519.79	147.45
519.96	170.86
520.14	149.79
520.31	210.65
520.48	128.73
520.65	191.92
520.83	163.84
521.00	184.90
521.17	98.30
521.34	84.26
521.52	105.32
521.69	114.69
521.86	117.03
522.03	124.05
522.20	212.99
522.38	124.05
522.55	121.71
522.72	114.69
522.89	161.50
523.07	196.60
523.24	222.35
523.41	156.82
523.58	166.18
523.75	70.22
523.92	131.07
524.10	95.96
524.27	102.98
524.44	180.22
524.61	140.43
524.78	152.13
524.96	203.63
525.13	133.41
525.30	177.88
525.47	79.58
525.64	145.11
525.81	121.71
525.98	142.77
526.16	124.05
526.33	142.77
526.50	135.75
526.67	142.77
526.84	173.20
527.01	142.77
527.18	138.09
527.36	145.11
527.53	170.86
527.70	161.50
527.87	166.18
528.04	166.18
528.21	177.88
528.38	107.66
528.55	140.43
528.72	163.84
528.89	196.60
529.07	98.30
529.24	170.86
529.41	107.66
529.58	63.19
529.75	112.35
529.92	126.39
530.09	133.41
530.26	133.41
530.43	147.45
530.60	84.26
530.77	131.07
530.94	117.03
531.11	182.56
531.28	110.01
531.46	110.01
531.63	121.71
531.80	133.41
531.97	184.90
532.14	201.29
532.31	175.54
532.48	266.82
532.65	297.25
532.82	229.37
532.99	173.20
533.16	156.82
533.33	182.56
533.50	154.48
533.67	128.73
533.84	245.76
534.01	234.05
534.18	177.88
534.35	107.66
534.52	128.73
534.69	131.07
534.86	145.11
535.03	112.35
535.20	119.37
535.37	133.41
535.54	170.86
535.71	156.82
535.88	196.60
536.05	177.88
536.22	198.95
536.38	152.13
536.55	131.07
536.72	194.26
536.89	95.96
537.06	142.77
537.23	100.64
537.40	126.39
537.57	198.95
537.74	91.28
537.91	159.16
538.08	182.56
538.25	147.45
538.42	88.94
538.59	168.52
538.75	177.88
538.92	100.64
539.09	140.43
539.26	112.35
539.43	353.42
539.60	713.86
539.77	1043.88
539.94	788.76
540.11	433.00
540.28	308.95
540.44	180.22
540.61	16.38
540.78	175.54
540.95	198.95
541.12	196.60
541.29	102.98
541.46	154.48
541.62	173.20
541.79	81.92
541.96	133.41
542.13	86.60
542.30	133.41
542.47	210.65
542.63	198.95
542.80	126.39
542.97	182.56
543.14	156.82
543.31	154.48
543.48	177.88
543.64	133.41
543.81	88.94
543.98	105.32
544.15	114.69
544.32	154.48
544.48	88.94
544.65	210.65
544.82	112.35
544.99	191.92
545.16	142.77
545.32	133.41
545.49	161.50
545.66	166.18
545.83	166.18
546.00	154.48
546.16	91.28
546.33	53.83
546.50	35.11
546.67	208.31
546.83	175.54
547.00	154.48
547.17	147.45
547.34	149.79
547.50	196.60
547.67	166.18
547.84	142.77
548.00	79.58
548.17	88.94
548.34	152.13
548.51	161.50
548.67	161.50
548.84	163.84
549.01	166.18
549.18	168.52
549.34	203.63
549.51	110.01
549.68	142.77
549.84	168.52
550.01	203.63
550.18	210.65
550.34	128.73
550.51	128.73
550.68	159.16
550.84	124.05
551.01	177.88
551.18	194.26
551.34	252.78
551.51	91.28
551.68	81.92
551.84	138.09
552.01	170.86
552.18	135.75
552.34	166.18
552.51	110.01
552.68	142.77
552.84	100.64
553.01	135.75
553.18	147.45
553.34	170.86
553.51	159.16
553.67	212.99
553.84	142.77
554.01	152.13
554.17	102.98
554.34	142.77
554.51	191.92
554.67	161.50
554.84	140.43
555.00	112.35
555.17	187.24
555.33	131.07
555.50	220.01
555.67	145.11
555.83	119.37
556.00	168.52
556.16	278.52
556.33	135.75
556.50	180.22
556.66	149.79
556.83	264.48
556.99	201.29
557.16	182.56
557.32	140.43
557.49	102.98
557.65	91.28
557.82	114.69
557.98	180.22
558.15	112.35
558.32	205.97
558.48	72.56
558.65	135.75
558.81	198.95
558.98	126.39
559.14	154.48
559.31	189.58
559.47	177.88
559.64	152.13
559.80	152.13
559.97	142.77
560.13	142.77
560.30	154.48
560.46	100.64
560.63	133.41
560.79	117.03
560.96	128.73
561.12	154.48
561.29	121.71
561.45	163.84
561.61	112.35
561.78	224.69
561.94	194.26
562.11	177.88
562.27	93.62
562.44	182.56
562.60	152.13
562.77	72.56
562.93	140.43
563.10	154.48
563.26	98.30
563.42	131.07
563.59	131.07
563.75	168.52
563.92	131.07
564.08	166.18
564.24	147.45
564.41	203.63
564.57	229.37
564.74	166.18
564.90	119.37
565.07	182.56
565.23	170.86
565.39	95.96
565.56	243.42
565.72	149.79
565.88	149.79
566.05	131.07
566.21	119.37
566.38	135.75
566.54	124.05
566.70	133.41
566.87	112.35
567.03	149.79
567.19	140.43
567.36	220.01
567.52	149.79
567.68	133.41
567.85	194.26
568.01	163.84
568.17	121.71
568.34	201.29
568.50	191.92
568.66	182.56
568.83	238.73
568.99	117.03
569.15	128.73
569.32	175.54
569.48	175.54
569.64	102.98
569.81	112.35
569.97	142.77
570.13	168.52
570.30	187.24
570.46	175.54
570.62	117.03
570.78	191.92
570.95	93.62
571.11	184.90
571.27	187.24
571.43	159.16
571.60	161.50
571.76	182.56
571.92	159.16
572.09	142.77
572.25	191.92
572.41	124.05
572.57	159.16
572.74	175.54
572.90	161.50
573.06	124.05
573.22	114.69
573.38	271.50
573.55	107.66
573.71	131.07
573.87	107.66
574.03	147.45
574.20	182.56
574.36	252.78
574.52	187.24
574.68	163.84
574.84	168.52
575.01	156.82
575.17	215.33
575.33	107.66
575.49	196.60
575.65	191.92
575.82	259.80
575.98	442.36
576.14	454.06
576.30	360.44
576.46	304.27
576.62	208.31
576.79	203.63
576.95	266.82
577.11	156.82
577.27	154.48
577.43	236.39
577.59	229.37
577.75	154.48
577.92	241.08
578.08	149.79
578.24	126.39
578.40	264.48
578.56	198.95
578.72	238.73
578.88	208.31
579.04	173.20
579.21	184.90
579.37	166.18
579.53	168.52
579.69	212.99
579.85	180.22
580.01	276.18
580.17	229.37
580.33	259.80
580.49	198.95
580.65	177.88
580.82	156.82
580.98	212.99
581.14	212.99
581.30	297.25
581.46	388.53
581.62	379.17
581.78	351.08
581.94	266.82
582.10	227.03
582.26	184.90
582.42	229.37
582.58	262.14
582.74	212.99
582.90	266.82
583.06	255.12
583.22	285.55
583.38	285.55
583.54	285.55
583.70	325.33
583.86	414.27
584.02	484.49
584.18	575.77
584.34	1252.19
584.50	8308.90
584.66	29303.51
584.82	49277.64
584.98	50843.46
585.14	32313.44
585.30	17057.82
585.46	8194.22
585.62	3178.45
585.78	1366.87
585.94	809.83
586.10	557.05
586.26	447.04
586.42	409.59
586.58	353.42
586.74	379.17
586.90	325.33
587.06	271.50
587.22	264.48
587.38	449.38
587.54	1544.75
587.70	3094.19
587.86	3985.93
588.02	3049.72
588.18	1825.62
588.34	1055.58
588.49	496.19
588.65	360.44
588.81	252.78
588.97	212.99
589.13	184.90
589.29	257.46
589.45	243.42
589.61	201.29
589.77	330.02
589.93	313.63
590.08	280.86
590.24	315.97
590.40	311.29
590.56	196.60
590.72	210.65
590.88	198.95
591.04	234.05
591.20	222.35
591.35	297.25
591.51	205.97
591.67	215.33
591.83	222.35
591.99	133.41
592.15	203.63
592.31	173.20
592.46	227.03
592.62	161.50
592.78	201.29
592.94	149.79
593.10	191.92
593.26	163.84
593.41	187.24
593.57	332.36
593.73	1252.19
593.89	3707.41
594.05	6441.15
594.20	6492.65
594.36	4325.31
594.52	2565.23
594.68	1423.05
594.84	744.29
594.99	425.98
595.15	273.84
595.31	301.93
595.47	245.76
595.62	201.29
595.78	154.48
595.94	215.33
596.10	201.29
596.25	234.05
596.41	175.54
596.57	215.33
596.73	311.29
596.88	706.84
597.04	1406.66
597.20	1617.31
597.36	1214.74
597.51	880.04
597.67	575.77
597.83	358.10
597.99	252.78
598.14	201.29
598.30	229.37
598.46	224.69
598.61	163.84
598.77	220.01
598.93	154.48
599.09	262.14
599.24	117.03
599.40	168.52
599.56	177.88
599.71	91.28
599.87	161.50
600.03	175.54
600.18	53.83
600.34	194.26
600.50	135.75
600.65	133.41
600.81	161.50
600.97	191.92
601.12	154.48
601.28	152.13
601.44	159.16
601.59	117.03
601.75	180.22
601.91	191.92
602.06	163.84
602.22	484.49
602.37	940.90
602.53	1561.14
602.69	1739.02
602.84	1270.91
603.00	849.61
603.16	613.22
603.31	346.40
603.47	257.46
603.62	177.88
603.78	128.73
603.94	117.03
604.09	117.03
604.25	198.95
604.40	161.50
604.56	166.18
604.71	234.05
604.87	191.92
605.03	133.41
605.18	163.84
605.34	243.42
605.49	177.88
605.65	201.29
605.80	107.66
605.96	198.95
606.12	201.29
606.27	191.92
606.43	290.23
606.58	587.47
606.74	1827.96
606.89	4067.85
607.05	5263.86
607.20	4458.72
607.36	3073.12
607.51	1860.73
607.67	1111.75
607.82	587.47
607.98	407.25
608.13	243.42
608.29	252.78
608.44	325.33
608.60	283.20
608.75	805.14
608.91	3267.39
609.06	6834.36
609.22	9041.49
609.37	7651.21
609.53	5214.71
609.68	3169.09
609.84	1877.11
609.99	971.32
610.15	554.71
610.30	407.25
610.46	299.59
610.61	205.97
610.76	175.54
610.92	187.24
611.07	203.63
611.23	189.58
611.38	177.88
611.54	234.05
611.69	252.78
611.84	135.75
612.00	266.82
612.15	299.59
612.31	374.49
612.46	449.38
612.62	351.08
612.77	355.76
612.92	320.65
613.08	262.14
613.23	330.02
613.39	550.03
613.54	3215.90
613.69	8786.37
613.85	14113.43
614.00	13846.61
614.15	9958.98
614.31	6258.59
614.46	3908.69
614.62	2111.16
614.77	924.51
614.92	482.15
615.08	353.42
615.23	215.33
615.38	304.27
615.54	781.74
615.69	1851.36
615.84	3236.96
616.00	3864.22
616.15	2939.71
616.30	2066.69
616.46	1385.60
616.61	861.32
616.76	425.98
616.92	294.91
617.07	227.03
617.22	217.67
617.37	220.01
617.53	182.56
617.68	184.90
617.83	191.92
617.99	205.97
618.14	227.03
618.29	187.24
618.45	212.99
618.60	215.33
618.75	135.75
618.90	159.16
619.06	121.71
619.21	187.24
619.36	210.65
619.51	159.16
619.67	177.88
619.82	170.86
619.97	149.79
620.12	234.05
620.28	182.56
620.43	220.01
620.58	220.01
620.73	159.16
620.89	479.81
621.04	929.19
621.19	1781.15
621.34	2190.74
621.49	1930.94
621.65	1348.15
621.80	985.37
621.95	606.20
622.10	386.19
622.25	220.01
622.41	227.03
622.56	194.26
622.71	140.43
622.86	201.29
623.01	175.54
623.16	208.31
623.32	208.31
623.47	138.09
623.62	142.77
623.77	159.16
623.92	159.16
624.07	140.43
624.23	114.69
624.38	138.09
624.53	201.29
624.68	196.60
624.83	135.75
624.98	196.60
625.13	189.58
625.29	131.07
625.44	205.97
625.59	187.24
625.74	477.47
625.89	1928.60
626.04	4699.80
626.19	7307.15
626.34	7159.70
626.49	5465.15
626.65	3424.20
626.80	2282.02
626.95	1373.89
627.10	732.59
627.25	472.79
627.40	205.97
627.55	273.84
627.70	220.01
627.85	175.54
628.00	105.32
628.15	205.97
628.30	114.69
628.45	198.95
628.60	203.63
628.76	102.98
628.91	114.69
629.06	170.86
629.21	194.26
629.36	243.42
629.51	198.95
629.66	423.64
629.81	917.49
629.96	1603.27
630.11	1926.26
630.26	1584.54
630.41	1167.93
630.56	770.04
630.71	514.92
630.86	325.33
631.01	231.71
631.16	243.42
631.31	161.50
631.46	271.50
631.61	149.79
631.76	173.20
631.91	203.63
632.06	184.90
632.21	276.18
632.36	264.48
632.51	330.02
632.66	1048.56
632.81	2574.59
632.96	4273.82
633.10	4716.18
633.25	3817.41
633.40	2572.25
633.55	1874.77
633.70	1118.78
633.85	617.90
634.00	365.12
634.15	250.44
634.30	201.29
634.45	168.52
634.60	168.52
634.75	191.92
634.90	241.08
635.05	191.92
635.19	173.20
635.34	133.41
635.49	205.97
635.64	154.48
635.79	194.26
635.94	194.26
636.09	266.82
636.24	159.16
636.39	170.86
636.53	201.29
636.68	198.95
636.83	241.08
636.98	255.12
637.13	264.48
637.28	241.08
637.43	711.52
637.57	2719.70
637.72	5987.09
637.87	9025.11
638.02	8472.74
638.17	6324.13
638.32	4170.83
638.46	2782.90
638.61	1659.44
638.76	837.91
638.91	461.09
639.06	388.53
639.20	423.64
639.35	971.32
639.50	4170.83
639.65	9015.74
639.80	13603.19
639.94	13280.20
640.09	9909.83
640.24	6609.67
640.39	4231.69
640.54	2286.70
640.68	1245.16
640.83	634.29
640.98	351.08
641.13	269.16
641.27	250.44
641.42	191.92
641.57	264.48
641.72	133.41
641.86	292.57
642.01	208.31
642.16	231.71
642.31	140.43
642.45	201.29
642.60	227.03
642.75	182.56
642.90	166.18
643.04	184.90
643.19	152.13
643.34	152.13
643.48	147.45
643.63	189.58
643.78	203.63
643.93	163.84
644.07	147.45
644.22	147.45
644.37	121.71
644.51	184.90
644.66	220.01
644.81	269.16
644.95	222.35
645.10	187.24
645.25	168.52
645.39	205.97
645.54	152.13
645.69	205.97
645.83	198.95
645.98	131.07
646.13	184.90
646.27	140.43
646.42	159.16
646.57	187.24
646.71	128.73
646.86	159.16
647.00	114.69
647.15	231.71
647.30	161.50
647.44	224.69
647.59	187.24
647.74	145.11
647.88	241.08
648.03	81.92
648.17	154.48
648.32	119.37
648.47	238.73
648.61	140.43
648.76	86.60
648.90	177.88
649.05	189.58
649.20	203.63
649.34	224.69
649.49	259.80
649.63	198.95
649.78	388.53
649.92	1734.34
650.07	4128.70
650.21	6644.78
650.36	7295.45
650.51	5362.17
650.65	3756.56
650.80	2576.93
650.94	1500.28
651.09	854.30
651.23	475.13
651.38	322.99
651.52	191.92
651.67	166.18
651.81	236.39
651.96	189.58
652.10	198.95
652.25	175.54
652.39	255.12
652.54	557.05
652.68	1383.26
652.83	2420.11
652.97	2689.28
653.12	2132.23
653.26	1589.22
653.41	1114.10
653.55	737.27
653.70	400.23
653.84	243.42
653.99	173.20
654.13	114.69
654.27	159.16
654.42	180.22
654.56	95.96
654.71	210.65
654.85	161.50
655.00	56.17
655.14	131.07
655.29	140.43
655.43	156.82
655.57	184.90
655.72	133.41
655.86	140.43
656.01	163.84
656.15	93.62
656.30	255.12
656.44	138.09
656.58	166.18
656.73	138.09
656.87	74.90
657.01	126.39
657.16	98.30
657.30	191.92
657.45	117.03
657.59	124.05
657.73	105.32
657.88	149.79
658.02	238.73
658.16	187.24
658.31	182.56
658.45	177.88
658.60	147.45
658.74	187.24
658.88	224.69
659.03	283.20
659.17	678.76
659.31	1802.21
659.46	3143.34
659.60	3803.37
659.74	3103.55
659.89	2256.28
660.03	1455.81
660.17	945.58
660.32	610.88
660.46	397.89
660.60	227.03
660.74	173.20
660.89	184.90
661.03	180.22
661.17	170.86
661.32	236.39
661.46	163.84
661.60	198.95
661.74	147.45
661.89	187.24
662.03	93.62
662.17	156.82
662.31	180.22
662.46	159.16
662.60	131.07
662.74	194.26
662.88	133.41
663.03	180.22
663.17	86.60
663.31	182.56
663.45	182.56
663.60	154.48
663.74	86.60
663.88	142.77
664.02	163.84
664.17	154.48
664.31	145.11
664.45	149.79
664.59	187.24
664.73	224.69
664.88	135.75
665.02	175.54
665.16	173.20
665.30	198.95
665.44	180.22
665.59	138.09
665.73	180.22
665.87	149.79
666.01	168.52
666.15	110.01
666.29	131.07
666.44	208.31
666.58	224.69
666.72	201.29
666.86	245.76
667.00	376.83
667.14	1427.73
667.28	3466.33
667.43	5624.31
667.57	6647.12
667.71	5331.74
667.85	3660.60
667.99	2293.72
668.13	1331.76
668.27	821.53
668.41	498.53
668.56	365.12
668.70	285.55
668.84	252.78
668.98	241.08
669.12	142.77
669.26	140.43
669.40	196.60
669.54	152.13
669.68	173.20
669.82	124.05
669.96	135.75
670.10	215.33
670.25	114.69
670.39	229.37
670.53	124.05
670.67	224.69
670.81	149.79
670.95	543.00
671.09	1362.19
671.23	2822.69
671.37	3885.29
671.51	3810.39
671.65	2850.77
671.79	2038.61
671.93	1203.04
672.07	709.18
672.21	418.96
672.35	287.89
672.49	259.80
672.63	154.48
672.77	203.63
672.91	161.50
673.05	107.66
673.19	121.71
673.33	159.16
673.47	156.82
673.61	182.56
673.75	91.28
673.89	98.30
674.03	145.11
674.17	131.07
674.31	145.11
674.45	175.54
674.59	95.96
674.73	140.43
674.87	236.39
675.01	224.69
675.15	152.13
675.29	180.22
675.43	159.16
675.56	229.37
675.70	131.07
675.84	161.50
675.98	161.50
676.12	187.24
676.26	131.07
676.40	98.30
676.54	173.20
676.68	149.79
676.82	212.99
676.96	135.75
677.10	175.54
677.23	152.13
677.37	142.77
677.51	170.86
677.65	248.10
677.79	180.22
677.93	154.48
678.07	154.48
678.21	140.43
678.34	191.92
678.48	81.92
678.62	93.62
678.76	170.86
678.90	156.82
679.04	126.39
679.18	133.41
679.31	124.05
679.45	105.32
679.59	131.07
679.73	81.92
679.87	117.03
680.00	177.88
680.14	149.79
680.28	98.30
680.42	23.41
680.56	215.33
680.70	107.66
680.83	107.66
680.97	161.50
681.11	159.16
681.25	133.41
681.39	168.52
681.52	124.05
681.66	170.86
681.80	135.75
681.94	86.60
682.07	133.41
682.21	161.50
682.35	126.39
682.49	114.69
682.62	161.50
682.76	135.75
682.90	126.39
683.04	156.82
683.17	60.85
683.31	112.35
683.45	168.52
683.59	248.10
683.72	198.95
683.86	124.05
684.00	133.41
684.13	159.16
684.27	201.29
684.41	142.77
684.55	154.48
684.68	210.65
684.82	133.41
684.96	138.09
685.09	131.07
685.23	112.35
685.37	147.45
685.50	149.79
685.64	154.48
685.78	131.07
685.91	149.79
686.05	194.26
686.19	161.50
686.32	112.35
686.46	88.94
686.60	119.37
686.73	280.86
686.87	180.22
687.01	152.13
687.14	105.32
687.28	189.58
687.42	187.24
687.55	191.92
687.69	133.41
687.82	180.22
687.96	215.33
688.10	147.45
688.23	175.54
688.37	227.03
688.50	212.99
688.64	124.05
688.78	102.98
688.91	149.79
689.05	215.33
689.18	156.82
689.32	187.24
689.46	117.03
689.59	203.63
689.73	177.88
689.86	156.82
690.00	152.13
690.13	112.35
690.27	86.60
690.41	182.56
690.54	166.18
690.68	131.07
690.81	128.73
690.95	91.28
691.08	198.95
691.22	126.39
691.35	105.32
691.49	145.11
691.62	208.31
691.76	121.71
691.89	243.42
692.03	175.54
692.16	168.52
692.30	571.09
692.43	1423.05
692.57	2200.10
692.70	2813.32
692.84	2513.74
692.97	1867.75
693.11	1474.54
693.24	983.02
693.38	746.63
693.51	486.83
693.65	376.83
693.78	222.35
693.92	212.99
694.05	224.69
694.19	184.90
694.32	191.92
694.45	182.56
694.59	196.60
694.72	159.16
694.86	180.22
694.99	142.77
695.13	149.79
695.26	102.98
695.39	191.92
695.53	245.76
695.66	224.69
695.80	166.18
695.93	161.50
696.07	238.73
696.20	330.02
696.33	358.10
696.47	358.10
696.60	236.39
696.73	252.78
696.87	231.71
697.00	203.63
697.14	175.54
697.27	124.05
697.40	222.35
697.54	173.20
697.67	177.88
697.80	227.03
697.94	145.11
698.07	117.03
698.21	72.56
698.34	105.32
698.47	156.82
698.61	56.17
698.74	138.09
698.87	163.84
699.01	131.07
699.14	149.79
699.27	201.29
699.40	348.74
699.54	156.82
699.67	131.07
699.80	203.63
699.94	147.45
700.07	100.64
700.20	138.09
700.34	175.54
700.47	126.39
700.60	201.29
700.73	149.79
700.87	290.23
701.00	229.37
701.13	124.05
701.26	119.37
701.40	205.97
701.53	170.86
701.66	154.48
701.79	180.22
701.93	220.01
702.06	322.99
702.19	358.10
702.32	386.19
702.46	311.29
702.59	624.92
702.72	1792.85
702.85	3309.52
702.99	4861.29
703.12	5310.68
703.25	4561.70
703.38	3936.78
703.51	3012.27
703.65	2155.63
703.78	1425.39
703.91	922.17
704.04	615.56
704.17	423.64
704.31	327.68
704.44	159.16
704.57	156.82
704.70	154.48
704.83	220.01
704.96	168.52
705.10	229.37
705.23	128.73
>>>>>End Processed Spectral Data<<<<<
