SpectraSuite Data File
++++++++++++++++++++++++++++++++++++
Date: Fri Oct 04 12:13:39 GMT-05:00 2013
User: price-jones
Dark Spectrum Present: No
Reference Spectrum Present: No
Number of Sampled Component Spectra: 1
Spectrometers: USB2+H05261
Integration Time (usec): 10000 (USB2+H05261)
Spectra Averaged: 1 (USB2+H05261)
Boxcar Smoothing: 0 (USB2+H05261)
Correct for Electrical Dark: No (USB2+H05261)
Strobe/Lamp Enabled: No (USB2+H05261)
Correct for Detector Non-linearity: No (USB2+H05261)
Correct for Stray Light: No (USB2+H05261)
Number of Pixels in Processed Spectrum: 2048
>>>>>Begin Processed Spectral Data<<<<<
365.73	11.70
365.92	11.70
366.12	11.70
366.32	0.00
366.52	0.00
366.72	0.00
366.91	0.00
367.11	0.00
367.31	0.00
367.51	0.00
367.70	0.00
367.90	0.00
368.10	0.00
368.30	0.00
368.49	0.00
368.69	0.00
368.89	0.00
369.09	0.00
369.28	0.00
369.48	0.00
369.68	0.00
369.87	0.00
370.07	0.00
370.27	0.00
370.47	0.00
370.66	0.00
370.86	0.00
371.06	0.00
371.25	0.00
371.45	0.00
371.65	0.00
371.84	0.00
372.04	0.00
372.24	0.00
372.44	28.09
372.63	0.00
372.83	35.11
373.03	0.00
373.22	0.00
373.42	11.70
373.62	0.00
373.81	53.83
374.01	18.72
374.21	14.04
374.40	53.83
374.60	0.00
374.79	9.36
374.99	58.51
375.19	46.81
375.38	21.06
375.58	14.04
375.78	81.92
375.97	11.70
376.17	7.02
376.37	42.13
376.56	18.72
376.76	53.83
376.95	37.45
377.15	0.00
377.35	51.49
377.54	0.00
377.74	110.01
377.93	0.00
378.13	46.81
378.33	0.00
378.52	0.00
378.72	0.00
378.91	0.00
379.11	25.75
379.31	21.06
379.50	53.83
379.70	63.19
379.89	30.43
380.09	32.77
380.28	67.88
380.48	11.70
380.68	39.79
380.87	67.88
381.07	0.00
381.26	42.13
381.46	0.00
381.65	79.58
381.85	51.49
382.04	4.68
382.24	39.79
382.43	16.38
382.63	0.00
382.83	0.00
383.02	18.72
383.22	32.77
383.41	0.00
383.61	0.00
383.80	84.26
384.00	79.58
384.19	0.00
384.39	42.13
384.58	4.68
384.78	0.00
384.97	28.09
385.17	0.00
385.36	53.83
385.56	9.36
385.75	65.54
385.95	30.43
386.14	79.58
386.34	32.77
386.53	11.70
386.72	65.54
386.92	35.11
387.11	53.83
387.31	44.47
387.50	42.13
387.70	28.09
387.89	35.11
388.09	86.60
388.28	74.90
388.48	16.38
388.67	25.75
388.86	28.09
389.06	86.60
389.25	51.49
389.45	0.00
389.64	0.00
389.84	0.00
390.03	63.19
390.22	0.00
390.42	37.45
390.61	0.00
390.81	74.90
391.00	70.22
391.19	51.49
391.39	100.64
391.58	14.04
391.78	60.85
391.97	25.75
392.16	23.41
392.36	35.11
392.55	60.85
392.75	51.49
392.94	51.49
393.13	39.79
393.33	0.00
393.52	0.00
393.71	56.17
393.91	56.17
394.10	30.43
394.29	9.36
394.49	25.75
394.68	84.26
394.88	11.70
395.07	7.02
395.26	65.54
395.46	77.24
395.65	49.15
395.84	79.58
396.04	46.81
396.23	14.04
396.42	0.00
396.62	11.70
396.81	35.11
397.00	39.79
397.19	0.00
397.39	63.19
397.58	70.22
397.77	0.00
397.97	42.13
398.16	46.81
398.35	23.41
398.55	16.38
398.74	77.24
398.93	0.00
399.12	49.15
399.32	30.43
399.51	58.51
399.70	0.00
399.90	51.49
400.09	25.75
400.28	11.70
400.47	4.68
400.67	49.15
400.86	56.17
401.05	32.77
401.24	0.00
401.44	79.58
401.63	28.09
401.82	28.09
402.01	77.24
402.21	86.60
402.40	7.02
402.59	49.15
402.78	0.00
402.97	102.98
403.17	84.26
403.36	44.47
403.55	16.38
403.74	74.90
403.93	42.13
404.13	37.45
404.32	0.00
404.51	58.51
404.70	0.00
404.89	0.00
405.09	0.00
405.28	23.41
405.47	0.00
405.66	2.34
405.85	9.36
406.05	0.00
406.24	28.09
406.43	32.77
406.62	46.81
406.81	60.85
407.00	25.75
407.20	23.41
407.39	53.83
407.58	0.00
407.77	53.83
407.96	32.77
408.15	65.54
408.34	14.04
408.54	46.81
408.73	14.04
408.92	56.17
409.11	42.13
409.30	14.04
409.49	0.00
409.68	81.92
409.87	39.79
410.07	74.90
410.26	0.00
410.45	14.04
410.64	25.75
410.83	35.11
411.02	9.36
411.21	18.72
411.40	95.96
411.59	18.72
411.78	35.11
411.98	88.94
412.17	28.09
412.36	0.00
412.55	81.92
412.74	30.43
412.93	16.38
413.12	25.75
413.31	60.85
413.50	16.38
413.69	88.94
413.88	65.54
414.07	46.81
414.26	46.81
414.45	0.00
414.64	100.64
414.83	14.04
415.02	0.00
415.22	7.02
415.41	65.54
415.60	0.00
415.79	0.00
415.98	16.38
416.17	44.47
416.36	53.83
416.55	128.73
416.74	14.04
416.93	42.13
417.12	77.24
417.31	21.06
417.50	63.19
417.69	56.17
417.88	67.88
418.07	74.90
418.26	88.94
418.45	81.92
418.64	30.43
418.83	51.49
419.02	53.83
419.21	70.22
419.39	74.90
419.58	23.41
419.77	39.79
419.96	46.81
420.15	0.00
420.34	49.15
420.53	84.26
420.72	42.13
420.91	44.47
421.10	0.00
421.29	16.38
421.48	7.02
421.67	11.70
421.86	0.00
422.05	42.13
422.24	74.90
422.43	102.98
422.61	117.03
422.80	35.11
422.99	4.68
423.18	11.70
423.37	63.19
423.56	60.85
423.75	42.13
423.94	25.75
424.13	63.19
424.32	65.54
424.50	42.13
424.69	56.17
424.88	37.45
425.07	0.00
425.26	51.49
425.45	49.15
425.64	98.30
425.83	53.83
426.01	0.00
426.20	30.43
426.39	37.45
426.58	93.62
426.77	0.00
426.96	70.22
427.15	56.17
427.33	46.81
427.52	65.54
427.71	51.49
427.90	121.71
428.09	21.06
428.28	0.00
428.46	32.77
428.65	58.51
428.84	74.90
429.03	58.51
429.22	77.24
429.40	44.47
429.59	88.94
429.78	0.00
429.97	70.22
430.16	28.09
430.34	63.19
430.53	46.81
430.72	30.43
430.91	0.00
431.10	44.47
431.28	7.02
431.47	0.00
431.66	39.79
431.85	79.58
432.03	2.34
432.22	46.81
432.41	60.85
432.60	16.38
432.79	28.09
432.97	65.54
433.16	0.00
433.35	0.00
433.54	105.32
433.72	4.68
433.91	25.75
434.10	60.85
434.28	117.03
434.47	30.43
434.66	67.88
434.85	70.22
435.03	91.28
435.22	25.75
435.41	70.22
435.59	11.70
435.78	70.22
435.97	65.54
436.16	67.88
436.34	93.62
436.53	0.00
436.72	72.56
436.90	81.92
437.09	14.04
437.28	51.49
437.46	88.94
437.65	44.47
437.84	63.19
438.02	72.56
438.21	63.19
438.40	37.45
438.58	0.00
438.77	93.62
438.96	16.38
439.14	0.00
439.33	107.66
439.52	46.81
439.70	58.51
439.89	74.90
440.08	79.58
440.26	74.90
440.45	46.81
440.63	72.56
440.82	93.62
441.01	84.26
441.19	65.54
441.38	4.68
441.57	23.41
441.75	39.79
441.94	9.36
442.12	102.98
442.31	25.75
442.50	18.72
442.68	25.75
442.87	58.51
443.05	58.51
443.24	0.00
443.43	9.36
443.61	7.02
443.80	56.17
443.98	14.04
444.17	74.90
444.35	37.45
444.54	7.02
444.73	0.00
444.91	105.32
445.10	0.00
445.28	49.15
445.47	98.30
445.65	14.04
445.84	110.01
446.02	70.22
446.21	98.30
446.39	32.77
446.58	60.85
446.77	49.15
446.95	0.00
447.14	4.68
447.32	0.00
447.51	86.60
447.69	77.24
447.88	0.00
448.06	117.03
448.25	30.43
448.43	18.72
448.62	70.22
448.80	16.38
448.99	28.09
449.17	37.45
449.36	53.83
449.54	32.77
449.73	77.24
449.91	133.41
450.10	105.32
450.28	28.09
450.46	110.01
450.65	14.04
450.83	11.70
451.02	53.83
451.20	35.11
451.39	65.54
451.57	28.09
451.76	16.38
451.94	23.41
452.13	93.62
452.31	74.90
452.49	63.19
452.68	56.17
452.86	65.54
453.05	35.11
453.23	86.60
453.42	0.00
453.60	128.73
453.78	25.75
453.97	7.02
454.15	93.62
454.34	35.11
454.52	98.30
454.70	121.71
454.89	4.68
455.07	119.37
455.26	60.85
455.44	25.75
455.62	72.56
455.81	88.94
455.99	70.22
456.17	0.00
456.36	28.09
456.54	56.17
456.73	0.00
456.91	53.83
457.09	42.13
457.28	88.94
457.46	70.22
457.64	37.45
457.83	9.36
458.01	95.96
458.19	16.38
458.38	147.45
458.56	28.09
458.74	93.62
458.93	18.72
459.11	105.32
459.29	84.26
459.48	145.11
459.66	21.06
459.84	93.62
460.03	46.81
460.21	91.28
460.39	77.24
460.57	53.83
460.76	42.13
460.94	79.58
461.12	60.85
461.31	39.79
461.49	63.19
461.67	63.19
461.85	0.00
462.04	14.04
462.22	124.05
462.40	110.01
462.59	49.15
462.77	11.70
462.95	32.77
463.13	91.28
463.32	63.19
463.50	42.13
463.68	72.56
463.86	42.13
464.05	42.13
464.23	105.32
464.41	140.43
464.59	72.56
464.78	79.58
464.96	4.68
465.14	58.51
465.32	81.92
465.50	51.49
465.69	53.83
465.87	46.81
466.05	98.30
466.23	28.09
466.41	74.90
466.60	93.62
466.78	63.19
466.96	0.00
467.14	112.35
467.32	0.00
467.51	9.36
467.69	74.90
467.87	91.28
468.05	23.41
468.23	21.06
468.41	46.81
468.60	39.79
468.78	77.24
468.96	114.69
469.14	126.39
469.32	11.70
469.50	72.56
469.69	91.28
469.87	81.92
470.05	60.85
470.23	0.00
470.41	91.28
470.59	58.51
470.77	0.00
470.95	63.19
471.14	42.13
471.32	16.38
471.50	60.85
471.68	49.15
471.86	0.00
472.04	58.51
472.22	93.62
472.40	2.34
472.58	30.43
472.77	21.06
472.95	0.00
473.13	65.54
473.31	9.36
473.49	58.51
473.67	44.47
473.85	35.11
474.03	46.81
474.21	65.54
474.39	86.60
474.57	67.88
474.75	14.04
474.93	60.85
475.12	23.41
475.30	49.15
475.48	119.37
475.66	88.94
475.84	35.11
476.02	46.81
476.20	84.26
476.38	42.13
476.56	30.43
476.74	0.00
476.92	37.45
477.10	95.96
477.28	21.06
477.46	88.94
477.64	65.54
477.82	98.30
478.00	0.00
478.18	25.75
478.36	56.17
478.54	81.92
478.72	39.79
478.90	56.17
479.08	133.41
479.26	81.92
479.44	95.96
479.62	135.75
479.80	7.02
479.98	72.56
480.16	93.62
480.34	98.30
480.52	44.47
480.70	161.50
480.88	74.90
481.06	46.81
481.24	49.15
481.41	102.98
481.59	7.02
481.77	84.26
481.95	95.96
482.13	46.81
482.31	105.32
482.49	0.00
482.67	107.66
482.85	53.83
483.03	39.79
483.21	63.19
483.39	39.79
483.57	79.58
483.74	0.00
483.92	60.85
484.10	112.35
484.28	51.49
484.46	74.90
484.64	53.83
484.82	67.88
485.00	67.88
485.18	39.79
485.35	0.00
485.53	11.70
485.71	23.41
485.89	77.24
486.07	32.77
486.25	138.09
486.43	32.77
486.61	81.92
486.78	121.71
486.96	23.41
487.14	32.77
487.32	65.54
487.50	42.13
487.68	95.96
487.85	35.11
488.03	56.17
488.21	30.43
488.39	0.00
488.57	18.72
488.75	65.54
488.92	102.98
489.10	9.36
489.28	30.43
489.46	93.62
489.64	98.30
489.81	67.88
489.99	102.98
490.17	187.24
490.35	60.85
490.53	84.26
490.70	72.56
490.88	79.58
491.06	21.06
491.24	95.96
491.41	14.04
491.59	37.45
491.77	72.56
491.95	51.49
492.13	112.35
492.30	79.58
492.48	46.81
492.66	67.88
492.84	112.35
493.01	126.39
493.19	84.26
493.37	0.00
493.54	58.51
493.72	28.09
493.90	74.90
494.08	14.04
494.25	74.90
494.43	65.54
494.61	110.01
494.79	51.49
494.96	7.02
495.14	42.13
495.32	16.38
495.49	0.00
495.67	88.94
495.85	46.81
496.02	14.04
496.20	25.75
496.38	58.51
496.55	67.88
496.73	56.17
496.91	95.96
497.09	105.32
497.26	126.39
497.44	91.28
497.62	84.26
497.79	65.54
497.97	74.90
498.14	79.58
498.32	60.85
498.50	30.43
498.67	110.01
498.85	67.88
499.03	18.72
499.20	107.66
499.38	77.24
499.56	119.37
499.73	72.56
499.91	0.00
500.08	91.28
500.26	32.77
500.44	93.62
500.61	124.05
500.79	72.56
500.97	60.85
501.14	133.41
501.32	135.75
501.49	126.39
501.67	53.83
501.84	53.83
502.02	56.17
502.20	35.11
502.37	58.51
502.55	0.00
502.72	51.49
502.90	65.54
503.07	95.96
503.25	114.69
503.43	18.72
503.60	95.96
503.78	88.94
503.95	156.82
504.13	60.85
504.30	128.73
504.48	81.92
504.65	100.64
504.83	42.13
505.01	100.64
505.18	112.35
505.36	70.22
505.53	0.00
505.71	35.11
505.88	95.96
506.06	28.09
506.23	63.19
506.41	72.56
506.58	154.48
506.76	42.13
506.93	42.13
507.11	86.60
507.28	114.69
507.46	149.79
507.63	138.09
507.81	121.71
507.98	7.02
508.16	84.26
508.33	58.51
508.50	44.47
508.68	91.28
508.85	93.62
509.03	119.37
509.20	16.38
509.38	88.94
509.55	105.32
509.73	67.88
509.90	37.45
510.08	84.26
510.25	98.30
510.42	42.13
510.60	95.96
510.77	65.54
510.95	63.19
511.12	70.22
511.30	30.43
511.47	42.13
511.64	161.50
511.82	98.30
511.99	128.73
512.17	131.07
512.34	67.88
512.51	60.85
512.69	105.32
512.86	46.81
513.04	110.01
513.21	65.54
513.38	0.00
513.56	32.77
513.73	110.01
513.90	91.28
514.08	88.94
514.25	56.17
514.43	112.35
514.60	119.37
514.77	133.41
514.95	44.47
515.12	142.77
515.29	100.64
515.47	110.01
515.64	93.62
515.81	184.90
515.99	60.85
516.16	131.07
516.33	79.58
516.51	51.49
516.68	67.88
516.85	110.01
517.03	117.03
517.20	86.60
517.37	51.49
517.54	35.11
517.72	58.51
517.89	107.66
518.06	88.94
518.24	88.94
518.41	58.51
518.58	49.15
518.75	105.32
518.93	105.32
519.10	72.56
519.27	117.03
519.45	154.48
519.62	98.30
519.79	44.47
519.96	100.64
520.14	77.24
520.31	128.73
520.48	65.54
520.65	67.88
520.83	91.28
521.00	145.11
521.17	58.51
521.34	105.32
521.52	112.35
521.69	49.15
521.86	65.54
522.03	107.66
522.20	39.79
522.38	88.94
522.55	95.96
522.72	58.51
522.89	70.22
523.07	88.94
523.24	44.47
523.41	67.88
523.58	32.77
523.75	126.39
523.92	67.88
524.10	9.36
524.27	21.06
524.44	53.83
524.61	140.43
524.78	121.71
524.96	112.35
525.13	84.26
525.30	114.69
525.47	91.28
525.64	117.03
525.81	67.88
525.98	107.66
526.16	84.26
526.33	81.92
526.50	119.37
526.67	44.47
526.84	56.17
527.01	121.71
527.18	119.37
527.36	72.56
527.53	86.60
527.70	114.69
527.87	70.22
528.04	49.15
528.21	95.96
528.38	51.49
528.55	98.30
528.72	88.94
528.89	23.41
529.07	107.66
529.24	46.81
529.41	67.88
529.58	124.05
529.75	39.79
529.92	79.58
530.09	63.19
530.26	28.09
530.43	60.85
530.60	88.94
530.77	133.41
530.94	112.35
531.11	114.69
531.28	56.17
531.46	23.41
531.63	51.49
531.80	86.60
531.97	95.96
532.14	114.69
532.31	49.15
532.48	30.43
532.65	77.24
532.82	30.43
532.99	135.75
533.16	156.82
533.33	60.85
533.50	63.19
533.67	0.00
533.84	107.66
534.01	21.06
534.18	51.49
534.35	18.72
534.52	74.90
534.69	126.39
534.86	114.69
535.03	95.96
535.20	147.45
535.37	72.56
535.54	77.24
535.71	35.11
535.88	88.94
536.05	112.35
536.22	70.22
536.38	11.70
536.55	117.03
536.72	79.58
536.89	25.75
537.06	70.22
537.23	53.83
537.40	0.00
537.57	56.17
537.74	63.19
537.91	79.58
538.08	114.69
538.25	117.03
538.42	72.56
538.59	128.73
538.75	49.15
538.92	25.75
539.09	58.51
539.26	74.90
539.43	42.13
539.60	117.03
539.77	91.28
539.94	98.30
540.11	138.09
540.28	102.98
540.44	81.92
540.61	0.00
540.78	53.83
540.95	91.28
541.12	77.24
541.29	86.60
541.46	70.22
541.62	98.30
541.79	72.56
541.96	105.32
542.13	4.68
542.30	126.39
542.47	102.98
542.63	98.30
542.80	53.83
542.97	35.11
543.14	121.71
543.31	77.24
543.48	107.66
543.64	58.51
543.81	128.73
543.98	107.66
544.15	98.30
544.32	63.19
544.48	53.83
544.65	23.41
544.82	37.45
544.99	74.90
545.16	46.81
545.32	105.32
545.49	117.03
545.66	42.13
545.83	110.01
546.00	53.83
546.16	70.22
546.33	72.56
546.50	37.45
546.67	86.60
546.83	77.24
547.00	58.51
547.17	56.17
547.34	77.24
547.50	18.72
547.67	81.92
547.84	93.62
548.00	63.19
548.17	60.85
548.34	86.60
548.51	79.58
548.67	77.24
548.84	32.77
549.01	140.43
549.18	105.32
549.34	121.71
549.51	98.30
549.68	147.45
549.84	110.01
550.01	65.54
550.18	88.94
550.34	88.94
550.51	46.81
550.68	166.18
550.84	102.98
551.01	112.35
551.18	93.62
551.34	30.43
551.51	110.01
551.68	0.00
551.84	135.75
552.01	121.71
552.18	119.37
552.34	18.72
552.51	74.90
552.68	49.15
552.84	63.19
553.01	98.30
553.18	81.92
553.34	180.22
553.51	140.43
553.67	65.54
553.84	77.24
554.01	35.11
554.17	67.88
554.34	145.11
554.51	35.11
554.67	131.07
554.84	49.15
555.00	53.83
555.17	110.01
555.33	86.60
555.50	72.56
555.67	79.58
555.83	86.60
556.00	56.17
556.16	124.05
556.33	72.56
556.50	7.02
556.66	58.51
556.83	114.69
556.99	91.28
557.16	32.77
557.32	46.81
557.49	154.48
557.65	135.75
557.82	51.49
557.98	124.05
558.15	7.02
558.32	46.81
558.48	30.43
558.65	46.81
558.81	119.37
558.98	114.69
559.14	70.22
559.31	110.01
559.47	74.90
559.64	35.11
559.80	114.69
559.97	105.32
560.13	65.54
560.30	114.69
560.46	16.38
560.63	44.47
560.79	138.09
560.96	67.88
561.12	100.64
561.29	128.73
561.45	51.49
561.61	147.45
561.78	65.54
561.94	65.54
562.11	49.15
562.27	9.36
562.44	114.69
562.60	74.90
562.77	105.32
562.93	86.60
563.10	102.98
563.26	117.03
563.42	98.30
563.59	93.62
563.75	88.94
563.92	74.90
564.08	81.92
564.24	0.00
564.41	2.34
564.57	93.62
564.74	138.09
564.90	65.54
565.07	14.04
565.23	84.26
565.39	84.26
565.56	60.85
565.72	133.41
565.88	30.43
566.05	142.77
566.21	91.28
566.38	32.77
566.54	58.51
566.70	98.30
566.87	42.13
567.03	95.96
567.19	161.50
567.36	138.09
567.52	30.43
567.68	77.24
567.85	56.17
568.01	65.54
568.17	67.88
568.34	42.13
568.50	0.00
568.66	93.62
568.83	86.60
568.99	117.03
569.15	98.30
569.32	81.92
569.48	86.60
569.64	4.68
569.81	107.66
569.97	67.88
570.13	86.60
570.30	102.98
570.46	138.09
570.62	91.28
570.78	84.26
570.95	46.81
571.11	119.37
571.27	49.15
571.43	32.77
571.60	28.09
571.76	60.85
571.92	81.92
572.09	58.51
572.25	126.39
572.41	0.00
572.57	4.68
572.74	98.30
572.90	72.56
573.06	93.62
573.22	65.54
573.38	147.45
573.55	49.15
573.71	65.54
573.87	107.66
574.03	0.00
574.20	74.90
574.36	88.94
574.52	0.00
574.68	51.49
574.84	84.26
575.01	112.35
575.17	84.26
575.33	84.26
575.49	56.17
575.65	119.37
575.82	46.81
575.98	142.77
576.14	147.45
576.30	117.03
576.46	16.38
576.62	128.73
576.79	25.75
576.95	67.88
577.11	23.41
577.27	81.92
577.43	56.17
577.59	107.66
577.75	63.19
577.92	105.32
578.08	114.69
578.24	67.88
578.40	81.92
578.56	77.24
578.72	60.85
578.88	32.77
579.04	30.43
579.21	84.26
579.37	95.96
579.53	121.71
579.69	67.88
579.85	81.92
580.01	117.03
580.17	142.77
580.33	86.60
580.49	58.51
580.65	44.47
580.82	140.43
580.98	53.83
581.14	60.85
581.30	74.90
581.46	105.32
581.62	67.88
581.78	16.38
581.94	70.22
582.10	131.07
582.26	11.70
582.42	35.11
582.58	93.62
582.74	152.13
582.90	72.56
583.06	110.01
583.22	63.19
583.38	60.85
583.54	65.54
583.70	142.77
583.86	72.56
584.02	81.92
584.18	23.41
584.34	105.32
584.50	131.07
584.66	49.15
584.82	102.98
584.98	65.54
585.14	51.49
585.30	39.79
585.46	67.88
585.62	86.60
585.78	105.32
585.94	42.13
586.10	67.88
586.26	14.04
586.42	91.28
586.58	65.54
586.74	91.28
586.90	65.54
587.06	84.26
587.22	74.90
587.38	2.34
587.54	49.15
587.70	65.54
587.86	74.90
588.02	110.01
588.18	53.83
588.34	28.09
588.49	91.28
588.65	0.00
588.81	32.77
588.97	74.90
589.13	84.26
589.29	21.06
589.45	21.06
589.61	46.81
589.77	74.90
589.93	63.19
590.08	74.90
590.24	0.00
590.40	42.13
590.56	14.04
590.72	95.96
590.88	74.90
591.04	168.52
591.20	154.48
591.35	0.00
591.51	60.85
591.67	63.19
591.83	147.45
591.99	35.11
592.15	37.45
592.31	77.24
592.46	16.38
592.62	56.17
592.78	161.50
592.94	74.90
593.10	81.92
593.26	18.72
593.41	42.13
593.57	44.47
593.73	46.81
593.89	67.88
594.05	100.64
594.20	16.38
594.36	70.22
594.52	67.88
594.68	18.72
594.84	100.64
594.99	18.72
595.15	63.19
595.31	0.00
595.47	37.45
595.62	77.24
595.78	65.54
595.94	86.60
596.10	84.26
596.25	67.88
596.41	0.00
596.57	126.39
596.73	86.60
596.88	77.24
597.04	65.54
597.20	51.49
597.36	9.36
597.51	56.17
597.67	63.19
597.83	21.06
597.99	84.26
598.14	124.05
598.30	14.04
598.46	65.54
598.61	46.81
598.77	133.41
598.93	102.98
599.09	147.45
599.24	84.26
599.40	58.51
599.56	102.98
599.71	98.30
599.87	9.36
600.03	53.83
600.18	60.85
600.34	70.22
600.50	51.49
600.65	60.85
600.81	23.41
600.97	53.83
601.12	56.17
601.28	65.54
601.44	9.36
601.59	23.41
601.75	86.60
601.91	65.54
602.06	42.13
602.22	74.90
602.37	35.11
602.53	88.94
602.69	81.92
602.84	63.19
603.00	39.79
603.16	117.03
603.31	53.83
603.47	110.01
603.62	0.00
603.78	58.51
603.94	72.56
604.09	21.06
604.25	39.79
604.40	60.85
604.56	154.48
604.71	105.32
604.87	67.88
605.03	88.94
605.18	32.77
605.34	77.24
605.49	0.00
605.65	23.41
605.80	2.34
605.96	58.51
606.12	152.13
606.27	117.03
606.43	107.66
606.58	4.68
606.74	42.13
606.89	138.09
607.05	44.47
607.20	0.00
607.36	74.90
607.51	105.32
607.67	0.00
607.82	65.54
607.98	95.96
608.13	49.15
608.29	72.56
608.44	23.41
608.60	42.13
608.75	58.51
608.91	79.58
609.06	88.94
609.22	138.09
609.37	91.28
609.53	60.85
609.68	46.81
609.84	93.62
609.99	88.94
610.15	42.13
610.30	63.19
610.46	100.64
610.61	42.13
610.76	98.30
610.92	53.83
611.07	11.70
611.23	81.92
611.38	25.75
611.54	30.43
611.69	114.69
611.84	0.00
612.00	0.00
612.15	100.64
612.31	63.19
612.46	35.11
612.62	58.51
612.77	4.68
612.92	88.94
613.08	37.45
613.23	72.56
613.39	53.83
613.54	72.56
613.69	44.47
613.85	84.26
614.00	86.60
614.15	124.05
614.31	72.56
614.46	9.36
614.62	110.01
614.77	11.70
614.92	65.54
615.08	121.71
615.23	121.71
615.38	74.90
615.54	44.47
615.69	35.11
615.84	95.96
616.00	70.22
616.15	67.88
616.30	0.00
616.46	81.92
616.61	37.45
616.76	140.43
616.92	114.69
617.07	88.94
617.22	37.45
617.37	93.62
617.53	79.58
617.68	152.13
617.83	131.07
617.99	51.49
618.14	46.81
618.29	98.30
618.45	0.00
618.60	65.54
618.75	105.32
618.90	28.09
619.06	42.13
619.21	81.92
619.36	110.01
619.51	81.92
619.67	37.45
619.82	86.60
619.97	91.28
620.12	23.41
620.28	37.45
620.43	37.45
620.58	0.00
620.73	56.17
620.89	46.81
621.04	56.17
621.19	37.45
621.34	81.92
621.49	79.58
621.65	53.83
621.80	121.71
621.95	46.81
622.10	2.34
622.25	135.75
622.41	124.05
622.56	88.94
622.71	72.56
622.86	53.83
623.01	140.43
623.16	79.58
623.32	56.17
623.47	114.69
623.62	86.60
623.77	88.94
623.92	93.62
624.07	25.75
624.23	0.00
624.38	93.62
624.53	112.35
624.68	44.47
624.83	74.90
624.98	44.47
625.13	100.64
625.29	25.75
625.44	65.54
625.59	79.58
625.74	70.22
625.89	74.90
626.04	4.68
626.19	39.79
626.34	65.54
626.49	42.13
626.65	65.54
626.80	124.05
626.95	14.04
627.10	37.45
627.25	67.88
627.40	91.28
627.55	110.01
627.70	18.72
627.85	117.03
628.00	117.03
628.15	18.72
628.30	105.32
628.45	49.15
628.60	46.81
628.76	88.94
628.91	110.01
629.06	86.60
629.21	56.17
629.36	53.83
629.51	102.98
629.66	114.69
629.81	74.90
629.96	145.11
630.11	37.45
630.26	117.03
630.41	112.35
630.56	63.19
630.71	60.85
630.86	32.77
631.01	49.15
631.16	42.13
631.31	95.96
631.46	84.26
631.61	72.56
631.76	67.88
631.91	135.75
632.06	53.83
632.21	119.37
632.36	88.94
632.51	110.01
632.66	2.34
632.81	37.45
632.96	56.17
633.10	37.45
633.25	63.19
633.40	37.45
633.55	107.66
633.70	154.48
633.85	60.85
634.00	79.58
634.15	77.24
634.30	46.81
634.45	39.79
634.60	21.06
634.75	79.58
634.90	110.01
635.05	112.35
635.19	30.43
635.34	159.16
635.49	25.75
635.64	72.56
635.79	70.22
635.94	98.30
636.09	56.17
636.24	84.26
636.39	2.34
636.53	56.17
636.68	46.81
636.83	154.48
636.98	37.45
637.13	44.47
637.28	7.02
637.43	58.51
637.57	23.41
637.72	149.79
637.87	44.47
638.02	42.13
638.17	65.54
638.32	81.92
638.46	58.51
638.61	4.68
638.76	91.28
638.91	145.11
639.06	110.01
639.20	79.58
639.35	56.17
639.50	28.09
639.65	161.50
639.80	102.98
639.94	107.66
640.09	7.02
640.24	145.11
640.39	44.47
640.54	93.62
640.68	0.00
640.83	67.88
640.98	110.01
641.13	114.69
641.27	44.47
641.42	98.30
641.57	84.26
641.72	98.30
641.86	49.15
642.01	100.64
642.16	46.81
642.31	88.94
642.45	133.41
642.60	93.62
642.75	21.06
642.90	56.17
643.04	0.00
643.19	14.04
643.34	60.85
643.48	32.77
643.63	124.05
643.78	39.79
643.93	88.94
644.07	28.09
644.22	58.51
644.37	124.05
644.51	0.00
644.66	30.43
644.81	70.22
644.95	21.06
645.10	110.01
645.25	32.77
645.39	51.49
645.54	70.22
645.69	79.58
645.83	49.15
645.98	60.85
646.13	28.09
646.27	28.09
646.42	72.56
646.57	21.06
646.71	138.09
646.86	74.90
647.00	42.13
647.15	39.79
647.30	32.77
647.44	105.32
647.59	0.00
647.74	4.68
647.88	0.00
648.03	117.03
648.17	7.02
648.32	65.54
648.47	95.96
648.61	81.92
648.76	93.62
648.90	30.43
649.05	86.60
649.20	84.26
649.34	14.04
649.49	32.77
649.63	77.24
649.78	11.70
649.92	0.00
650.07	49.15
650.21	4.68
650.36	91.28
650.51	51.49
650.65	91.28
650.80	18.72
650.94	93.62
651.09	81.92
651.23	32.77
651.38	70.22
651.52	0.00
651.67	60.85
651.81	0.00
651.96	4.68
652.10	0.00
652.25	98.30
652.39	30.43
652.54	51.49
652.68	49.15
652.83	88.94
652.97	30.43
653.12	107.66
653.26	21.06
653.41	67.88
653.55	128.73
653.70	65.54
653.84	28.09
653.99	49.15
654.13	77.24
654.27	72.56
654.42	32.77
654.56	65.54
654.71	91.28
654.85	77.24
655.00	67.88
655.14	18.72
655.29	67.88
655.43	79.58
655.57	102.98
655.72	112.35
655.86	117.03
656.01	72.56
656.15	53.83
656.30	70.22
656.44	4.68
656.58	56.17
656.73	51.49
656.87	37.45
657.01	95.96
657.16	0.00
657.30	30.43
657.45	51.49
657.59	56.17
657.73	51.49
657.88	98.30
658.02	117.03
658.16	14.04
658.31	44.47
658.45	44.47
658.60	37.45
658.74	42.13
658.88	7.02
659.03	35.11
659.17	11.70
659.31	39.79
659.46	81.92
659.60	67.88
659.74	98.30
659.89	49.15
660.03	63.19
660.17	23.41
660.32	65.54
660.46	100.64
660.60	95.96
660.74	18.72
660.89	70.22
661.03	9.36
661.17	0.00
661.32	28.09
661.46	79.58
661.60	21.06
661.74	84.26
661.89	107.66
662.03	63.19
662.17	21.06
662.31	93.62
662.46	81.92
662.60	93.62
662.74	51.49
662.88	25.75
663.03	65.54
663.17	51.49
663.31	70.22
663.45	74.90
663.60	51.49
663.74	32.77
663.88	72.56
664.02	0.00
664.17	70.22
664.31	39.79
664.45	0.00
664.59	79.58
664.73	91.28
664.88	21.06
665.02	44.47
665.16	23.41
665.30	14.04
665.44	74.90
665.59	65.54
665.73	46.81
665.87	60.85
666.01	4.68
666.15	4.68
666.29	63.19
666.44	28.09
666.58	42.13
666.72	67.88
666.86	42.13
667.00	39.79
667.14	2.34
667.28	58.51
667.43	37.45
667.57	4.68
667.71	28.09
667.85	11.70
667.99	51.49
668.13	63.19
668.27	42.13
668.41	86.60
668.56	42.13
668.70	46.81
668.84	81.92
668.98	16.38
669.12	0.00
669.26	42.13
669.40	175.54
669.54	166.18
669.68	0.00
669.82	77.24
669.96	23.41
670.10	60.85
670.25	39.79
670.39	84.26
670.53	46.81
670.67	28.09
670.81	44.47
670.95	16.38
671.09	100.64
671.23	70.22
671.37	53.83
671.51	16.38
671.65	107.66
671.79	16.38
671.93	0.00
672.07	65.54
672.21	37.45
672.35	25.75
672.49	42.13
672.63	93.62
672.77	16.38
672.91	37.45
673.05	74.90
673.19	70.22
673.33	53.83
673.47	107.66
673.61	37.45
673.75	30.43
673.89	79.58
674.03	58.51
674.17	60.85
674.31	42.13
674.45	4.68
674.59	42.13
674.73	81.92
674.87	84.26
675.01	46.81
675.15	65.54
675.29	23.41
675.43	14.04
675.56	77.24
675.70	77.24
675.84	77.24
675.98	46.81
676.12	56.17
676.26	42.13
676.40	46.81
676.54	51.49
676.68	107.66
676.82	37.45
676.96	58.51
677.10	35.11
677.23	77.24
677.37	0.00
677.51	56.17
677.65	28.09
677.79	98.30
677.93	35.11
678.07	60.85
678.21	44.47
678.34	30.43
678.48	58.51
678.62	114.69
678.76	44.47
678.90	58.51
679.04	63.19
679.18	16.38
679.31	67.88
679.45	67.88
679.59	63.19
679.73	133.41
679.87	25.75
680.00	112.35
680.14	42.13
680.28	72.56
680.42	46.81
680.56	4.68
680.70	51.49
680.83	14.04
680.97	91.28
681.11	14.04
681.25	93.62
681.39	53.83
681.52	18.72
681.66	16.38
681.80	28.09
681.94	98.30
682.07	74.90
682.21	95.96
682.35	107.66
682.49	7.02
682.62	110.01
682.76	65.54
682.90	0.00
683.04	58.51
683.17	56.17
683.31	93.62
683.45	81.92
683.59	138.09
683.72	39.79
683.86	58.51
684.00	81.92
684.13	4.68
684.27	37.45
684.41	46.81
684.55	0.00
684.68	86.60
684.82	51.49
684.96	53.83
685.09	70.22
685.23	51.49
685.37	91.28
685.50	0.00
685.64	35.11
685.78	7.02
685.91	51.49
686.05	18.72
686.19	65.54
686.32	0.00
686.46	51.49
686.60	100.64
686.73	63.19
686.87	72.56
687.01	14.04
687.14	58.51
687.28	18.72
687.42	0.00
687.55	44.47
687.69	154.48
687.82	93.62
687.96	53.83
688.10	28.09
688.23	4.68
688.37	0.00
688.50	46.81
688.64	42.13
688.78	7.02
688.91	42.13
689.05	9.36
689.18	32.77
689.32	63.19
689.46	0.00
689.59	7.02
689.73	56.17
689.86	42.13
690.00	138.09
690.13	32.77
690.27	67.88
690.41	21.06
690.54	23.41
690.68	105.32
690.81	107.66
690.95	84.26
691.08	63.19
691.22	21.06
691.35	53.83
691.49	9.36
691.62	70.22
691.76	30.43
691.89	95.96
692.03	0.00
692.16	49.15
692.30	0.00
692.43	0.00
692.57	56.17
692.70	32.77
692.84	51.49
692.97	0.00
693.11	65.54
693.24	44.47
693.38	18.72
693.51	79.58
693.65	28.09
693.78	32.77
693.92	46.81
694.05	0.00
694.19	32.77
694.32	65.54
694.45	18.72
694.59	0.00
694.72	65.54
694.86	42.13
694.99	0.00
695.13	0.00
695.26	4.68
695.39	0.00
695.53	74.90
695.66	7.02
695.80	0.00
695.93	72.56
696.07	56.17
696.20	21.06
696.33	37.45
696.47	46.81
696.60	65.54
696.73	58.51
696.87	0.00
697.00	30.43
697.14	30.43
697.27	14.04
697.40	70.22
697.54	0.00
697.67	42.13
697.80	0.00
697.94	23.41
698.07	42.13
698.21	42.13
698.34	145.11
698.47	72.56
698.61	93.62
698.74	39.79
698.87	7.02
699.01	39.79
699.14	23.41
699.27	107.66
699.40	44.47
699.54	105.32
699.67	18.72
699.80	28.09
699.94	58.51
700.07	63.19
700.20	9.36
700.34	65.54
700.47	32.77
700.60	44.47
700.73	72.56
700.87	88.94
701.00	93.62
701.13	30.43
701.26	18.72
701.40	25.75
701.53	4.68
701.66	0.00
701.79	23.41
701.93	72.56
702.06	53.83
702.19	60.85
702.32	32.77
702.46	56.17
702.59	100.64
702.72	86.60
702.85	95.96
702.99	49.15
703.12	77.24
703.25	18.72
703.38	65.54
703.51	39.79
703.65	21.06
703.78	30.43
703.91	58.51
704.04	58.51
704.17	51.49
704.31	49.15
704.44	42.13
704.57	84.26
704.70	79.58
704.83	14.04
704.96	18.72
705.10	46.81
705.23	0.00
>>>>>End Processed Spectral Data<<<<<
