SpectraSuite Data File
++++++++++++++++++++++++++++++++++++
Date: Fri Oct 04 12:13:44 GMT-05:00 2013
User: price-jones
Dark Spectrum Present: No
Reference Spectrum Present: No
Number of Sampled Component Spectra: 1
Spectrometers: USB2+H05261
Integration Time (usec): 10000 (USB2+H05261)
Spectra Averaged: 1 (USB2+H05261)
Boxcar Smoothing: 0 (USB2+H05261)
Correct for Electrical Dark: No (USB2+H05261)
Strobe/Lamp Enabled: No (USB2+H05261)
Correct for Detector Non-linearity: No (USB2+H05261)
Correct for Stray Light: No (USB2+H05261)
Number of Pixels in Processed Spectrum: 2048
>>>>>Begin Processed Spectral Data<<<<<
365.73	0.00
365.92	0.00
366.12	0.00
366.32	0.00
366.52	0.00
366.72	0.00
366.91	0.00
367.11	0.00
367.31	0.00
367.51	0.00
367.70	0.00
367.90	0.00
368.10	0.00
368.30	0.00
368.49	0.00
368.69	0.00
368.89	0.00
369.09	0.00
369.28	0.00
369.48	0.00
369.68	0.00
369.87	0.00
370.07	0.00
370.27	0.00
370.47	0.00
370.66	0.00
370.86	0.00
371.06	0.00
371.25	0.00
371.45	30.43
371.65	0.00
371.84	0.00
372.04	0.00
372.24	7.02
372.44	16.38
372.63	42.13
372.83	53.83
373.03	35.11
373.22	32.77
373.42	0.00
373.62	0.00
373.81	11.70
374.01	39.79
374.21	7.02
374.40	39.79
374.60	32.77
374.79	0.00
374.99	42.13
375.19	0.00
375.38	91.28
375.58	0.00
375.78	28.09
375.97	44.47
376.17	0.00
376.37	58.51
376.56	84.26
376.76	65.54
376.95	51.49
377.15	60.85
377.35	0.00
377.54	35.11
377.74	53.83
377.93	65.54
378.13	35.11
378.33	2.34
378.52	9.36
378.72	0.00
378.91	65.54
379.11	0.00
379.31	0.00
379.50	88.94
379.70	42.13
379.89	28.09
380.09	77.24
380.28	0.00
380.48	25.75
380.68	0.00
380.87	0.00
381.07	53.83
381.26	53.83
381.46	4.68
381.65	44.47
381.85	0.00
382.04	4.68
382.24	9.36
382.43	63.19
382.63	63.19
382.83	28.09
383.02	35.11
383.22	16.38
383.41	7.02
383.61	53.83
383.80	102.98
384.00	28.09
384.19	0.00
384.39	28.09
384.58	0.00
384.78	0.00
384.97	14.04
385.17	0.00
385.36	42.13
385.56	9.36
385.75	0.00
385.95	0.00
386.14	0.00
386.34	0.00
386.53	35.11
386.72	30.43
386.92	0.00
387.11	0.00
387.31	60.85
387.50	53.83
387.70	63.19
387.89	0.00
388.09	23.41
388.28	9.36
388.48	28.09
388.67	56.17
388.86	63.19
389.06	60.85
389.25	37.45
389.45	70.22
389.64	56.17
389.84	0.00
390.03	30.43
390.22	9.36
390.42	28.09
390.61	7.02
390.81	0.00
391.00	18.72
391.19	100.64
391.39	77.24
391.58	7.02
391.78	42.13
391.97	0.00
392.16	4.68
392.36	18.72
392.55	11.70
392.75	14.04
392.94	7.02
393.13	0.00
393.33	49.15
393.52	4.68
393.71	0.00
393.91	16.38
394.10	42.13
394.29	11.70
394.49	84.26
394.68	37.45
394.88	0.00
395.07	0.00
395.26	77.24
395.46	4.68
395.65	28.09
395.84	0.00
396.04	0.00
396.23	7.02
396.42	7.02
396.62	0.00
396.81	35.11
397.00	16.38
397.19	14.04
397.39	0.00
397.58	63.19
397.77	65.54
397.97	23.41
398.16	0.00
398.35	23.41
398.55	67.88
398.74	58.51
398.93	49.15
399.12	28.09
399.32	21.06
399.51	9.36
399.70	30.43
399.90	72.56
400.09	81.92
400.28	53.83
400.47	25.75
400.67	79.58
400.86	0.00
401.05	49.15
401.24	53.83
401.44	0.00
401.63	77.24
401.82	53.83
402.01	14.04
402.21	2.34
402.40	0.00
402.59	0.00
402.78	35.11
402.97	7.02
403.17	30.43
403.36	53.83
403.55	37.45
403.74	84.26
403.93	21.06
404.13	0.00
404.32	28.09
404.51	56.17
404.70	0.00
404.89	16.38
405.09	11.70
405.28	0.00
405.47	0.00
405.66	67.88
405.85	16.38
406.05	0.00
406.24	0.00
406.43	0.00
406.62	16.38
406.81	0.00
407.00	79.58
407.20	39.79
407.39	44.47
407.58	0.00
407.77	44.47
407.96	74.90
408.15	58.51
408.34	39.79
408.54	121.71
408.73	56.17
408.92	63.19
409.11	7.02
409.30	74.90
409.49	0.00
409.68	16.38
409.87	16.38
410.07	30.43
410.26	0.00
410.45	49.15
410.64	28.09
410.83	2.34
411.02	25.75
411.21	7.02
411.40	25.75
411.59	0.00
411.78	0.00
411.98	21.06
412.17	4.68
412.36	93.62
412.55	67.88
412.74	18.72
412.93	46.81
413.12	0.00
413.31	7.02
413.50	16.38
413.69	14.04
413.88	11.70
414.07	0.00
414.26	28.09
414.45	65.54
414.64	46.81
414.83	32.77
415.02	21.06
415.22	11.70
415.41	7.02
415.60	18.72
415.79	0.00
415.98	21.06
416.17	0.00
416.36	42.13
416.55	18.72
416.74	44.47
416.93	25.75
417.12	18.72
417.31	0.00
417.50	112.35
417.69	0.00
417.88	9.36
418.07	70.22
418.26	110.01
418.45	65.54
418.64	81.92
418.83	58.51
419.02	0.00
419.21	35.11
419.39	28.09
419.58	67.88
419.77	67.88
419.96	74.90
420.15	63.19
420.34	11.70
420.53	46.81
420.72	28.09
420.91	44.47
421.10	53.83
421.29	0.00
421.48	63.19
421.67	25.75
421.86	7.02
422.05	79.58
422.24	0.00
422.43	72.56
422.61	67.88
422.80	14.04
422.99	0.00
423.18	88.94
423.37	56.17
423.56	30.43
423.75	32.77
423.94	23.41
424.13	23.41
424.32	0.00
424.50	110.01
424.69	2.34
424.88	88.94
425.07	4.68
425.26	0.00
425.45	0.00
425.64	30.43
425.83	25.75
426.01	11.70
426.20	25.75
426.39	65.54
426.58	0.00
426.77	2.34
426.96	35.11
427.15	35.11
427.33	44.47
427.52	44.47
427.71	65.54
427.90	49.15
428.09	60.85
428.28	9.36
428.46	9.36
428.65	0.00
428.84	32.77
429.03	44.47
429.22	35.11
429.40	11.70
429.59	23.41
429.78	74.90
429.97	35.11
430.16	39.79
430.34	23.41
430.53	0.00
430.72	35.11
430.91	44.47
431.10	56.17
431.28	0.00
431.47	42.13
431.66	7.02
431.85	0.00
432.03	16.38
432.22	88.94
432.41	30.43
432.60	53.83
432.79	16.38
432.97	65.54
433.16	60.85
433.35	53.83
433.54	0.00
433.72	37.45
433.91	67.88
434.10	23.41
434.28	0.00
434.47	81.92
434.66	56.17
434.85	21.06
435.03	0.00
435.22	16.38
435.41	0.00
435.59	18.72
435.78	9.36
435.97	46.81
436.16	23.41
436.34	117.03
436.53	58.51
436.72	58.51
436.90	14.04
437.09	63.19
437.28	44.47
437.46	7.02
437.65	44.47
437.84	72.56
438.02	93.62
438.21	79.58
438.40	51.49
438.58	74.90
438.77	81.92
438.96	0.00
439.14	25.75
439.33	56.17
439.52	35.11
439.70	30.43
439.89	0.00
440.08	0.00
440.26	63.19
440.45	0.00
440.63	37.45
440.82	98.30
441.01	23.41
441.19	74.90
441.38	70.22
441.57	67.88
441.75	0.00
441.94	46.81
442.12	9.36
442.31	37.45
442.50	39.79
442.68	2.34
442.87	37.45
443.05	4.68
443.24	16.38
443.43	65.54
443.61	35.11
443.80	77.24
443.98	25.75
444.17	0.00
444.35	0.00
444.54	14.04
444.73	25.75
444.91	70.22
445.10	28.09
445.28	39.79
445.47	67.88
445.65	0.00
445.84	2.34
446.02	23.41
446.21	110.01
446.39	16.38
446.58	32.77
446.77	9.36
446.95	42.13
447.14	70.22
447.32	7.02
447.51	93.62
447.69	0.00
447.88	56.17
448.06	42.13
448.25	0.00
448.43	2.34
448.62	84.26
448.80	28.09
448.99	16.38
449.17	0.00
449.36	46.81
449.54	95.96
449.73	0.00
449.91	0.00
450.10	0.00
450.28	9.36
450.46	67.88
450.65	30.43
450.83	93.62
451.02	32.77
451.20	14.04
451.39	0.00
451.57	39.79
451.76	25.75
451.94	0.00
452.13	46.81
452.31	30.43
452.49	74.90
452.68	63.19
452.86	107.66
453.05	0.00
453.23	84.26
453.42	44.47
453.60	9.36
453.78	72.56
453.97	53.83
454.15	49.15
454.34	0.00
454.52	79.58
454.70	9.36
454.89	21.06
455.07	0.00
455.26	0.00
455.44	28.09
455.62	0.00
455.81	21.06
455.99	9.36
456.17	35.11
456.36	79.58
456.54	56.17
456.73	53.83
456.91	70.22
457.09	7.02
457.28	53.83
457.46	0.00
457.64	7.02
457.83	70.22
458.01	0.00
458.19	70.22
458.38	56.17
458.56	14.04
458.74	39.79
458.93	53.83
459.11	133.41
459.29	74.90
459.48	21.06
459.66	44.47
459.84	79.58
460.03	35.11
460.21	16.38
460.39	63.19
460.57	32.77
460.76	49.15
460.94	93.62
461.12	2.34
461.31	32.77
461.49	112.35
461.67	0.00
461.85	63.19
462.04	53.83
462.22	56.17
462.40	58.51
462.59	98.30
462.77	88.94
462.95	72.56
463.13	7.02
463.32	79.58
463.50	93.62
463.68	46.81
463.86	4.68
464.05	18.72
464.23	84.26
464.41	0.00
464.59	30.43
464.78	9.36
464.96	7.02
465.14	23.41
465.32	98.30
465.50	0.00
465.69	58.51
465.87	107.66
466.05	74.90
466.23	72.56
466.41	2.34
466.60	53.83
466.78	37.45
466.96	11.70
467.14	79.58
467.32	14.04
467.51	0.00
467.69	0.00
467.87	72.56
468.05	77.24
468.23	35.11
468.41	70.22
468.60	37.45
468.78	35.11
468.96	18.72
469.14	28.09
469.32	0.00
469.50	0.00
469.69	37.45
469.87	86.60
470.05	63.19
470.23	11.70
470.41	0.00
470.59	49.15
470.77	23.41
470.95	0.00
471.14	2.34
471.32	37.45
471.50	95.96
471.68	44.47
471.86	60.85
472.04	84.26
472.22	9.36
472.40	32.77
472.58	18.72
472.77	121.71
472.95	2.34
473.13	0.00
473.31	60.85
473.49	65.54
473.67	58.51
473.85	0.00
474.03	32.77
474.21	0.00
474.39	0.00
474.57	0.00
474.75	30.43
474.93	60.85
475.12	65.54
475.30	65.54
475.48	0.00
475.66	25.75
475.84	0.00
476.02	81.92
476.20	95.96
476.38	60.85
476.56	49.15
476.74	0.00
476.92	49.15
477.10	23.41
477.28	28.09
477.46	4.68
477.64	65.54
477.82	2.34
478.00	67.88
478.18	63.19
478.36	60.85
478.54	30.43
478.72	42.13
478.90	72.56
479.08	112.35
479.26	7.02
479.44	46.81
479.62	0.00
479.80	25.75
479.98	16.38
480.16	77.24
480.34	23.41
480.52	18.72
480.70	79.58
480.88	14.04
481.06	0.00
481.24	35.11
481.41	25.75
481.59	81.92
481.77	0.00
481.95	11.70
482.13	32.77
482.31	39.79
482.49	51.49
482.67	28.09
482.85	25.75
483.03	100.64
483.21	72.56
483.39	9.36
483.57	79.58
483.74	100.64
483.92	49.15
484.10	7.02
484.28	0.00
484.46	65.54
484.64	28.09
484.82	0.00
485.00	60.85
485.18	79.58
485.35	0.00
485.53	131.07
485.71	0.00
485.89	11.70
486.07	35.11
486.25	53.83
486.43	37.45
486.61	35.11
486.78	0.00
486.96	51.49
487.14	25.75
487.32	63.19
487.50	49.15
487.68	72.56
487.85	60.85
488.03	67.88
488.21	51.49
488.39	95.96
488.57	60.85
488.75	23.41
488.92	51.49
489.10	16.38
489.28	81.92
489.46	67.88
489.64	25.75
489.81	0.00
489.99	100.64
490.17	74.90
490.35	70.22
490.53	84.26
490.70	63.19
490.88	112.35
491.06	65.54
491.24	53.83
491.41	63.19
491.59	39.79
491.77	53.83
491.95	72.56
492.13	77.24
492.30	28.09
492.48	88.94
492.66	84.26
492.84	56.17
493.01	39.79
493.19	46.81
493.37	56.17
493.54	51.49
493.72	28.09
493.90	86.60
494.08	35.11
494.25	25.75
494.43	51.49
494.61	23.41
494.79	51.49
494.96	37.45
495.14	7.02
495.32	79.58
495.49	67.88
495.67	9.36
495.85	67.88
496.02	42.13
496.20	72.56
496.38	110.01
496.55	65.54
496.73	51.49
496.91	98.30
497.09	67.88
497.26	53.83
497.44	16.38
497.62	93.62
497.79	67.88
497.97	72.56
498.14	4.68
498.32	23.41
498.50	0.00
498.67	0.00
498.85	18.72
499.03	37.45
499.20	0.00
499.38	70.22
499.56	84.26
499.73	32.77
499.91	63.19
500.08	25.75
500.26	95.96
500.44	93.62
500.61	51.49
500.79	98.30
500.97	147.45
501.14	39.79
501.32	102.98
501.49	81.92
501.67	74.90
501.84	49.15
502.02	37.45
502.20	11.70
502.37	23.41
502.55	72.56
502.72	30.43
502.90	28.09
503.07	74.90
503.25	65.54
503.43	7.02
503.60	25.75
503.78	51.49
503.95	42.13
504.13	30.43
504.30	0.00
504.48	126.39
504.65	25.75
504.83	86.60
505.01	0.00
505.18	21.06
505.36	77.24
505.53	44.47
505.71	42.13
505.88	9.36
506.06	74.90
506.23	63.19
506.41	21.06
506.58	39.79
506.76	114.69
506.93	102.98
507.11	91.28
507.28	42.13
507.46	112.35
507.63	93.62
507.81	0.00
507.98	32.77
508.16	93.62
508.33	4.68
508.50	138.09
508.68	98.30
508.85	7.02
509.03	16.38
509.20	91.28
509.38	21.06
509.55	25.75
509.73	72.56
509.90	77.24
510.08	16.38
510.25	112.35
510.42	81.92
510.60	70.22
510.77	77.24
510.95	42.13
511.12	23.41
511.30	77.24
511.47	67.88
511.64	56.17
511.82	88.94
511.99	4.68
512.17	60.85
512.34	28.09
512.51	77.24
512.69	18.72
512.86	0.00
513.04	46.81
513.21	39.79
513.38	0.00
513.56	46.81
513.73	63.19
513.90	86.60
514.08	86.60
514.25	30.43
514.43	124.05
514.60	18.72
514.77	0.00
514.95	18.72
515.12	67.88
515.29	44.47
515.47	35.11
515.64	63.19
515.81	44.47
515.99	102.98
516.16	23.41
516.33	30.43
516.51	42.13
516.68	81.92
516.85	131.07
517.03	0.00
517.20	67.88
517.37	112.35
517.54	30.43
517.72	42.13
517.89	79.58
518.06	44.47
518.24	39.79
518.41	49.15
518.58	65.54
518.75	58.51
518.93	128.73
519.10	37.45
519.27	39.79
519.45	58.51
519.62	63.19
519.79	65.54
519.96	86.60
520.14	35.11
520.31	49.15
520.48	32.77
520.65	70.22
520.83	72.56
521.00	58.51
521.17	56.17
521.34	11.70
521.52	28.09
521.69	0.00
521.86	44.47
522.03	93.62
522.20	56.17
522.38	35.11
522.55	35.11
522.72	81.92
522.89	112.35
523.07	107.66
523.24	105.32
523.41	72.56
523.58	23.41
523.75	49.15
523.92	46.81
524.10	4.68
524.27	58.51
524.44	0.00
524.61	105.32
524.78	11.70
524.96	7.02
525.13	46.81
525.30	44.47
525.47	42.13
525.64	58.51
525.81	46.81
525.98	25.75
526.16	81.92
526.33	72.56
526.50	86.60
526.67	28.09
526.84	30.43
527.01	60.85
527.18	98.30
527.36	49.15
527.53	65.54
527.70	74.90
527.87	65.54
528.04	58.51
528.21	65.54
528.38	0.00
528.55	58.51
528.72	86.60
528.89	63.19
529.07	110.01
529.24	14.04
529.41	16.38
529.58	42.13
529.75	133.41
529.92	63.19
530.09	51.49
530.26	98.30
530.43	60.85
530.60	72.56
530.77	37.45
530.94	105.32
531.11	51.49
531.28	58.51
531.46	44.47
531.63	28.09
531.80	72.56
531.97	30.43
532.14	37.45
532.31	53.83
532.48	0.00
532.65	100.64
532.82	42.13
532.99	25.75
533.16	30.43
533.33	74.90
533.50	67.88
533.67	21.06
533.84	63.19
534.01	74.90
534.18	46.81
534.35	21.06
534.52	53.83
534.69	42.13
534.86	74.90
535.03	86.60
535.20	30.43
535.37	51.49
535.54	58.51
535.71	56.17
535.88	0.00
536.05	44.47
536.22	138.09
536.38	74.90
536.55	86.60
536.72	65.54
536.89	67.88
537.06	81.92
537.23	0.00
537.40	60.85
537.57	60.85
537.74	86.60
537.91	95.96
538.08	25.75
538.25	0.00
538.42	30.43
538.59	0.00
538.75	51.49
538.92	79.58
539.09	60.85
539.26	58.51
539.43	79.58
539.60	65.54
539.77	9.36
539.94	28.09
540.11	72.56
540.28	72.56
540.44	35.11
540.61	72.56
540.78	58.51
540.95	25.75
541.12	93.62
541.29	135.75
541.46	16.38
541.62	0.00
541.79	0.00
541.96	60.85
542.13	60.85
542.30	30.43
542.47	30.43
542.63	14.04
542.80	37.45
542.97	37.45
543.14	4.68
543.31	110.01
543.48	63.19
543.64	37.45
543.81	23.41
543.98	84.26
544.15	100.64
544.32	58.51
544.48	51.49
544.65	32.77
544.82	14.04
544.99	84.26
545.16	28.09
545.32	21.06
545.49	35.11
545.66	0.00
545.83	0.00
546.00	60.85
546.16	18.72
546.33	49.15
546.50	81.92
546.67	44.47
546.83	93.62
547.00	63.19
547.17	7.02
547.34	30.43
547.50	102.98
547.67	25.75
547.84	67.88
548.00	0.00
548.17	37.45
548.34	35.11
548.51	30.43
548.67	65.54
548.84	30.43
549.01	11.70
549.18	77.24
549.34	53.83
549.51	79.58
549.68	53.83
549.84	42.13
550.01	23.41
550.18	42.13
550.34	39.79
550.51	53.83
550.68	32.77
550.84	32.77
551.01	42.13
551.18	18.72
551.34	58.51
551.51	25.75
551.68	77.24
551.84	35.11
552.01	28.09
552.18	16.38
552.34	53.83
552.51	100.64
552.68	21.06
552.84	51.49
553.01	84.26
553.18	67.88
553.34	9.36
553.51	49.15
553.67	37.45
553.84	51.49
554.01	65.54
554.17	46.81
554.34	44.47
554.51	44.47
554.67	23.41
554.84	95.96
555.00	98.30
555.17	0.00
555.33	32.77
555.50	114.69
555.67	7.02
555.83	0.00
556.00	81.92
556.16	16.38
556.33	25.75
556.50	70.22
556.66	77.24
556.83	117.03
556.99	72.56
557.16	0.00
557.32	65.54
557.49	49.15
557.65	56.17
557.82	88.94
557.98	28.09
558.15	4.68
558.32	30.43
558.48	37.45
558.65	39.79
558.81	46.81
558.98	114.69
559.14	18.72
559.31	70.22
559.47	0.00
559.64	18.72
559.80	49.15
559.97	28.09
560.13	32.77
560.30	42.13
560.46	81.92
560.63	0.00
560.79	56.17
560.96	39.79
561.12	65.54
561.29	39.79
561.45	72.56
561.61	23.41
561.78	0.00
561.94	23.41
562.11	30.43
562.27	67.88
562.44	60.85
562.60	51.49
562.77	46.81
562.93	42.13
563.10	98.30
563.26	63.19
563.42	88.94
563.59	35.11
563.75	67.88
563.92	119.37
564.08	81.92
564.24	51.49
564.41	23.41
564.57	42.13
564.74	79.58
564.90	16.38
565.07	28.09
565.23	95.96
565.39	60.85
565.56	7.02
565.72	0.00
565.88	11.70
566.05	4.68
566.21	58.51
566.38	74.90
566.54	56.17
566.70	23.41
566.87	16.38
567.03	49.15
567.19	121.71
567.36	98.30
567.52	102.98
567.68	46.81
567.85	51.49
568.01	91.28
568.17	0.00
568.34	60.85
568.50	70.22
568.66	53.83
568.83	63.19
568.99	70.22
569.15	42.13
569.32	53.83
569.48	100.64
569.64	84.26
569.81	110.01
569.97	79.58
570.13	86.60
570.30	98.30
570.46	30.43
570.62	56.17
570.78	51.49
570.95	25.75
571.11	42.13
571.27	53.83
571.43	77.24
571.60	18.72
571.76	42.13
571.92	77.24
572.09	25.75
572.25	42.13
572.41	51.49
572.57	58.51
572.74	37.45
572.90	72.56
573.06	163.84
573.22	79.58
573.38	49.15
573.55	131.07
573.71	35.11
573.87	0.00
574.03	0.00
574.20	77.24
574.36	79.58
574.52	60.85
574.68	70.22
574.84	65.54
575.01	28.09
575.17	72.56
575.33	9.36
575.49	18.72
575.65	32.77
575.82	0.00
575.98	21.06
576.14	51.49
576.30	114.69
576.46	72.56
576.62	32.77
576.79	74.90
576.95	42.13
577.11	42.13
577.27	16.38
577.43	135.75
577.59	28.09
577.75	44.47
577.92	93.62
578.08	28.09
578.24	46.81
578.40	18.72
578.56	46.81
578.72	88.94
578.88	35.11
579.04	37.45
579.21	56.17
579.37	77.24
579.53	77.24
579.69	25.75
579.85	46.81
580.01	0.00
580.17	53.83
580.33	86.60
580.49	102.98
580.65	117.03
580.82	100.64
580.98	35.11
581.14	39.79
581.30	0.00
581.46	46.81
581.62	42.13
581.78	63.19
581.94	49.15
582.10	79.58
582.26	56.17
582.42	16.38
582.58	156.82
582.74	44.47
582.90	56.17
583.06	39.79
583.22	16.38
583.38	51.49
583.54	77.24
583.70	11.70
583.86	39.79
584.02	53.83
584.18	60.85
584.34	9.36
584.50	91.28
584.66	65.54
584.82	16.38
584.98	18.72
585.14	81.92
585.30	49.15
585.46	0.00
585.62	9.36
585.78	21.06
585.94	63.19
586.10	18.72
586.26	42.13
586.42	16.38
586.58	86.60
586.74	18.72
586.90	0.00
587.06	70.22
587.22	63.19
587.38	51.49
587.54	32.77
587.70	74.90
587.86	28.09
588.02	77.24
588.18	81.92
588.34	35.11
588.49	51.49
588.65	53.83
588.81	28.09
588.97	46.81
589.13	119.37
589.29	35.11
589.45	42.13
589.61	53.83
589.77	126.39
589.93	23.41
590.08	77.24
590.24	28.09
590.40	70.22
590.56	56.17
590.72	30.43
590.88	84.26
591.04	0.00
591.20	32.77
591.35	11.70
591.51	0.00
591.67	49.15
591.83	30.43
591.99	28.09
592.15	105.32
592.31	23.41
592.46	107.66
592.62	65.54
592.78	37.45
592.94	32.77
593.10	63.19
593.26	100.64
593.41	60.85
593.57	56.17
593.73	30.43
593.89	23.41
594.05	14.04
594.20	39.79
594.36	110.01
594.52	0.00
594.68	0.00
594.84	72.56
594.99	49.15
595.15	102.98
595.31	91.28
595.47	84.26
595.62	30.43
595.78	37.45
595.94	93.62
596.10	65.54
596.25	53.83
596.41	9.36
596.57	0.00
596.73	56.17
596.88	56.17
597.04	49.15
597.20	28.09
597.36	77.24
597.51	124.05
597.67	70.22
597.83	35.11
597.99	32.77
598.14	63.19
598.30	37.45
598.46	4.68
598.61	16.38
598.77	37.45
598.93	37.45
599.09	79.58
599.24	74.90
599.40	2.34
599.56	30.43
599.71	133.41
599.87	65.54
600.03	63.19
600.18	23.41
600.34	32.77
600.50	42.13
600.65	0.00
600.81	21.06
600.97	21.06
601.12	81.92
601.28	74.90
601.44	0.00
601.59	0.00
601.75	21.06
601.91	0.00
602.06	7.02
602.22	70.22
602.37	37.45
602.53	0.00
602.69	138.09
602.84	30.43
603.00	51.49
603.16	39.79
603.31	30.43
603.47	56.17
603.62	44.47
603.78	28.09
603.94	0.00
604.09	70.22
604.25	65.54
604.40	44.47
604.56	95.96
604.71	28.09
604.87	9.36
605.03	124.05
605.18	35.11
605.34	74.90
605.49	51.49
605.65	0.00
605.80	39.79
605.96	53.83
606.12	60.85
606.27	107.66
606.43	72.56
606.58	88.94
606.74	81.92
606.89	18.72
607.05	44.47
607.20	2.34
607.36	79.58
607.51	79.58
607.67	65.54
607.82	0.00
607.98	7.02
608.13	81.92
608.29	79.58
608.44	91.28
608.60	4.68
608.75	56.17
608.91	32.77
609.06	51.49
609.22	60.85
609.37	74.90
609.53	9.36
609.68	0.00
609.84	18.72
609.99	30.43
610.15	56.17
610.30	65.54
610.46	84.26
610.61	0.00
610.76	18.72
610.92	63.19
611.07	0.00
611.23	98.30
611.38	42.13
611.54	35.11
611.69	53.83
611.84	35.11
612.00	105.32
612.15	58.51
612.31	107.66
612.46	9.36
612.62	7.02
612.77	35.11
612.92	0.00
613.08	37.45
613.23	11.70
613.39	72.56
613.54	70.22
613.69	39.79
613.85	72.56
614.00	70.22
614.15	37.45
614.31	67.88
614.46	14.04
614.62	93.62
614.77	46.81
614.92	65.54
615.08	35.11
615.23	46.81
615.38	42.13
615.54	35.11
615.69	0.00
615.84	63.19
616.00	98.30
616.15	70.22
616.30	0.00
616.46	42.13
616.61	0.00
616.76	18.72
616.92	60.85
617.07	67.88
617.22	25.75
617.37	51.49
617.53	9.36
617.68	77.24
617.83	7.02
617.99	35.11
618.14	95.96
618.29	84.26
618.45	21.06
618.60	79.58
618.75	25.75
618.90	25.75
619.06	56.17
619.21	42.13
619.36	7.02
619.51	117.03
619.67	2.34
619.82	60.85
619.97	91.28
620.12	44.47
620.28	70.22
620.43	53.83
620.58	100.64
620.73	0.00
620.89	46.81
621.04	0.00
621.19	81.92
621.34	138.09
621.49	56.17
621.65	23.41
621.80	46.81
621.95	39.79
622.10	44.47
622.25	51.49
622.41	124.05
622.56	81.92
622.71	0.00
622.86	53.83
623.01	32.77
623.16	11.70
623.32	18.72
623.47	0.00
623.62	86.60
623.77	67.88
623.92	117.03
624.07	28.09
624.23	14.04
624.38	11.70
624.53	37.45
624.68	86.60
624.83	32.77
624.98	0.00
625.13	53.83
625.29	46.81
625.44	2.34
625.59	35.11
625.74	53.83
625.89	25.75
626.04	16.38
626.19	32.77
626.34	0.00
626.49	77.24
626.65	0.00
626.80	16.38
626.95	21.06
627.10	93.62
627.25	42.13
627.40	110.01
627.55	100.64
627.70	0.00
627.85	37.45
628.00	93.62
628.15	18.72
628.30	4.68
628.45	23.41
628.60	0.00
628.76	39.79
628.91	32.77
629.06	32.77
629.21	72.56
629.36	11.70
629.51	0.00
629.66	53.83
629.81	95.96
629.96	25.75
630.11	9.36
630.26	77.24
630.41	63.19
630.56	39.79
630.71	37.45
630.86	79.58
631.01	0.00
631.16	0.00
631.31	14.04
631.46	88.94
631.61	21.06
631.76	4.68
631.91	0.00
632.06	4.68
632.21	0.00
632.36	44.47
632.51	53.83
632.66	88.94
632.81	70.22
632.96	32.77
633.10	37.45
633.25	0.00
633.40	35.11
633.55	84.26
633.70	46.81
633.85	49.15
634.00	0.00
634.15	21.06
634.30	23.41
634.45	53.83
634.60	42.13
634.75	46.81
634.90	35.11
635.05	16.38
635.19	56.17
635.34	53.83
635.49	30.43
635.64	53.83
635.79	0.00
635.94	28.09
636.09	0.00
636.24	14.04
636.39	25.75
636.53	51.49
636.68	100.64
636.83	79.58
636.98	0.00
637.13	30.43
637.28	60.85
637.43	46.81
637.57	4.68
637.72	44.47
637.87	9.36
638.02	25.75
638.17	110.01
638.32	46.81
638.46	88.94
638.61	79.58
638.76	58.51
638.91	0.00
639.06	51.49
639.20	77.24
639.35	7.02
639.50	0.00
639.65	42.13
639.80	79.58
639.94	21.06
640.09	67.88
640.24	63.19
640.39	0.00
640.54	70.22
640.68	37.45
640.83	28.09
640.98	9.36
641.13	60.85
641.27	56.17
641.42	0.00
641.57	2.34
641.72	124.05
641.86	0.00
642.01	0.00
642.16	77.24
642.31	74.90
642.45	72.56
642.60	53.83
642.75	30.43
642.90	58.51
643.04	53.83
643.19	28.09
643.34	37.45
643.48	112.35
643.63	0.00
643.78	30.43
643.93	49.15
644.07	42.13
644.22	60.85
644.37	14.04
644.51	0.00
644.66	0.00
644.81	0.00
644.95	91.28
645.10	2.34
645.25	16.38
645.39	63.19
645.54	37.45
645.69	60.85
645.83	88.94
645.98	42.13
646.13	53.83
646.27	18.72
646.42	107.66
646.57	39.79
646.71	18.72
646.86	86.60
647.00	0.00
647.15	67.88
647.30	39.79
647.44	65.54
647.59	77.24
647.74	0.00
647.88	0.00
648.03	112.35
648.17	37.45
648.32	63.19
648.47	63.19
648.61	21.06
648.76	42.13
648.90	58.51
649.05	9.36
649.20	74.90
649.34	32.77
649.49	0.00
649.63	42.13
649.78	105.32
649.92	110.01
650.07	44.47
650.21	79.58
650.36	35.11
650.51	35.11
650.65	11.70
650.80	39.79
650.94	93.62
651.09	60.85
651.23	0.00
651.38	0.00
651.52	2.34
651.67	35.11
651.81	30.43
651.96	42.13
652.10	42.13
652.25	23.41
652.39	37.45
652.54	46.81
652.68	86.60
652.83	56.17
652.97	58.51
653.12	77.24
653.26	67.88
653.41	42.13
653.55	18.72
653.70	39.79
653.84	25.75
653.99	23.41
654.13	93.62
654.27	9.36
654.42	53.83
654.56	18.72
654.71	28.09
654.85	74.90
655.00	0.00
655.14	46.81
655.29	0.00
655.43	44.47
655.57	0.00
655.72	56.17
655.86	0.00
656.01	0.00
656.15	0.00
656.30	100.64
656.44	30.43
656.58	88.94
656.73	65.54
656.87	0.00
657.01	49.15
657.16	23.41
657.30	25.75
657.45	25.75
657.59	0.00
657.73	49.15
657.88	49.15
658.02	46.81
658.16	16.38
658.31	46.81
658.45	65.54
658.60	42.13
658.74	18.72
658.88	21.06
659.03	72.56
659.17	65.54
659.31	16.38
659.46	30.43
659.60	53.83
659.74	44.47
659.89	58.51
660.03	70.22
660.17	53.83
660.32	0.00
660.46	32.77
660.60	4.68
660.74	2.34
660.89	0.00
661.03	16.38
661.17	49.15
661.32	70.22
661.46	30.43
661.60	100.64
661.74	79.58
661.89	0.00
662.03	23.41
662.17	35.11
662.31	0.00
662.46	2.34
662.60	39.79
662.74	28.09
662.88	23.41
663.03	56.17
663.17	11.70
663.31	0.00
663.45	25.75
663.60	63.19
663.74	14.04
663.88	42.13
664.02	46.81
664.17	35.11
664.31	23.41
664.45	30.43
664.59	67.88
664.73	131.07
664.88	110.01
665.02	46.81
665.16	18.72
665.30	67.88
665.44	0.00
665.59	88.94
665.73	21.06
665.87	95.96
666.01	25.75
666.15	21.06
666.29	74.90
666.44	14.04
666.58	42.13
666.72	86.60
666.86	46.81
667.00	16.38
667.14	0.00
667.28	81.92
667.43	98.30
667.57	44.47
667.71	51.49
667.85	70.22
667.99	14.04
668.13	60.85
668.27	11.70
668.41	46.81
668.56	0.00
668.70	37.45
668.84	23.41
668.98	77.24
669.12	32.77
669.26	58.51
669.40	65.54
669.54	124.05
669.68	14.04
669.82	7.02
669.96	51.49
670.10	58.51
670.25	65.54
670.39	37.45
670.53	100.64
670.67	65.54
670.81	65.54
670.95	46.81
671.09	14.04
671.23	23.41
671.37	142.77
671.51	63.19
671.65	23.41
671.79	0.00
671.93	0.00
672.07	42.13
672.21	4.68
672.35	72.56
672.49	0.00
672.63	91.28
672.77	0.00
672.91	105.32
673.05	102.98
673.19	93.62
673.33	18.72
673.47	0.00
673.61	4.68
673.75	23.41
673.89	46.81
674.03	18.72
674.17	117.03
674.31	56.17
674.45	32.77
674.59	56.17
674.73	9.36
674.87	46.81
675.01	16.38
675.15	56.17
675.29	107.66
675.43	0.00
675.56	91.28
675.70	14.04
675.84	0.00
675.98	0.00
676.12	4.68
676.26	0.00
676.40	46.81
676.54	0.00
676.68	0.00
676.82	0.00
676.96	0.00
677.10	30.43
677.23	86.60
677.37	72.56
677.51	51.49
677.65	131.07
677.79	65.54
677.93	72.56
678.07	0.00
678.21	30.43
678.34	25.75
678.48	0.00
678.62	14.04
678.76	44.47
678.90	0.00
679.04	67.88
679.18	63.19
679.31	86.60
679.45	117.03
679.59	56.17
679.73	11.70
679.87	16.38
680.00	65.54
680.14	0.00
680.28	81.92
680.42	32.77
680.56	28.09
680.70	2.34
680.83	74.90
680.97	14.04
681.11	9.36
681.25	23.41
681.39	58.51
681.52	112.35
681.66	35.11
681.80	44.47
681.94	18.72
682.07	35.11
682.21	0.00
682.35	11.70
682.49	37.45
682.62	63.19
682.76	49.15
682.90	0.00
683.04	88.94
683.17	58.51
683.31	18.72
683.45	65.54
683.59	91.28
683.72	28.09
683.86	58.51
684.00	91.28
684.13	51.49
684.27	0.00
684.41	74.90
684.55	60.85
684.68	65.54
684.82	7.02
684.96	37.45
685.09	2.34
685.23	11.70
685.37	110.01
685.50	126.39
685.64	93.62
685.78	21.06
685.91	56.17
686.05	39.79
686.19	28.09
686.32	51.49
686.46	0.00
686.60	21.06
686.73	0.00
686.87	23.41
687.01	46.81
687.14	18.72
687.28	49.15
687.42	25.75
687.55	0.00
687.69	37.45
687.82	58.51
687.96	35.11
688.10	51.49
688.23	0.00
688.37	0.00
688.50	0.00
688.64	35.11
688.78	0.00
688.91	0.00
689.05	56.17
689.18	32.77
689.32	51.49
689.46	56.17
689.59	28.09
689.73	0.00
689.86	0.00
690.00	2.34
690.13	28.09
690.27	53.83
690.41	77.24
690.54	23.41
690.68	98.30
690.81	18.72
690.95	88.94
691.08	44.47
691.22	49.15
691.35	91.28
691.49	117.03
691.62	4.68
691.76	0.00
691.89	0.00
692.03	9.36
692.16	0.00
692.30	4.68
692.43	110.01
692.57	46.81
692.70	49.15
692.84	0.00
692.97	46.81
693.11	37.45
693.24	28.09
693.38	53.83
693.51	2.34
693.65	21.06
693.78	28.09
693.92	58.51
694.05	102.98
694.19	23.41
694.32	58.51
694.45	42.13
694.59	23.41
694.72	84.26
694.86	86.60
694.99	37.45
695.13	7.02
695.26	0.00
695.39	0.00
695.53	39.79
695.66	65.54
695.80	0.00
695.93	58.51
696.07	58.51
696.20	11.70
696.33	21.06
696.47	44.47
696.60	49.15
696.73	0.00
696.87	42.13
697.00	30.43
697.14	30.43
697.27	39.79
697.40	44.47
697.54	32.77
697.67	63.19
697.80	30.43
697.94	0.00
698.07	79.58
698.21	93.62
698.34	39.79
698.47	53.83
698.61	0.00
698.74	77.24
698.87	37.45
699.01	18.72
699.14	77.24
699.27	77.24
699.40	30.43
699.54	21.06
699.67	2.34
699.80	56.17
699.94	0.00
700.07	25.75
700.20	14.04
700.34	9.36
700.47	14.04
700.60	105.32
700.73	63.19
700.87	0.00
701.00	11.70
701.13	39.79
701.26	7.02
701.40	51.49
701.53	4.68
701.66	37.45
701.79	51.49
701.93	79.58
702.06	46.81
702.19	42.13
702.32	0.00
702.46	0.00
702.59	53.83
702.72	35.11
702.85	39.79
702.99	18.72
703.12	67.88
703.25	53.83
703.38	0.00
703.51	72.56
703.65	86.60
703.78	11.70
703.91	0.00
704.04	0.00
704.17	42.13
704.31	0.00
704.44	42.13
704.57	35.11
704.70	18.72
704.83	28.09
704.96	11.70
705.10	0.00
705.23	23.41
>>>>>End Processed Spectral Data<<<<<
