SpectraSuite Data File
++++++++++++++++++++++++++++++++++++
Date: Fri Oct 04 12:13:42 GMT-05:00 2013
User: price-jones
Dark Spectrum Present: No
Reference Spectrum Present: No
Number of Sampled Component Spectra: 1
Spectrometers: USB2+H05261
Integration Time (usec): 10000 (USB2+H05261)
Spectra Averaged: 1 (USB2+H05261)
Boxcar Smoothing: 0 (USB2+H05261)
Correct for Electrical Dark: No (USB2+H05261)
Strobe/Lamp Enabled: No (USB2+H05261)
Correct for Detector Non-linearity: No (USB2+H05261)
Correct for Stray Light: No (USB2+H05261)
Number of Pixels in Processed Spectrum: 2048
>>>>>Begin Processed Spectral Data<<<<<
365.73	0.00
365.92	0.00
366.12	0.00
366.32	0.00
366.52	0.00
366.72	0.00
366.91	0.00
367.11	0.00
367.31	0.00
367.51	0.00
367.70	0.00
367.90	0.00
368.10	0.00
368.30	0.00
368.49	0.00
368.69	0.00
368.89	0.00
369.09	0.00
369.28	0.00
369.48	0.00
369.68	0.00
369.87	0.00
370.07	0.00
370.27	0.00
370.47	0.00
370.66	0.00
370.86	0.00
371.06	0.00
371.25	0.00
371.45	0.00
371.65	11.70
371.84	0.00
372.04	100.64
372.24	67.88
372.44	35.11
372.63	21.06
372.83	51.49
373.03	2.34
373.22	37.45
373.42	0.00
373.62	0.00
373.81	4.68
374.01	0.00
374.21	65.54
374.40	11.70
374.60	21.06
374.79	65.54
374.99	46.81
375.19	37.45
375.38	14.04
375.58	77.24
375.78	0.00
375.97	0.00
376.17	102.98
376.37	14.04
376.56	16.38
376.76	58.51
376.95	21.06
377.15	0.00
377.35	21.06
377.54	0.00
377.74	30.43
377.93	0.00
378.13	21.06
378.33	56.17
378.52	53.83
378.72	0.00
378.91	53.83
379.11	0.00
379.31	23.41
379.50	39.79
379.70	14.04
379.89	4.68
380.09	42.13
380.28	25.75
380.48	30.43
380.68	0.00
380.87	2.34
381.07	32.77
381.26	14.04
381.46	65.54
381.65	98.30
381.85	74.90
382.04	0.00
382.24	0.00
382.43	0.00
382.63	7.02
382.83	32.77
383.02	42.13
383.22	0.00
383.41	16.38
383.61	0.00
383.80	18.72
384.00	0.00
384.19	16.38
384.39	0.00
384.58	0.00
384.78	0.00
384.97	58.51
385.17	39.79
385.36	23.41
385.56	0.00
385.75	0.00
385.95	9.36
386.14	42.13
386.34	91.28
386.53	0.00
386.72	65.54
386.92	0.00
387.11	60.85
387.31	60.85
387.50	0.00
387.70	23.41
387.89	46.81
388.09	32.77
388.28	23.41
388.48	25.75
388.67	65.54
388.86	42.13
389.06	2.34
389.25	35.11
389.45	9.36
389.64	11.70
389.84	60.85
390.03	49.15
390.22	0.00
390.42	0.00
390.61	42.13
390.81	0.00
391.00	37.45
391.19	49.15
391.39	0.00
391.58	46.81
391.78	88.94
391.97	46.81
392.16	0.00
392.36	86.60
392.55	28.09
392.75	0.00
392.94	37.45
393.13	35.11
393.33	23.41
393.52	30.43
393.71	44.47
393.91	0.00
394.10	0.00
394.29	32.77
394.49	11.70
394.68	42.13
394.88	51.49
395.07	0.00
395.26	25.75
395.46	44.47
395.65	0.00
395.84	42.13
396.04	28.09
396.23	0.00
396.42	42.13
396.62	23.41
396.81	0.00
397.00	7.02
397.19	58.51
397.39	95.96
397.58	25.75
397.77	23.41
397.97	105.32
398.16	53.83
398.35	16.38
398.55	44.47
398.74	18.72
398.93	14.04
399.12	67.88
399.32	114.69
399.51	9.36
399.70	32.77
399.90	32.77
400.09	14.04
400.28	18.72
400.47	84.26
400.67	0.00
400.86	18.72
401.05	42.13
401.24	2.34
401.44	72.56
401.63	18.72
401.82	0.00
402.01	0.00
402.21	14.04
402.40	16.38
402.59	0.00
402.78	63.19
402.97	84.26
403.17	102.98
403.36	0.00
403.55	0.00
403.74	46.81
403.93	0.00
404.13	81.92
404.32	0.00
404.51	0.00
404.70	7.02
404.89	88.94
405.09	0.00
405.28	77.24
405.47	16.38
405.66	9.36
405.85	81.92
406.05	79.58
406.24	65.54
406.43	35.11
406.62	7.02
406.81	72.56
407.00	65.54
407.20	0.00
407.39	0.00
407.58	79.58
407.77	74.90
407.96	0.00
408.15	0.00
408.34	0.00
408.54	37.45
408.73	0.00
408.92	32.77
409.11	121.71
409.30	58.51
409.49	133.41
409.68	0.00
409.87	46.81
410.07	86.60
410.26	67.88
410.45	28.09
410.64	35.11
410.83	9.36
411.02	4.68
411.21	39.79
411.40	35.11
411.59	88.94
411.78	0.00
411.98	117.03
412.17	91.28
412.36	46.81
412.55	28.09
412.74	95.96
412.93	74.90
413.12	77.24
413.31	32.77
413.50	16.38
413.69	4.68
413.88	105.32
414.07	21.06
414.26	44.47
414.45	0.00
414.64	39.79
414.83	81.92
415.02	51.49
415.22	70.22
415.41	74.90
415.60	0.00
415.79	44.47
415.98	91.28
416.17	72.56
416.36	25.75
416.55	74.90
416.74	0.00
416.93	79.58
417.12	88.94
417.31	23.41
417.50	0.00
417.69	133.41
417.88	70.22
418.07	49.15
418.26	65.54
418.45	7.02
418.64	23.41
418.83	60.85
419.02	93.62
419.21	39.79
419.39	77.24
419.58	23.41
419.77	70.22
419.96	39.79
420.15	21.06
420.34	72.56
420.53	51.49
420.72	39.79
420.91	60.85
421.10	28.09
421.29	0.00
421.48	49.15
421.67	0.00
421.86	46.81
422.05	0.00
422.24	65.54
422.43	0.00
422.61	32.77
422.80	56.17
422.99	21.06
423.18	91.28
423.37	72.56
423.56	58.51
423.75	16.38
423.94	67.88
424.13	32.77
424.32	28.09
424.50	72.56
424.69	14.04
424.88	72.56
425.07	0.00
425.26	7.02
425.45	30.43
425.64	119.37
425.83	42.13
426.01	2.34
426.20	21.06
426.39	9.36
426.58	28.09
426.77	30.43
426.96	14.04
427.15	112.35
427.33	142.77
427.52	35.11
427.71	102.98
427.90	21.06
428.09	72.56
428.28	53.83
428.46	11.70
428.65	72.56
428.84	65.54
429.03	102.98
429.22	2.34
429.40	32.77
429.59	28.09
429.78	60.85
429.97	74.90
430.16	37.45
430.34	39.79
430.53	44.47
430.72	0.00
430.91	119.37
431.10	28.09
431.28	67.88
431.47	79.58
431.66	81.92
431.85	93.62
432.03	102.98
432.22	30.43
432.41	16.38
432.60	98.30
432.79	39.79
432.97	0.00
433.16	28.09
433.35	35.11
433.54	0.00
433.72	91.28
433.91	58.51
434.10	100.64
434.28	67.88
434.47	11.70
434.66	18.72
434.85	0.00
435.03	0.00
435.22	93.62
435.41	0.00
435.59	65.54
435.78	28.09
435.97	2.34
436.16	110.01
436.34	53.83
436.53	53.83
436.72	35.11
436.90	0.00
437.09	53.83
437.28	4.68
437.46	93.62
437.65	51.49
437.84	18.72
438.02	67.88
438.21	21.06
438.40	44.47
438.58	105.32
438.77	53.83
438.96	39.79
439.14	30.43
439.33	81.92
439.52	63.19
439.70	77.24
439.89	37.45
440.08	0.00
440.26	81.92
440.45	102.98
440.63	70.22
440.82	46.81
441.01	77.24
441.19	39.79
441.38	42.13
441.57	21.06
441.75	93.62
441.94	88.94
442.12	42.13
442.31	28.09
442.50	0.00
442.68	147.45
442.87	81.92
443.05	4.68
443.24	107.66
443.43	49.15
443.61	46.81
443.80	58.51
443.98	30.43
444.17	98.30
444.35	60.85
444.54	72.56
444.73	70.22
444.91	56.17
445.10	56.17
445.28	84.26
445.47	100.64
445.65	51.49
445.84	0.00
446.02	63.19
446.21	53.83
446.39	65.54
446.58	105.32
446.77	18.72
446.95	86.60
447.14	28.09
447.32	74.90
447.51	65.54
447.69	32.77
447.88	56.17
448.06	126.39
448.25	37.45
448.43	79.58
448.62	77.24
448.80	28.09
448.99	84.26
449.17	37.45
449.36	60.85
449.54	51.49
449.73	86.60
449.91	81.92
450.10	67.88
450.28	56.17
450.46	84.26
450.65	98.30
450.83	74.90
451.02	98.30
451.20	23.41
451.39	0.00
451.57	21.06
451.76	60.85
451.94	46.81
452.13	16.38
452.31	51.49
452.49	14.04
452.68	35.11
452.86	93.62
453.05	56.17
453.23	0.00
453.42	44.47
453.60	46.81
453.78	84.26
453.97	117.03
454.15	72.56
454.34	39.79
454.52	2.34
454.70	65.54
454.89	32.77
455.07	16.38
455.26	84.26
455.44	30.43
455.62	67.88
455.81	0.00
455.99	28.09
456.17	58.51
456.36	81.92
456.54	107.66
456.73	32.77
456.91	67.88
457.09	60.85
457.28	44.47
457.46	0.00
457.64	14.04
457.83	35.11
458.01	86.60
458.19	56.17
458.38	46.81
458.56	37.45
458.74	77.24
458.93	4.68
459.11	46.81
459.29	11.70
459.48	100.64
459.66	145.11
459.84	7.02
460.03	67.88
460.21	72.56
460.39	23.41
460.57	81.92
460.76	23.41
460.94	11.70
461.12	42.13
461.31	74.90
461.49	58.51
461.67	16.38
461.85	142.77
462.04	37.45
462.22	110.01
462.40	28.09
462.59	30.43
462.77	18.72
462.95	70.22
463.13	77.24
463.32	60.85
463.50	67.88
463.68	156.82
463.86	37.45
464.05	51.49
464.23	63.19
464.41	37.45
464.59	49.15
464.78	7.02
464.96	79.58
465.14	30.43
465.32	81.92
465.50	23.41
465.69	67.88
465.87	88.94
466.05	9.36
466.23	30.43
466.41	0.00
466.60	65.54
466.78	121.71
466.96	63.19
467.14	91.28
467.32	37.45
467.51	58.51
467.69	28.09
467.87	149.79
468.05	0.00
468.23	88.94
468.41	11.70
468.60	30.43
468.78	35.11
468.96	107.66
469.14	58.51
469.32	56.17
469.50	4.68
469.69	49.15
469.87	0.00
470.05	105.32
470.23	30.43
470.41	0.00
470.59	88.94
470.77	16.38
470.95	67.88
471.14	25.75
471.32	60.85
471.50	67.88
471.68	117.03
471.86	18.72
472.04	35.11
472.22	81.92
472.40	81.92
472.58	44.47
472.77	23.41
472.95	0.00
473.13	63.19
473.31	84.26
473.49	112.35
473.67	117.03
473.85	42.13
474.03	49.15
474.21	11.70
474.39	91.28
474.57	28.09
474.75	11.70
474.93	60.85
475.12	65.54
475.30	67.88
475.48	51.49
475.66	60.85
475.84	25.75
476.02	28.09
476.20	93.62
476.38	110.01
476.56	95.96
476.74	49.15
476.92	0.00
477.10	42.13
477.28	44.47
477.46	53.83
477.64	28.09
477.82	0.00
478.00	88.94
478.18	23.41
478.36	67.88
478.54	44.47
478.72	14.04
478.90	102.98
479.08	117.03
479.26	117.03
479.44	30.43
479.62	77.24
479.80	91.28
479.98	102.98
480.16	49.15
480.34	63.19
480.52	18.72
480.70	72.56
480.88	37.45
481.06	28.09
481.24	30.43
481.41	42.13
481.59	67.88
481.77	58.51
481.95	86.60
482.13	72.56
482.31	81.92
482.49	42.13
482.67	30.43
482.85	51.49
483.03	86.60
483.21	9.36
483.39	49.15
483.57	56.17
483.74	117.03
483.92	51.49
484.10	81.92
484.28	79.58
484.46	84.26
484.64	117.03
484.82	58.51
485.00	105.32
485.18	98.30
485.35	44.47
485.53	14.04
485.71	60.85
485.89	35.11
486.07	35.11
486.25	91.28
486.43	86.60
486.61	67.88
486.78	74.90
486.96	88.94
487.14	28.09
487.32	0.00
487.50	128.73
487.68	51.49
487.85	72.56
488.03	37.45
488.21	35.11
488.39	98.30
488.57	46.81
488.75	65.54
488.92	25.75
489.10	98.30
489.28	16.38
489.46	60.85
489.64	39.79
489.81	0.00
489.99	86.60
490.17	49.15
490.35	63.19
490.53	44.47
490.70	58.51
490.88	49.15
491.06	91.28
491.24	131.07
491.41	74.90
491.59	16.38
491.77	70.22
491.95	79.58
492.13	2.34
492.30	56.17
492.48	70.22
492.66	70.22
492.84	0.00
493.01	14.04
493.19	58.51
493.37	70.22
493.54	53.83
493.72	49.15
493.90	86.60
494.08	114.69
494.25	100.64
494.43	2.34
494.61	79.58
494.79	46.81
494.96	7.02
495.14	154.48
495.32	11.70
495.49	28.09
495.67	58.51
495.85	91.28
496.02	95.96
496.20	18.72
496.38	79.58
496.55	56.17
496.73	14.04
496.91	42.13
497.09	110.01
497.26	100.64
497.44	161.50
497.62	25.75
497.79	79.58
497.97	70.22
498.14	86.60
498.32	39.79
498.50	9.36
498.67	49.15
498.85	0.00
499.03	53.83
499.20	154.48
499.38	114.69
499.56	60.85
499.73	63.19
499.91	77.24
500.08	91.28
500.26	28.09
500.44	105.32
500.61	65.54
500.79	21.06
500.97	84.26
501.14	112.35
501.32	84.26
501.49	79.58
501.67	131.07
501.84	98.30
502.02	91.28
502.20	119.37
502.37	105.32
502.55	142.77
502.72	28.09
502.90	56.17
503.07	74.90
503.25	42.13
503.43	35.11
503.60	100.64
503.78	37.45
503.95	42.13
504.13	28.09
504.30	86.60
504.48	72.56
504.65	77.24
504.83	140.43
505.01	16.38
505.18	9.36
505.36	74.90
505.53	63.19
505.71	60.85
505.88	102.98
506.06	63.19
506.23	72.56
506.41	65.54
506.58	72.56
506.76	49.15
506.93	0.00
507.11	74.90
507.28	79.58
507.46	117.03
507.63	102.98
507.81	56.17
507.98	161.50
508.16	79.58
508.33	91.28
508.50	149.79
508.68	138.09
508.85	121.71
509.03	77.24
509.20	11.70
509.38	70.22
509.55	88.94
509.73	86.60
509.90	102.98
510.08	70.22
510.25	77.24
510.42	77.24
510.60	35.11
510.77	4.68
510.95	51.49
511.12	49.15
511.30	124.05
511.47	56.17
511.64	74.90
511.82	65.54
511.99	93.62
512.17	14.04
512.34	74.90
512.51	93.62
512.69	110.01
512.86	140.43
513.04	107.66
513.21	77.24
513.38	128.73
513.56	53.83
513.73	63.19
513.90	16.38
514.08	72.56
514.25	18.72
514.43	56.17
514.60	28.09
514.77	79.58
514.95	16.38
515.12	46.81
515.29	37.45
515.47	91.28
515.64	65.54
515.81	86.60
515.99	0.00
516.16	91.28
516.33	88.94
516.51	65.54
516.68	88.94
516.85	147.45
517.03	72.56
517.20	110.01
517.37	112.35
517.54	74.90
517.72	114.69
517.89	119.37
518.06	126.39
518.24	131.07
518.41	107.66
518.58	112.35
518.75	42.13
518.93	81.92
519.10	35.11
519.27	131.07
519.45	117.03
519.62	86.60
519.79	63.19
519.96	77.24
520.14	49.15
520.31	107.66
520.48	46.81
520.65	51.49
520.83	79.58
521.00	95.96
521.17	81.92
521.34	44.47
521.52	86.60
521.69	100.64
521.86	124.05
522.03	142.77
522.20	70.22
522.38	53.83
522.55	60.85
522.72	9.36
522.89	63.19
523.07	112.35
523.24	93.62
523.41	156.82
523.58	119.37
523.75	102.98
523.92	95.96
524.10	56.17
524.27	110.01
524.44	128.73
524.61	72.56
524.78	86.60
524.96	60.85
525.13	88.94
525.30	9.36
525.47	114.69
525.64	100.64
525.81	72.56
525.98	77.24
526.16	152.13
526.33	102.98
526.50	21.06
526.67	77.24
526.84	74.90
527.01	79.58
527.18	35.11
527.36	53.83
527.53	51.49
527.70	117.03
527.87	4.68
528.04	18.72
528.21	117.03
528.38	91.28
528.55	44.47
528.72	58.51
528.89	128.73
529.07	77.24
529.24	140.43
529.41	65.54
529.58	60.85
529.75	46.81
529.92	131.07
530.09	28.09
530.26	21.06
530.43	51.49
530.60	72.56
530.77	112.35
530.94	60.85
531.11	65.54
531.28	88.94
531.46	119.37
531.63	56.17
531.80	77.24
531.97	93.62
532.14	86.60
532.31	100.64
532.48	60.85
532.65	86.60
532.82	18.72
532.99	95.96
533.16	79.58
533.33	100.64
533.50	86.60
533.67	28.09
533.84	112.35
534.01	93.62
534.18	177.88
534.35	63.19
534.52	65.54
534.69	102.98
534.86	65.54
535.03	107.66
535.20	105.32
535.37	39.79
535.54	98.30
535.71	67.88
535.88	140.43
536.05	81.92
536.22	107.66
536.38	39.79
536.55	145.11
536.72	124.05
536.89	112.35
537.06	95.96
537.23	110.01
537.40	9.36
537.57	102.98
537.74	107.66
537.91	121.71
538.08	95.96
538.25	63.19
538.42	65.54
538.59	121.71
538.75	117.03
538.92	63.19
539.09	93.62
539.26	168.52
539.43	112.35
539.60	100.64
539.77	126.39
539.94	77.24
540.11	81.92
540.28	65.54
540.44	149.79
540.61	140.43
540.78	131.07
540.95	112.35
541.12	98.30
541.29	95.96
541.46	70.22
541.62	117.03
541.79	112.35
541.96	154.48
542.13	16.38
542.30	88.94
542.47	124.05
542.63	140.43
542.80	93.62
542.97	42.13
543.14	105.32
543.31	67.88
543.48	60.85
543.64	51.49
543.81	124.05
543.98	135.75
544.15	124.05
544.32	102.98
544.48	100.64
544.65	98.30
544.82	74.90
544.99	154.48
545.16	67.88
545.32	86.60
545.49	138.09
545.66	91.28
545.83	145.11
546.00	70.22
546.16	88.94
546.33	93.62
546.50	84.26
546.67	114.69
546.83	91.28
547.00	126.39
547.17	74.90
547.34	49.15
547.50	98.30
547.67	65.54
547.84	88.94
548.00	124.05
548.17	163.84
548.34	72.56
548.51	58.51
548.67	114.69
548.84	107.66
549.01	72.56
549.18	145.11
549.34	84.26
549.51	152.13
549.68	105.32
549.84	44.47
550.01	81.92
550.18	114.69
550.34	25.75
550.51	60.85
550.68	72.56
550.84	51.49
551.01	121.71
551.18	112.35
551.34	112.35
551.51	93.62
551.68	95.96
551.84	98.30
552.01	72.56
552.18	107.66
552.34	135.75
552.51	126.39
552.68	107.66
552.84	112.35
553.01	67.88
553.18	58.51
553.34	74.90
553.51	28.09
553.67	102.98
553.84	196.60
554.01	51.49
554.17	84.26
554.34	63.19
554.51	14.04
554.67	72.56
554.84	102.98
555.00	98.30
555.17	100.64
555.33	105.32
555.50	110.01
555.67	88.94
555.83	77.24
556.00	46.81
556.16	159.16
556.33	86.60
556.50	46.81
556.66	70.22
556.83	42.13
556.99	81.92
557.16	63.19
557.32	72.56
557.49	159.16
557.65	114.69
557.82	70.22
557.98	93.62
558.15	56.17
558.32	112.35
558.48	11.70
558.65	124.05
558.81	58.51
558.98	42.13
559.14	65.54
559.31	110.01
559.47	28.09
559.64	107.66
559.80	16.38
559.97	49.15
560.13	107.66
560.30	102.98
560.46	138.09
560.63	77.24
560.79	84.26
560.96	119.37
561.12	65.54
561.29	147.45
561.45	98.30
561.61	100.64
561.78	128.73
561.94	77.24
562.11	72.56
562.27	63.19
562.44	60.85
562.60	93.62
562.77	0.00
562.93	46.81
563.10	100.64
563.26	110.01
563.42	110.01
563.59	131.07
563.75	128.73
563.92	86.60
564.08	100.64
564.24	102.98
564.41	60.85
564.57	114.69
564.74	138.09
564.90	110.01
565.07	42.13
565.23	107.66
565.39	93.62
565.56	131.07
565.72	56.17
565.88	32.77
566.05	135.75
566.21	93.62
566.38	112.35
566.54	21.06
566.70	189.58
566.87	105.32
567.03	70.22
567.19	81.92
567.36	93.62
567.52	63.19
567.68	46.81
567.85	46.81
568.01	84.26
568.17	170.86
568.34	63.19
568.50	91.28
568.66	23.41
568.83	51.49
568.99	88.94
569.15	117.03
569.32	58.51
569.48	126.39
569.64	37.45
569.81	35.11
569.97	84.26
570.13	79.58
570.30	37.45
570.46	86.60
570.62	84.26
570.78	105.32
570.95	56.17
571.11	124.05
571.27	105.32
571.43	65.54
571.60	14.04
571.76	156.82
571.92	37.45
572.09	91.28
572.25	63.19
572.41	81.92
572.57	105.32
572.74	53.83
572.90	79.58
573.06	0.00
573.22	39.79
573.38	51.49
573.55	46.81
573.71	51.49
573.87	37.45
574.03	88.94
574.20	77.24
574.36	42.13
574.52	70.22
574.68	0.00
574.84	44.47
575.01	145.11
575.17	110.01
575.33	53.83
575.49	46.81
575.65	81.92
575.82	74.90
575.98	86.60
576.14	81.92
576.30	112.35
576.46	67.88
576.62	77.24
576.79	149.79
576.95	0.00
577.11	0.00
577.27	81.92
577.43	42.13
577.59	35.11
577.75	53.83
577.92	107.66
578.08	88.94
578.24	88.94
578.40	86.60
578.56	63.19
578.72	91.28
578.88	128.73
579.04	63.19
579.21	21.06
579.37	51.49
579.53	39.79
579.69	25.75
579.85	88.94
580.01	128.73
580.17	0.00
580.33	107.66
580.49	86.60
580.65	30.43
580.82	74.90
580.98	56.17
581.14	70.22
581.30	51.49
581.46	114.69
581.62	11.70
581.78	16.38
581.94	39.79
582.10	77.24
582.26	93.62
582.42	110.01
582.58	72.56
582.74	42.13
582.90	119.37
583.06	84.26
583.22	67.88
583.38	72.56
583.54	9.36
583.70	149.79
583.86	58.51
584.02	86.60
584.18	102.98
584.34	51.49
584.50	107.66
584.66	32.77
584.82	102.98
584.98	110.01
585.14	102.98
585.30	32.77
585.46	100.64
585.62	70.22
585.78	67.88
585.94	44.47
586.10	77.24
586.26	53.83
586.42	79.58
586.58	14.04
586.74	117.03
586.90	140.43
587.06	16.38
587.22	138.09
587.38	102.98
587.54	79.58
587.70	42.13
587.86	88.94
588.02	84.26
588.18	91.28
588.34	58.51
588.49	133.41
588.65	44.47
588.81	42.13
588.97	77.24
589.13	149.79
589.29	0.00
589.45	51.49
589.61	35.11
589.77	98.30
589.93	65.54
590.08	56.17
590.24	63.19
590.40	81.92
590.56	72.56
590.72	100.64
590.88	98.30
591.04	32.77
591.20	23.41
591.35	72.56
591.51	77.24
591.67	63.19
591.83	112.35
591.99	81.92
592.15	159.16
592.31	128.73
592.46	7.02
592.62	11.70
592.78	105.32
592.94	35.11
593.10	81.92
593.26	56.17
593.41	88.94
593.57	102.98
593.73	60.85
593.89	135.75
594.05	67.88
594.20	67.88
594.36	67.88
594.52	58.51
594.68	74.90
594.84	9.36
594.99	60.85
595.15	70.22
595.31	79.58
595.47	93.62
595.62	56.17
595.78	67.88
595.94	74.90
596.10	16.38
596.25	74.90
596.41	119.37
596.57	51.49
596.73	42.13
596.88	74.90
597.04	81.92
597.20	112.35
597.36	142.77
597.51	77.24
597.67	23.41
597.83	93.62
597.99	44.47
598.14	0.00
598.30	86.60
598.46	119.37
598.61	102.98
598.77	86.60
598.93	30.43
599.09	70.22
599.24	35.11
599.40	100.64
599.56	86.60
599.71	79.58
599.87	133.41
600.03	91.28
600.18	72.56
600.34	21.06
600.50	0.00
600.65	65.54
600.81	46.81
600.97	105.32
601.12	117.03
601.28	32.77
601.44	39.79
601.59	37.45
601.75	105.32
601.91	58.51
602.06	46.81
602.22	74.90
602.37	0.00
602.53	39.79
602.69	70.22
602.84	39.79
603.00	67.88
603.16	86.60
603.31	112.35
603.47	21.06
603.62	105.32
603.78	74.90
603.94	18.72
604.09	49.15
604.25	11.70
604.40	70.22
604.56	39.79
604.71	37.45
604.87	18.72
605.03	121.71
605.18	95.96
605.34	105.32
605.49	105.32
605.65	72.56
605.80	95.96
605.96	18.72
606.12	110.01
606.27	39.79
606.43	51.49
606.58	37.45
606.74	51.49
606.89	63.19
607.05	124.05
607.20	86.60
607.36	86.60
607.51	51.49
607.67	81.92
607.82	63.19
607.98	79.58
608.13	11.70
608.29	4.68
608.44	138.09
608.60	58.51
608.75	53.83
608.91	67.88
609.06	51.49
609.22	37.45
609.37	39.79
609.53	7.02
609.68	88.94
609.84	98.30
609.99	74.90
610.15	44.47
610.30	0.00
610.46	56.17
610.61	35.11
610.76	39.79
610.92	65.54
611.07	110.01
611.23	79.58
611.38	93.62
611.54	95.96
611.69	79.58
611.84	154.48
612.00	102.98
612.15	126.39
612.31	51.49
612.46	42.13
612.62	32.77
612.77	58.51
612.92	58.51
613.08	88.94
613.23	35.11
613.39	32.77
613.54	91.28
613.69	79.58
613.85	102.98
614.00	138.09
614.15	0.00
614.31	0.00
614.46	28.09
614.62	56.17
614.77	49.15
614.92	65.54
615.08	56.17
615.23	39.79
615.38	23.41
615.54	72.56
615.69	53.83
615.84	84.26
616.00	77.24
616.15	28.09
616.30	84.26
616.46	46.81
616.61	77.24
616.76	39.79
616.92	67.88
617.07	72.56
617.22	180.22
617.37	35.11
617.53	114.69
617.68	88.94
617.83	100.64
617.99	28.09
618.14	79.58
618.29	51.49
618.45	0.00
618.60	88.94
618.75	28.09
618.90	2.34
619.06	91.28
619.21	60.85
619.36	35.11
619.51	46.81
619.67	119.37
619.82	0.00
619.97	67.88
620.12	142.77
620.28	39.79
620.43	35.11
620.58	93.62
620.73	30.43
620.89	51.49
621.04	28.09
621.19	126.39
621.34	140.43
621.49	56.17
621.65	14.04
621.80	93.62
621.95	7.02
622.10	35.11
622.25	42.13
622.41	18.72
622.56	81.92
622.71	67.88
622.86	81.92
623.01	72.56
623.16	32.77
623.32	168.52
623.47	100.64
623.62	77.24
623.77	74.90
623.92	93.62
624.07	46.81
624.23	37.45
624.38	32.77
624.53	79.58
624.68	121.71
624.83	9.36
624.98	49.15
625.13	51.49
625.29	95.96
625.44	32.77
625.59	53.83
625.74	58.51
625.89	53.83
626.04	74.90
626.19	30.43
626.34	23.41
626.49	63.19
626.65	9.36
626.80	51.49
626.95	63.19
627.10	112.35
627.25	44.47
627.40	0.00
627.55	49.15
627.70	28.09
627.85	0.00
628.00	32.77
628.15	0.00
628.30	23.41
628.45	53.83
628.60	74.90
628.76	77.24
628.91	18.72
629.06	0.00
629.21	58.51
629.36	23.41
629.51	95.96
629.66	65.54
629.81	63.19
629.96	18.72
630.11	128.73
630.26	60.85
630.41	25.75
630.56	42.13
630.71	42.13
630.86	65.54
631.01	30.43
631.16	86.60
631.31	70.22
631.46	4.68
631.61	67.88
631.76	21.06
631.91	102.98
632.06	79.58
632.21	72.56
632.36	0.00
632.51	25.75
632.66	98.30
632.81	30.43
632.96	81.92
633.10	35.11
633.25	79.58
633.40	35.11
633.55	44.47
633.70	14.04
633.85	67.88
634.00	21.06
634.15	79.58
634.30	88.94
634.45	70.22
634.60	72.56
634.75	67.88
634.90	23.41
635.05	161.50
635.19	63.19
635.34	84.26
635.49	63.19
635.64	95.96
635.79	46.81
635.94	42.13
636.09	18.72
636.24	110.01
636.39	42.13
636.53	117.03
636.68	30.43
636.83	58.51
636.98	37.45
637.13	152.13
637.28	100.64
637.43	79.58
637.57	0.00
637.72	39.79
637.87	77.24
638.02	72.56
638.17	119.37
638.32	51.49
638.46	37.45
638.61	88.94
638.76	100.64
638.91	35.11
639.06	46.81
639.20	77.24
639.35	107.66
639.50	81.92
639.65	42.13
639.80	14.04
639.94	23.41
640.09	91.28
640.24	65.54
640.39	51.49
640.54	39.79
640.68	37.45
640.83	79.58
640.98	37.45
641.13	0.00
641.27	0.00
641.42	0.00
641.57	44.47
641.72	11.70
641.86	65.54
642.01	0.00
642.16	60.85
642.31	67.88
642.45	0.00
642.60	126.39
642.75	25.75
642.90	131.07
643.04	131.07
643.19	74.90
643.34	63.19
643.48	28.09
643.63	46.81
643.78	23.41
643.93	51.49
644.07	37.45
644.22	28.09
644.37	46.81
644.51	35.11
644.66	44.47
644.81	21.06
644.95	25.75
645.10	138.09
645.25	39.79
645.39	74.90
645.54	14.04
645.69	65.54
645.83	79.58
645.98	119.37
646.13	7.02
646.27	28.09
646.42	39.79
646.57	102.98
646.71	11.70
646.86	84.26
647.00	74.90
647.15	81.92
647.30	25.75
647.44	95.96
647.59	42.13
647.74	86.60
647.88	51.49
648.03	32.77
648.17	21.06
648.32	44.47
648.47	0.00
648.61	95.96
648.76	39.79
648.90	88.94
649.05	49.15
649.20	102.98
649.34	70.22
649.49	142.77
649.63	18.72
649.78	18.72
649.92	39.79
650.07	0.00
650.21	53.83
650.36	98.30
650.51	32.77
650.65	0.00
650.80	100.64
650.94	95.96
651.09	105.32
651.23	37.45
651.38	30.43
651.52	0.00
651.67	74.90
651.81	39.79
651.96	81.92
652.10	98.30
652.25	53.83
652.39	42.13
652.54	93.62
652.68	46.81
652.83	86.60
652.97	51.49
653.12	0.00
653.26	16.38
653.41	0.00
653.55	79.58
653.70	98.30
653.84	112.35
653.99	110.01
654.13	105.32
654.27	30.43
654.42	0.00
654.56	32.77
654.71	42.13
654.85	53.83
655.00	23.41
655.14	102.98
655.29	4.68
655.43	51.49
655.57	100.64
655.72	102.98
655.86	93.62
656.01	91.28
656.15	51.49
656.30	39.79
656.44	56.17
656.58	7.02
656.73	100.64
656.87	67.88
657.01	63.19
657.16	74.90
657.30	58.51
657.45	65.54
657.59	102.98
657.73	49.15
657.88	25.75
658.02	84.26
658.16	42.13
658.31	23.41
658.45	86.60
658.60	110.01
658.74	0.00
658.88	44.47
659.03	0.00
659.17	95.96
659.31	105.32
659.46	23.41
659.60	30.43
659.74	25.75
659.89	67.88
660.03	28.09
660.17	81.92
660.32	25.75
660.46	18.72
660.60	44.47
660.74	60.85
660.89	79.58
661.03	60.85
661.17	74.90
661.32	53.83
661.46	30.43
661.60	44.47
661.74	53.83
661.89	86.60
662.03	79.58
662.17	46.81
662.31	93.62
662.46	11.70
662.60	7.02
662.74	53.83
662.88	121.71
663.03	32.77
663.17	77.24
663.31	25.75
663.45	84.26
663.60	0.00
663.74	37.45
663.88	86.60
664.02	119.37
664.17	110.01
664.31	18.72
664.45	60.85
664.59	14.04
664.73	74.90
664.88	14.04
665.02	65.54
665.16	84.26
665.30	110.01
665.44	63.19
665.59	21.06
665.73	65.54
665.87	42.13
666.01	110.01
666.15	124.05
666.29	58.51
666.44	74.90
666.58	42.13
666.72	0.00
666.86	21.06
667.00	72.56
667.14	35.11
667.28	65.54
667.43	14.04
667.57	74.90
667.71	110.01
667.85	18.72
667.99	93.62
668.13	28.09
668.27	46.81
668.41	39.79
668.56	35.11
668.70	0.00
668.84	86.60
668.98	88.94
669.12	28.09
669.26	49.15
669.40	30.43
669.54	9.36
669.68	91.28
669.82	81.92
669.96	21.06
670.10	70.22
670.25	70.22
670.39	39.79
670.53	63.19
670.67	0.00
670.81	138.09
670.95	74.90
671.09	21.06
671.23	86.60
671.37	70.22
671.51	23.41
671.65	21.06
671.79	37.45
671.93	35.11
672.07	44.47
672.21	51.49
672.35	0.00
672.49	51.49
672.63	49.15
672.77	23.41
672.91	42.13
673.05	72.56
673.19	0.00
673.33	37.45
673.47	35.11
673.61	37.45
673.75	44.47
673.89	49.15
674.03	7.02
674.17	91.28
674.31	0.00
674.45	37.45
674.59	23.41
674.73	4.68
674.87	53.83
675.01	86.60
675.15	86.60
675.29	72.56
675.43	51.49
675.56	65.54
675.70	30.43
675.84	0.00
675.98	98.30
676.12	0.00
676.26	79.58
676.40	53.83
676.54	42.13
676.68	65.54
676.82	0.00
676.96	95.96
677.10	14.04
677.23	0.00
677.37	56.17
677.51	0.00
677.65	67.88
677.79	140.43
677.93	0.00
678.07	56.17
678.21	2.34
678.34	51.49
678.48	51.49
678.62	114.69
678.76	30.43
678.90	56.17
679.04	86.60
679.18	102.98
679.31	39.79
679.45	51.49
679.59	4.68
679.73	84.26
679.87	110.01
680.00	14.04
680.14	44.47
680.28	53.83
680.42	56.17
680.56	51.49
680.70	84.26
680.83	28.09
680.97	0.00
681.11	21.06
681.25	21.06
681.39	81.92
681.52	53.83
681.66	4.68
681.80	25.75
681.94	25.75
682.07	81.92
682.21	70.22
682.35	56.17
682.49	42.13
682.62	0.00
682.76	4.68
682.90	44.47
683.04	79.58
683.17	72.56
683.31	46.81
683.45	23.41
683.59	35.11
683.72	60.85
683.86	102.98
684.00	9.36
684.13	28.09
684.27	9.36
684.41	53.83
684.55	35.11
684.68	91.28
684.82	110.01
684.96	28.09
685.09	58.51
685.23	95.96
685.37	79.58
685.50	32.77
685.64	44.47
685.78	28.09
685.91	49.15
686.05	84.26
686.19	105.32
686.32	14.04
686.46	86.60
686.60	0.00
686.73	30.43
686.87	53.83
687.01	39.79
687.14	95.96
687.28	32.77
687.42	49.15
687.55	28.09
687.69	39.79
687.82	39.79
687.96	0.00
688.10	16.38
688.23	0.00
688.37	0.00
688.50	0.00
688.64	95.96
688.78	98.30
688.91	58.51
689.05	4.68
689.18	30.43
689.32	70.22
689.46	77.24
689.59	49.15
689.73	37.45
689.86	63.19
690.00	79.58
690.13	53.83
690.27	0.00
690.41	67.88
690.54	70.22
690.68	74.90
690.81	56.17
690.95	37.45
691.08	0.00
691.22	60.85
691.35	4.68
691.49	117.03
691.62	35.11
691.76	37.45
691.89	53.83
692.03	11.70
692.16	0.00
692.30	4.68
692.43	67.88
692.57	49.15
692.70	23.41
692.84	30.43
692.97	28.09
693.11	51.49
693.24	35.11
693.38	84.26
693.51	2.34
693.65	23.41
693.78	37.45
693.92	0.00
694.05	0.00
694.19	44.47
694.32	0.00
694.45	0.00
694.59	2.34
694.72	9.36
694.86	16.38
694.99	16.38
695.13	53.83
695.26	28.09
695.39	67.88
695.53	0.00
695.66	124.05
695.80	7.02
695.93	0.00
696.07	25.75
696.20	51.49
696.33	14.04
696.47	53.83
696.60	0.00
696.73	23.41
696.87	21.06
697.00	42.13
697.14	0.00
697.27	77.24
697.40	25.75
697.54	0.00
697.67	32.77
697.80	93.62
697.94	53.83
698.07	98.30
698.21	65.54
698.34	100.64
698.47	25.75
698.61	30.43
698.74	63.19
698.87	14.04
699.01	65.54
699.14	32.77
699.27	18.72
699.40	0.00
699.54	0.00
699.67	0.00
699.80	51.49
699.94	32.77
700.07	0.00
700.20	28.09
700.34	67.88
700.47	30.43
700.60	91.28
700.73	133.41
700.87	53.83
701.00	0.00
701.13	42.13
701.26	32.77
701.40	46.81
701.53	65.54
701.66	39.79
701.79	9.36
701.93	44.47
702.06	42.13
702.19	23.41
702.32	0.00
702.46	95.96
702.59	51.49
702.72	7.02
702.85	0.00
702.99	0.00
703.12	18.72
703.25	65.54
703.38	32.77
703.51	0.00
703.65	30.43
703.78	44.47
703.91	42.13
704.04	9.36
704.17	2.34
704.31	53.83
704.44	44.47
704.57	30.43
704.70	51.49
704.83	37.45
704.96	21.06
705.10	86.60
705.23	18.72
>>>>>End Processed Spectral Data<<<<<
