SpectraSuite Data File
++++++++++++++++++++++++++++++++++++
Date: Fri Oct 04 12:13:28 GMT-05:00 2013
User: price-jones
Dark Spectrum Present: No
Reference Spectrum Present: No
Number of Sampled Component Spectra: 1
Spectrometers: USB2+H05261
Integration Time (usec): 10000 (USB2+H05261)
Spectra Averaged: 1 (USB2+H05261)
Boxcar Smoothing: 0 (USB2+H05261)
Correct for Electrical Dark: No (USB2+H05261)
Strobe/Lamp Enabled: No (USB2+H05261)
Correct for Detector Non-linearity: No (USB2+H05261)
Correct for Stray Light: No (USB2+H05261)
Number of Pixels in Processed Spectrum: 2048
>>>>>Begin Processed Spectral Data<<<<<
365.73	70.22
365.92	70.22
366.12	70.22
366.32	0.00
366.52	0.00
366.72	0.00
366.91	0.00
367.11	0.00
367.31	0.00
367.51	0.00
367.70	0.00
367.90	0.00
368.10	0.00
368.30	0.00
368.49	0.00
368.69	0.00
368.89	0.00
369.09	0.00
369.28	0.00
369.48	0.00
369.68	0.00
369.87	0.00
370.07	0.00
370.27	0.00
370.47	0.00
370.66	0.00
370.86	0.00
371.06	0.00
371.25	0.00
371.45	32.77
371.65	0.00
371.84	4.68
372.04	32.77
372.24	0.00
372.44	0.00
372.63	4.68
372.83	67.88
373.03	56.17
373.22	18.72
373.42	21.06
373.62	21.06
373.81	14.04
374.01	7.02
374.21	63.19
374.40	42.13
374.60	84.26
374.79	39.79
374.99	0.00
375.19	74.90
375.38	86.60
375.58	14.04
375.78	58.51
375.97	21.06
376.17	49.15
376.37	72.56
376.56	42.13
376.76	0.00
376.95	42.13
377.15	81.92
377.35	32.77
377.54	7.02
377.74	32.77
377.93	0.00
378.13	60.85
378.33	67.88
378.52	39.79
378.72	44.47
378.91	0.00
379.11	16.38
379.31	28.09
379.50	42.13
379.70	0.00
379.89	35.11
380.09	0.00
380.28	46.81
380.48	100.64
380.68	35.11
380.87	4.68
381.07	100.64
381.26	0.00
381.46	0.00
381.65	0.00
381.85	0.00
382.04	44.47
382.24	0.00
382.43	0.00
382.63	0.00
382.83	2.34
383.02	21.06
383.22	11.70
383.41	0.00
383.61	0.00
383.80	0.00
384.00	51.49
384.19	65.54
384.39	11.70
384.58	7.02
384.78	58.51
384.97	16.38
385.17	11.70
385.36	53.83
385.56	58.51
385.75	7.02
385.95	25.75
386.14	46.81
386.34	11.70
386.53	32.77
386.72	63.19
386.92	0.00
387.11	0.00
387.31	30.43
387.50	0.00
387.70	35.11
387.89	0.00
388.09	0.00
388.28	2.34
388.48	0.00
388.67	7.02
388.86	0.00
389.06	42.13
389.25	39.79
389.45	4.68
389.64	0.00
389.84	9.36
390.03	0.00
390.22	44.47
390.42	25.75
390.61	0.00
390.81	46.81
391.00	4.68
391.19	7.02
391.39	0.00
391.58	46.81
391.78	11.70
391.97	0.00
392.16	35.11
392.36	0.00
392.55	0.00
392.75	0.00
392.94	0.00
393.13	81.92
393.33	0.00
393.52	4.68
393.71	0.00
393.91	25.75
394.10	46.81
394.29	0.00
394.49	9.36
394.68	4.68
394.88	51.49
395.07	9.36
395.26	23.41
395.46	2.34
395.65	0.00
395.84	18.72
396.04	98.30
396.23	0.00
396.42	0.00
396.62	88.94
396.81	0.00
397.00	32.77
397.19	30.43
397.39	30.43
397.58	16.38
397.77	0.00
397.97	4.68
398.16	72.56
398.35	23.41
398.55	58.51
398.74	63.19
398.93	44.47
399.12	63.19
399.32	0.00
399.51	23.41
399.70	0.00
399.90	25.75
400.09	65.54
400.28	86.60
400.47	21.06
400.67	37.45
400.86	53.83
401.05	81.92
401.24	0.00
401.44	9.36
401.63	9.36
401.82	39.79
402.01	42.13
402.21	2.34
402.40	39.79
402.59	0.00
402.78	35.11
402.97	23.41
403.17	44.47
403.36	0.00
403.55	14.04
403.74	0.00
403.93	11.70
404.13	56.17
404.32	23.41
404.51	21.06
404.70	58.51
404.89	63.19
405.09	88.94
405.28	98.30
405.47	91.28
405.66	56.17
405.85	0.00
406.05	49.15
406.24	35.11
406.43	30.43
406.62	16.38
406.81	0.00
407.00	0.00
407.20	51.49
407.39	0.00
407.58	77.24
407.77	4.68
407.96	14.04
408.15	21.06
408.34	9.36
408.54	4.68
408.73	0.00
408.92	0.00
409.11	86.60
409.30	0.00
409.49	81.92
409.68	4.68
409.87	67.88
410.07	30.43
410.26	0.00
410.45	18.72
410.64	4.68
410.83	51.49
411.02	0.00
411.21	77.24
411.40	28.09
411.59	0.00
411.78	2.34
411.98	60.85
412.17	21.06
412.36	0.00
412.55	0.00
412.74	18.72
412.93	84.26
413.12	0.00
413.31	37.45
413.50	21.06
413.69	0.00
413.88	102.98
414.07	0.00
414.26	65.54
414.45	14.04
414.64	0.00
414.83	37.45
415.02	21.06
415.22	124.05
415.41	11.70
415.60	0.00
415.79	72.56
415.98	74.90
416.17	0.00
416.36	37.45
416.55	77.24
416.74	16.38
416.93	77.24
417.12	51.49
417.31	39.79
417.50	7.02
417.69	39.79
417.88	100.64
418.07	18.72
418.26	70.22
418.45	16.38
418.64	46.81
418.83	0.00
419.02	42.13
419.21	49.15
419.39	42.13
419.58	39.79
419.77	44.47
419.96	74.90
420.15	28.09
420.34	35.11
420.53	56.17
420.72	67.88
420.91	53.83
421.10	0.00
421.29	0.00
421.48	58.51
421.67	67.88
421.86	7.02
422.05	42.13
422.24	51.49
422.43	56.17
422.61	7.02
422.80	46.81
422.99	63.19
423.18	44.47
423.37	18.72
423.56	23.41
423.75	84.26
423.94	25.75
424.13	65.54
424.32	0.00
424.50	0.00
424.69	0.00
424.88	23.41
425.07	86.60
425.26	0.00
425.45	11.70
425.64	0.00
425.83	0.00
426.01	23.41
426.20	44.47
426.39	51.49
426.58	110.01
426.77	0.00
426.96	9.36
427.15	65.54
427.33	32.77
427.52	114.69
427.71	67.88
427.90	0.00
428.09	16.38
428.28	21.06
428.46	126.39
428.65	30.43
428.84	0.00
429.03	21.06
429.22	86.60
429.40	0.00
429.59	93.62
429.78	46.81
429.97	18.72
430.16	0.00
430.34	60.85
430.53	16.38
430.72	65.54
430.91	23.41
431.10	53.83
431.28	25.75
431.47	9.36
431.66	0.00
431.85	14.04
432.03	18.72
432.22	28.09
432.41	56.17
432.60	86.60
432.79	16.38
432.97	98.30
433.16	51.49
433.35	100.64
433.54	77.24
433.72	65.54
433.91	30.43
434.10	39.79
434.28	56.17
434.47	23.41
434.66	4.68
434.85	39.79
435.03	0.00
435.22	35.11
435.41	79.58
435.59	28.09
435.78	30.43
435.97	23.41
436.16	9.36
436.34	44.47
436.53	14.04
436.72	0.00
436.90	2.34
437.09	0.00
437.28	0.00
437.46	2.34
437.65	39.79
437.84	65.54
438.02	21.06
438.21	16.38
438.40	16.38
438.58	70.22
438.77	0.00
438.96	9.36
439.14	46.81
439.33	16.38
439.52	65.54
439.70	58.51
439.89	60.85
440.08	0.00
440.26	79.58
440.45	39.79
440.63	16.38
440.82	0.00
441.01	53.83
441.19	0.00
441.38	42.13
441.57	102.98
441.75	51.49
441.94	35.11
442.12	0.00
442.31	58.51
442.50	44.47
442.68	0.00
442.87	0.00
443.05	65.54
443.24	60.85
443.43	0.00
443.61	56.17
443.80	0.00
443.98	39.79
444.17	0.00
444.35	77.24
444.54	0.00
444.73	0.00
444.91	37.45
445.10	53.83
445.28	95.96
445.47	63.19
445.65	30.43
445.84	51.49
446.02	9.36
446.21	32.77
446.39	37.45
446.58	0.00
446.77	63.19
446.95	58.51
447.14	91.28
447.32	0.00
447.51	39.79
447.69	2.34
447.88	37.45
448.06	182.56
448.25	119.37
448.43	35.11
448.62	102.98
448.80	65.54
448.99	0.00
449.17	0.00
449.36	0.00
449.54	0.00
449.73	30.43
449.91	128.73
450.10	2.34
450.28	16.38
450.46	35.11
450.65	49.15
450.83	11.70
451.02	7.02
451.20	56.17
451.39	67.88
451.57	42.13
451.76	65.54
451.94	0.00
452.13	63.19
452.31	21.06
452.49	0.00
452.68	32.77
452.86	30.43
453.05	2.34
453.23	77.24
453.42	0.00
453.60	0.00
453.78	32.77
453.97	35.11
454.15	84.26
454.34	16.38
454.52	63.19
454.70	4.68
454.89	65.54
455.07	9.36
455.26	114.69
455.44	37.45
455.62	0.00
455.81	23.41
455.99	81.92
456.17	2.34
456.36	2.34
456.54	56.17
456.73	81.92
456.91	91.28
457.09	39.79
457.28	53.83
457.46	37.45
457.64	30.43
457.83	79.58
458.01	117.03
458.19	0.00
458.38	35.11
458.56	14.04
458.74	42.13
458.93	14.04
459.11	46.81
459.29	51.49
459.48	70.22
459.66	7.02
459.84	14.04
460.03	60.85
460.21	0.00
460.39	35.11
460.57	2.34
460.76	42.13
460.94	121.71
461.12	63.19
461.31	0.00
461.49	74.90
461.67	58.51
461.85	53.83
462.04	21.06
462.22	53.83
462.40	46.81
462.59	0.00
462.77	46.81
462.95	0.00
463.13	4.68
463.32	0.00
463.50	0.00
463.68	42.13
463.86	16.38
464.05	70.22
464.23	32.77
464.41	16.38
464.59	25.75
464.78	51.49
464.96	74.90
465.14	51.49
465.32	0.00
465.50	7.02
465.69	72.56
465.87	63.19
466.05	39.79
466.23	46.81
466.41	28.09
466.60	0.00
466.78	2.34
466.96	32.77
467.14	81.92
467.32	23.41
467.51	60.85
467.69	51.49
467.87	37.45
468.05	18.72
468.23	93.62
468.41	74.90
468.60	0.00
468.78	37.45
468.96	77.24
469.14	110.01
469.32	67.88
469.50	0.00
469.69	16.38
469.87	72.56
470.05	0.00
470.23	18.72
470.41	39.79
470.59	23.41
470.77	67.88
470.95	21.06
471.14	84.26
471.32	102.98
471.50	74.90
471.68	56.17
471.86	81.92
472.04	56.17
472.22	11.70
472.40	18.72
472.58	44.47
472.77	0.00
472.95	0.00
473.13	25.75
473.31	56.17
473.49	0.00
473.67	0.00
473.85	0.00
474.03	30.43
474.21	46.81
474.39	4.68
474.57	32.77
474.75	49.15
474.93	49.15
475.12	16.38
475.30	0.00
475.48	0.00
475.66	67.88
475.84	42.13
476.02	95.96
476.20	79.58
476.38	23.41
476.56	42.13
476.74	58.51
476.92	51.49
477.10	16.38
477.28	0.00
477.46	0.00
477.64	65.54
477.82	53.83
478.00	2.34
478.18	2.34
478.36	25.75
478.54	11.70
478.72	53.83
478.90	18.72
479.08	21.06
479.26	77.24
479.44	16.38
479.62	7.02
479.80	30.43
479.98	44.47
480.16	51.49
480.34	93.62
480.52	102.98
480.70	32.77
480.88	81.92
481.06	0.00
481.24	0.00
481.41	72.56
481.59	16.38
481.77	2.34
481.95	25.75
482.13	7.02
482.31	2.34
482.49	39.79
482.67	39.79
482.85	39.79
483.03	0.00
483.21	28.09
483.39	4.68
483.57	70.22
483.74	25.75
483.92	9.36
484.10	58.51
484.28	0.00
484.46	28.09
484.64	67.88
484.82	74.90
485.00	16.38
485.18	18.72
485.35	63.19
485.53	18.72
485.71	51.49
485.89	84.26
486.07	56.17
486.25	25.75
486.43	30.43
486.61	51.49
486.78	25.75
486.96	18.72
487.14	93.62
487.32	32.77
487.50	60.85
487.68	9.36
487.85	44.47
488.03	51.49
488.21	0.00
488.39	14.04
488.57	23.41
488.75	14.04
488.92	67.88
489.10	84.26
489.28	102.98
489.46	16.38
489.64	72.56
489.81	0.00
489.99	32.77
490.17	21.06
490.35	46.81
490.53	4.68
490.70	30.43
490.88	11.70
491.06	0.00
491.24	0.00
491.41	93.62
491.59	53.83
491.77	53.83
491.95	23.41
492.13	14.04
492.30	46.81
492.48	16.38
492.66	0.00
492.84	84.26
493.01	37.45
493.19	79.58
493.37	93.62
493.54	28.09
493.72	0.00
493.90	42.13
494.08	39.79
494.25	9.36
494.43	32.77
494.61	81.92
494.79	86.60
494.96	21.06
495.14	21.06
495.32	81.92
495.49	63.19
495.67	44.47
495.85	81.92
496.02	93.62
496.20	84.26
496.38	37.45
496.55	46.81
496.73	0.00
496.91	65.54
497.09	11.70
497.26	65.54
497.44	9.36
497.62	2.34
497.79	21.06
497.97	11.70
498.14	84.26
498.32	81.92
498.50	11.70
498.67	42.13
498.85	0.00
499.03	39.79
499.20	37.45
499.38	28.09
499.56	0.00
499.73	81.92
499.91	7.02
500.08	32.77
500.26	16.38
500.44	56.17
500.61	0.00
500.79	70.22
500.97	0.00
501.14	0.00
501.32	110.01
501.49	93.62
501.67	70.22
501.84	49.15
502.02	79.58
502.20	44.47
502.37	0.00
502.55	0.00
502.72	93.62
502.90	7.02
503.07	4.68
503.25	35.11
503.43	35.11
503.60	51.49
503.78	53.83
503.95	44.47
504.13	86.60
504.30	98.30
504.48	105.32
504.65	58.51
504.83	65.54
505.01	77.24
505.18	25.75
505.36	77.24
505.53	46.81
505.71	0.00
505.88	63.19
506.06	11.70
506.23	53.83
506.41	51.49
506.58	37.45
506.76	84.26
506.93	35.11
507.11	79.58
507.28	37.45
507.46	32.77
507.63	14.04
507.81	128.73
507.98	28.09
508.16	0.00
508.33	0.00
508.50	95.96
508.68	51.49
508.85	63.19
509.03	44.47
509.20	37.45
509.38	9.36
509.55	28.09
509.73	72.56
509.90	4.68
510.08	30.43
510.25	39.79
510.42	0.00
510.60	0.00
510.77	23.41
510.95	105.32
511.12	25.75
511.30	16.38
511.47	0.00
511.64	14.04
511.82	28.09
511.99	28.09
512.17	58.51
512.34	16.38
512.51	30.43
512.69	98.30
512.86	28.09
513.04	58.51
513.21	84.26
513.38	53.83
513.56	60.85
513.73	42.13
513.90	30.43
514.08	16.38
514.25	53.83
514.43	65.54
514.60	70.22
514.77	14.04
514.95	67.88
515.12	0.00
515.29	81.92
515.47	25.75
515.64	105.32
515.81	0.00
515.99	65.54
516.16	0.00
516.33	16.38
516.51	0.00
516.68	77.24
516.85	58.51
517.03	65.54
517.20	14.04
517.37	65.54
517.54	49.15
517.72	51.49
517.89	79.58
518.06	0.00
518.24	25.75
518.41	63.19
518.58	51.49
518.75	32.77
518.93	147.45
519.10	28.09
519.27	18.72
519.45	25.75
519.62	88.94
519.79	21.06
519.96	112.35
520.14	70.22
520.31	51.49
520.48	56.17
520.65	18.72
520.83	74.90
521.00	84.26
521.17	4.68
521.34	32.77
521.52	77.24
521.69	60.85
521.86	9.36
522.03	72.56
522.20	65.54
522.38	58.51
522.55	11.70
522.72	23.41
522.89	0.00
523.07	65.54
523.24	53.83
523.41	11.70
523.58	72.56
523.75	11.70
523.92	49.15
524.10	21.06
524.27	4.68
524.44	0.00
524.61	93.62
524.78	0.00
524.96	0.00
525.13	84.26
525.30	74.90
525.47	117.03
525.64	72.56
525.81	0.00
525.98	58.51
526.16	25.75
526.33	60.85
526.50	65.54
526.67	0.00
526.84	21.06
527.01	95.96
527.18	0.00
527.36	0.00
527.53	51.49
527.70	44.47
527.87	7.02
528.04	102.98
528.21	60.85
528.38	11.70
528.55	32.77
528.72	51.49
528.89	49.15
529.07	23.41
529.24	121.71
529.41	4.68
529.58	14.04
529.75	30.43
529.92	53.83
530.09	60.85
530.26	39.79
530.43	53.83
530.60	95.96
530.77	32.77
530.94	74.90
531.11	53.83
531.28	72.56
531.46	44.47
531.63	39.79
531.80	16.38
531.97	46.81
532.14	0.00
532.31	30.43
532.48	79.58
532.65	46.81
532.82	46.81
532.99	42.13
533.16	58.51
533.33	0.00
533.50	86.60
533.67	32.77
533.84	0.00
534.01	63.19
534.18	53.83
534.35	63.19
534.52	37.45
534.69	98.30
534.86	91.28
535.03	35.11
535.20	0.00
535.37	16.38
535.54	4.68
535.71	0.00
535.88	65.54
536.05	72.56
536.22	84.26
536.38	79.58
536.55	72.56
536.72	35.11
536.89	128.73
537.06	23.41
537.23	42.13
537.40	49.15
537.57	35.11
537.74	4.68
537.91	53.83
538.08	0.00
538.25	21.06
538.42	49.15
538.59	7.02
538.75	81.92
538.92	30.43
539.09	23.41
539.26	35.11
539.43	126.39
539.60	166.18
539.77	227.03
539.94	215.33
540.11	166.18
540.28	161.50
540.44	88.94
540.61	46.81
540.78	42.13
540.95	18.72
541.12	46.81
541.29	0.00
541.46	56.17
541.62	37.45
541.79	49.15
541.96	14.04
542.13	23.41
542.30	0.00
542.47	0.00
542.63	18.72
542.80	18.72
542.97	4.68
543.14	42.13
543.31	35.11
543.48	74.90
543.64	86.60
543.81	7.02
543.98	7.02
544.15	84.26
544.32	21.06
544.48	53.83
544.65	58.51
544.82	0.00
544.99	117.03
545.16	0.00
545.32	74.90
545.49	74.90
545.66	32.77
545.83	23.41
546.00	42.13
546.16	81.92
546.33	77.24
546.50	72.56
546.67	42.13
546.83	102.98
547.00	63.19
547.17	28.09
547.34	70.22
547.50	9.36
547.67	25.75
547.84	28.09
548.00	23.41
548.17	7.02
548.34	0.00
548.51	0.00
548.67	0.00
548.84	39.79
549.01	23.41
549.18	51.49
549.34	72.56
549.51	95.96
549.68	72.56
549.84	14.04
550.01	63.19
550.18	44.47
550.34	28.09
550.51	21.06
550.68	28.09
550.84	86.60
551.01	32.77
551.18	28.09
551.34	49.15
551.51	88.94
551.68	100.64
551.84	65.54
552.01	126.39
552.18	4.68
552.34	114.69
552.51	65.54
552.68	98.30
552.84	0.00
553.01	16.38
553.18	60.85
553.34	60.85
553.51	32.77
553.67	84.26
553.84	77.24
554.01	110.01
554.17	117.03
554.34	37.45
554.51	11.70
554.67	53.83
554.84	18.72
555.00	0.00
555.17	65.54
555.33	25.75
555.50	44.47
555.67	51.49
555.83	154.48
556.00	98.30
556.16	110.01
556.33	53.83
556.50	11.70
556.66	21.06
556.83	74.90
556.99	37.45
557.16	56.17
557.32	44.47
557.49	39.79
557.65	25.75
557.82	28.09
557.98	25.75
558.15	0.00
558.32	117.03
558.48	88.94
558.65	91.28
558.81	67.88
558.98	39.79
559.14	56.17
559.31	0.00
559.47	65.54
559.64	0.00
559.80	56.17
559.97	23.41
560.13	93.62
560.30	21.06
560.46	95.96
560.63	84.26
560.79	25.75
560.96	2.34
561.12	72.56
561.29	42.13
561.45	81.92
561.61	74.90
561.78	42.13
561.94	9.36
562.11	0.00
562.27	16.38
562.44	39.79
562.60	67.88
562.77	28.09
562.93	35.11
563.10	0.00
563.26	70.22
563.42	98.30
563.59	23.41
563.75	51.49
563.92	4.68
564.08	88.94
564.24	100.64
564.41	84.26
564.57	0.00
564.74	49.15
564.90	30.43
565.07	39.79
565.23	53.83
565.39	105.32
565.56	35.11
565.72	4.68
565.88	53.83
566.05	67.88
566.21	35.11
566.38	9.36
566.54	112.35
566.70	88.94
566.87	11.70
567.03	44.47
567.19	60.85
567.36	0.00
567.52	37.45
567.68	60.85
567.85	46.81
568.01	30.43
568.17	58.51
568.34	2.34
568.50	49.15
568.66	67.88
568.83	25.75
568.99	28.09
569.15	16.38
569.32	0.00
569.48	0.00
569.64	14.04
569.81	44.47
569.97	63.19
570.13	84.26
570.30	28.09
570.46	56.17
570.62	25.75
570.78	9.36
570.95	0.00
571.11	2.34
571.27	46.81
571.43	49.15
571.60	9.36
571.76	25.75
571.92	39.79
572.09	79.58
572.25	18.72
572.41	49.15
572.57	18.72
572.74	65.54
572.90	14.04
573.06	4.68
573.22	35.11
573.38	95.96
573.55	14.04
573.71	18.72
573.87	14.04
574.03	4.68
574.20	28.09
574.36	77.24
574.52	32.77
574.68	0.00
574.84	65.54
575.01	25.75
575.17	2.34
575.33	0.00
575.49	28.09
575.65	32.77
575.82	72.56
575.98	88.94
576.14	81.92
576.30	117.03
576.46	88.94
576.62	88.94
576.79	74.90
576.95	7.02
577.11	39.79
577.27	91.28
577.43	23.41
577.59	70.22
577.75	70.22
577.92	4.68
578.08	0.00
578.24	42.13
578.40	110.01
578.56	119.37
578.72	65.54
578.88	72.56
579.04	14.04
579.21	63.19
579.37	11.70
579.53	67.88
579.69	100.64
579.85	0.00
580.01	98.30
580.17	18.72
580.33	46.81
580.49	37.45
580.65	70.22
580.82	100.64
580.98	93.62
581.14	0.00
581.30	18.72
581.46	21.06
581.62	154.48
581.78	131.07
581.94	114.69
582.10	51.49
582.26	21.06
582.42	81.92
582.58	79.58
582.74	154.48
582.90	39.79
583.06	53.83
583.22	46.81
583.38	53.83
583.54	86.60
583.70	124.05
583.86	117.03
584.02	60.85
584.18	110.01
584.34	191.92
584.50	552.37
584.66	3522.51
584.82	9329.38
584.98	13977.68
585.14	12774.64
585.30	7899.31
585.46	4671.71
585.62	2876.52
585.78	1385.60
585.94	550.03
586.10	266.82
586.26	212.99
586.42	205.97
586.58	117.03
586.74	84.26
586.90	9.36
587.06	119.37
587.22	100.64
587.38	74.90
587.54	110.01
587.70	550.03
587.86	994.73
588.02	1144.52
588.18	692.80
588.34	514.92
588.49	238.73
588.65	145.11
588.81	198.95
588.97	91.28
589.13	0.00
589.29	117.03
589.45	102.98
589.61	84.26
589.77	53.83
589.93	107.66
590.08	70.22
590.24	56.17
590.40	9.36
590.56	25.75
590.72	63.19
590.88	53.83
591.04	7.02
591.20	95.96
591.35	28.09
591.51	100.64
591.67	46.81
591.83	72.56
591.99	98.30
592.15	77.24
592.31	58.51
592.46	93.62
592.62	84.26
592.78	18.72
592.94	74.90
593.10	65.54
593.26	79.58
593.41	46.81
593.57	84.26
593.73	100.64
593.89	535.98
594.05	1207.72
594.20	1713.27
594.36	1767.10
594.52	1130.48
594.68	699.82
594.84	372.15
594.99	351.08
595.15	142.77
595.31	95.96
595.47	102.98
595.62	107.66
595.78	58.51
595.94	84.26
596.10	81.92
596.25	131.07
596.41	44.47
596.57	51.49
596.73	46.81
596.88	105.32
597.04	290.23
597.20	400.23
597.36	484.49
597.51	285.55
597.67	210.65
597.83	208.31
597.99	91.28
598.14	112.35
598.30	58.51
598.46	121.71
598.61	49.15
598.77	39.79
598.93	114.69
599.09	37.45
599.24	14.04
599.40	37.45
599.56	18.72
599.71	105.32
599.87	18.72
600.03	86.60
600.18	58.51
600.34	7.02
600.50	53.83
600.65	14.04
600.81	16.38
600.97	44.47
601.12	49.15
601.28	100.64
601.44	159.16
601.59	0.00
601.75	65.54
601.91	58.51
602.06	63.19
602.22	67.88
602.37	121.71
602.53	318.31
602.69	479.81
602.84	458.74
603.00	320.65
603.16	238.73
603.31	175.54
603.47	173.20
603.62	70.22
603.78	67.88
603.94	46.81
604.09	30.43
604.25	88.94
604.40	0.00
604.56	70.22
604.71	119.37
604.87	81.92
605.03	65.54
605.18	100.64
605.34	21.06
605.49	28.09
605.65	88.94
605.80	95.96
605.96	25.75
606.12	21.06
606.27	14.04
606.43	84.26
606.58	53.83
606.74	175.54
606.89	543.00
607.05	1086.01
607.20	1514.33
607.36	1245.16
607.51	889.40
607.67	517.26
607.82	344.06
607.98	205.97
608.13	37.45
608.29	72.56
608.44	58.51
608.60	88.94
608.75	110.01
608.91	142.77
609.06	901.11
609.22	1809.23
609.37	2672.89
609.53	2272.66
609.68	1497.94
609.84	912.81
609.99	655.35
610.15	397.89
610.30	140.43
610.46	0.00
610.61	23.41
610.76	32.77
610.92	23.41
611.07	7.02
611.23	93.62
611.38	110.01
611.54	65.54
611.69	77.24
611.84	63.19
612.00	49.15
612.15	93.62
612.31	124.05
612.46	88.94
612.62	93.62
612.77	131.07
612.92	131.07
613.08	7.02
613.23	42.13
613.39	58.51
613.54	156.82
613.69	779.40
613.85	2270.32
614.00	3651.24
614.15	4159.13
614.31	2988.86
614.46	1888.81
614.62	1383.26
614.77	912.81
614.92	330.02
615.08	180.22
615.23	156.82
615.38	128.73
615.54	77.24
615.69	105.32
615.84	383.85
616.00	781.74
616.15	1102.39
616.30	952.60
616.46	681.10
616.61	376.83
616.76	304.27
616.92	220.01
617.07	119.37
617.22	32.77
617.37	70.22
617.53	0.00
617.68	0.00
617.83	21.06
617.99	42.13
618.14	18.72
618.29	37.45
618.45	49.15
618.60	0.00
618.75	46.81
618.90	21.06
619.06	16.38
619.21	0.00
619.36	7.02
619.51	0.00
619.67	77.24
619.82	32.77
619.97	14.04
620.12	46.81
620.28	102.98
620.43	126.39
620.58	58.51
620.73	46.81
620.89	79.58
621.04	81.92
621.19	222.35
621.34	461.09
621.49	683.44
621.65	557.05
621.80	418.96
621.95	308.95
622.10	227.03
622.25	147.45
622.41	58.51
622.56	53.83
622.71	32.77
622.86	46.81
623.01	0.00
623.16	2.34
623.32	60.85
623.47	28.09
623.62	23.41
623.77	79.58
623.92	0.00
624.07	0.00
624.23	88.94
624.38	28.09
624.53	0.00
624.68	60.85
624.83	70.22
624.98	58.51
625.13	0.00
625.29	0.00
625.44	32.77
625.59	37.45
625.74	30.43
625.89	74.90
626.04	332.36
626.19	1149.20
626.34	1905.20
626.49	2303.09
626.65	1675.82
626.80	1039.20
626.95	725.57
627.10	500.87
627.25	234.05
627.40	93.62
627.55	44.47
627.70	86.60
627.85	49.15
628.00	126.39
628.15	53.83
628.30	88.94
628.45	30.43
628.60	32.77
628.76	23.41
628.91	2.34
629.06	53.83
629.21	126.39
629.36	16.38
629.51	30.43
629.66	35.11
629.81	53.83
629.96	243.42
630.11	395.55
630.26	559.39
630.41	489.17
630.56	409.59
630.71	220.01
630.86	170.86
631.01	88.94
631.16	44.47
631.31	84.26
631.46	105.32
631.61	14.04
631.76	86.60
631.91	114.69
632.06	32.77
632.21	23.41
632.36	119.37
632.51	30.43
632.66	110.01
632.81	196.60
632.96	734.93
633.10	1097.71
633.25	1577.52
633.40	1338.79
633.55	903.45
633.70	486.83
633.85	404.91
634.00	180.22
634.15	112.35
634.30	58.51
634.45	67.88
634.60	88.94
634.75	37.45
634.90	35.11
635.05	95.96
635.19	86.60
635.34	60.85
635.49	32.77
635.64	0.00
635.79	18.72
635.94	0.00
636.09	14.04
636.24	0.00
636.39	35.11
636.53	9.36
636.68	16.38
636.83	72.56
636.98	35.11
637.13	67.88
637.28	0.00
637.43	0.00
637.57	114.69
637.72	575.77
637.87	1526.03
638.02	2455.22
638.17	2855.45
638.32	2057.33
638.46	1397.30
638.61	978.34
638.76	620.24
638.91	290.23
639.06	224.69
639.20	142.77
639.35	140.43
639.50	166.18
639.65	849.61
639.80	2331.17
639.94	3765.92
640.09	4449.36
640.24	3180.79
640.39	2275.00
640.54	1483.90
640.68	985.37
640.83	383.85
640.98	257.46
641.13	102.98
641.27	37.45
641.42	39.79
641.57	32.77
641.72	138.09
641.86	119.37
642.01	2.34
642.16	16.38
642.31	60.85
642.45	39.79
642.60	93.62
642.75	11.70
642.90	98.30
643.04	77.24
643.19	35.11
643.34	0.00
643.48	63.19
643.63	39.79
643.78	100.64
643.93	0.00
644.07	18.72
644.22	23.41
644.37	100.64
644.51	67.88
644.66	2.34
644.81	42.13
644.95	58.51
645.10	60.85
645.25	9.36
645.39	9.36
645.54	107.66
645.69	0.00
645.83	16.38
645.98	23.41
646.13	166.18
646.27	16.38
646.42	88.94
646.57	0.00
646.71	91.28
646.86	58.51
647.00	4.68
647.15	42.13
647.30	35.11
647.44	133.41
647.59	49.15
647.74	21.06
647.88	0.00
648.03	25.75
648.17	30.43
648.32	72.56
648.47	0.00
648.61	93.62
648.76	91.28
648.90	16.38
649.05	0.00
649.20	0.00
649.34	91.28
649.49	25.75
649.63	112.35
649.78	46.81
649.92	46.81
650.07	330.02
650.21	1011.11
650.36	1837.32
650.51	2296.07
650.65	1884.13
650.80	1270.91
650.94	931.53
651.09	589.82
651.23	365.12
651.38	107.66
651.52	72.56
651.67	88.94
651.81	28.09
651.96	77.24
652.10	44.47
652.25	56.17
652.39	63.19
652.54	42.13
652.68	187.24
652.83	318.31
652.97	545.34
653.12	849.61
653.26	765.36
653.41	468.11
653.55	367.46
653.70	222.35
653.84	65.54
653.99	110.01
654.13	93.62
654.27	9.36
654.42	0.00
654.56	21.06
654.71	23.41
654.85	0.00
655.00	25.75
655.14	0.00
655.29	44.47
655.43	49.15
655.57	32.77
655.72	2.34
655.86	32.77
656.01	39.79
656.15	74.90
656.30	32.77
656.44	2.34
656.58	0.00
656.73	49.15
656.87	53.83
657.01	28.09
657.16	32.77
657.30	42.13
657.45	63.19
657.59	30.43
657.73	16.38
657.88	44.47
658.02	0.00
658.16	51.49
658.31	21.06
658.45	49.15
658.60	46.81
658.74	14.04
658.88	28.09
659.03	16.38
659.17	65.54
659.31	154.48
659.46	477.47
659.60	847.27
659.74	1186.65
659.89	1036.86
660.03	758.33
660.17	510.24
660.32	351.08
660.46	58.51
660.60	105.32
660.74	72.56
660.89	23.41
661.03	35.11
661.17	44.47
661.32	74.90
661.46	91.28
661.60	0.00
661.74	60.85
661.89	25.75
662.03	35.11
662.17	72.56
662.31	79.58
662.46	70.22
662.60	4.68
662.74	21.06
662.88	0.00
663.03	67.88
663.17	21.06
663.31	58.51
663.45	58.51
663.60	88.94
663.74	84.26
663.88	65.54
664.02	0.00
664.17	67.88
664.31	142.77
664.45	16.38
664.59	72.56
664.73	147.45
664.88	128.73
665.02	0.00
665.16	0.00
665.30	95.96
665.44	16.38
665.59	88.94
665.73	74.90
665.87	18.72
666.01	84.26
666.15	2.34
666.29	0.00
666.44	39.79
666.58	95.96
666.72	0.00
666.86	86.60
667.00	67.88
667.14	2.34
667.28	308.95
667.43	823.87
667.57	1483.90
667.71	2001.16
667.85	1680.50
667.99	1259.21
668.13	755.99
668.27	451.72
668.41	222.35
668.56	98.30
668.70	119.37
668.84	93.62
668.98	0.00
669.12	30.43
669.26	74.90
669.40	58.51
669.54	0.00
669.68	93.62
669.82	16.38
669.96	32.77
670.10	44.47
670.25	42.13
670.39	51.49
670.53	16.38
670.67	56.17
670.81	0.00
670.95	53.83
671.09	107.66
671.23	294.91
671.37	704.50
671.51	1156.22
671.65	1266.23
671.79	1095.37
671.93	648.33
672.07	369.80
672.21	208.31
672.35	77.24
672.49	124.05
672.63	100.64
672.77	21.06
672.91	2.34
673.05	0.00
673.19	51.49
673.33	9.36
673.47	46.81
673.61	2.34
673.75	70.22
673.89	14.04
674.03	21.06
674.17	9.36
674.31	0.00
674.45	0.00
674.59	0.00
674.73	18.72
674.87	128.73
675.01	0.00
675.15	121.71
675.29	67.88
675.43	67.88
675.56	58.51
675.70	67.88
675.84	0.00
675.98	0.00
676.12	23.41
676.26	65.54
676.40	0.00
676.54	46.81
676.68	128.73
676.82	65.54
676.96	95.96
677.10	14.04
677.23	100.64
677.37	107.66
677.51	11.70
677.65	11.70
677.79	11.70
677.93	7.02
678.07	21.06
678.21	11.70
678.34	28.09
678.48	9.36
678.62	21.06
678.76	53.83
678.90	46.81
679.04	39.79
679.18	21.06
679.31	0.00
679.45	46.81
679.59	46.81
679.73	9.36
679.87	21.06
680.00	11.70
680.14	0.00
680.28	46.81
680.42	4.68
680.56	18.72
680.70	56.17
680.83	0.00
680.97	0.00
681.11	46.81
681.25	25.75
681.39	0.00
681.52	25.75
681.66	53.83
681.80	56.17
681.94	4.68
682.07	0.00
682.21	25.75
682.35	77.24
682.49	21.06
682.62	79.58
682.76	32.77
682.90	30.43
683.04	91.28
683.17	25.75
683.31	46.81
683.45	0.00
683.59	79.58
683.72	56.17
683.86	0.00
684.00	0.00
684.13	37.45
684.27	67.88
684.41	11.70
684.55	28.09
684.68	53.83
684.82	44.47
684.96	49.15
685.09	18.72
685.23	102.98
685.37	14.04
685.50	39.79
685.64	98.30
685.78	0.00
685.91	72.56
686.05	67.88
686.19	42.13
686.32	32.77
686.46	81.92
686.60	46.81
686.73	74.90
686.87	70.22
687.01	65.54
687.14	84.26
687.28	65.54
687.42	35.11
687.55	95.96
687.69	56.17
687.82	2.34
687.96	2.34
688.10	7.02
688.23	4.68
688.37	51.49
688.50	30.43
688.64	16.38
688.78	37.45
688.91	35.11
689.05	65.54
689.18	2.34
689.32	0.00
689.46	60.85
689.59	49.15
689.73	114.69
689.86	63.19
690.00	32.77
690.13	0.00
690.27	0.00
690.41	98.30
690.54	0.00
690.68	0.00
690.81	0.00
690.95	49.15
691.08	28.09
691.22	9.36
691.35	21.06
691.49	4.68
691.62	42.13
691.76	28.09
691.89	51.49
692.03	39.79
692.16	0.00
692.30	88.94
692.43	117.03
692.57	365.12
692.70	643.65
692.84	894.08
692.97	823.87
693.11	578.11
693.24	454.06
693.38	245.76
693.51	187.24
693.65	117.03
693.78	95.96
693.92	51.49
694.05	67.88
694.19	23.41
694.32	42.13
694.45	124.05
694.59	42.13
694.72	14.04
694.86	46.81
694.99	16.38
695.13	142.77
695.26	88.94
695.39	51.49
695.53	0.00
695.66	4.68
695.80	67.88
695.93	46.81
696.07	30.43
696.20	74.90
696.33	72.56
696.47	72.56
696.60	58.51
696.73	91.28
696.87	86.60
697.00	18.72
697.14	16.38
697.27	28.09
697.40	46.81
697.54	4.68
697.67	9.36
697.80	0.00
697.94	21.06
698.07	46.81
698.21	35.11
698.34	72.56
698.47	0.00
698.61	65.54
698.74	32.77
698.87	105.32
699.01	98.30
699.14	0.00
699.27	18.72
699.40	0.00
699.54	39.79
699.67	81.92
699.80	56.17
699.94	95.96
700.07	2.34
700.20	0.00
700.34	39.79
700.47	23.41
700.60	39.79
700.73	58.51
700.87	37.45
701.00	35.11
701.13	30.43
701.26	0.00
701.40	30.43
701.53	28.09
701.66	128.73
701.79	16.38
701.93	32.77
702.06	56.17
702.19	112.35
702.32	79.58
702.46	53.83
702.59	58.51
702.72	152.13
702.85	512.58
702.99	1025.15
703.12	1547.09
703.25	1633.69
703.38	1549.43
703.51	1107.07
703.65	873.02
703.78	587.47
703.91	390.87
704.04	301.93
704.17	145.11
704.31	114.69
704.44	70.22
704.57	74.90
704.70	51.49
704.83	51.49
704.96	32.77
705.10	0.00
705.23	30.43
>>>>>End Processed Spectral Data<<<<<
