SpectraSuite Data File
++++++++++++++++++++++++++++++++++++
Date: Fri Oct 04 12:13:26 GMT-05:00 2013
User: price-jones
Dark Spectrum Present: No
Reference Spectrum Present: No
Number of Sampled Component Spectra: 1
Spectrometers: USB2+H05261
Integration Time (usec): 10000 (USB2+H05261)
Spectra Averaged: 1 (USB2+H05261)
Boxcar Smoothing: 0 (USB2+H05261)
Correct for Electrical Dark: No (USB2+H05261)
Strobe/Lamp Enabled: No (USB2+H05261)
Correct for Detector Non-linearity: No (USB2+H05261)
Correct for Stray Light: No (USB2+H05261)
Number of Pixels in Processed Spectrum: 2048
>>>>>Begin Processed Spectral Data<<<<<
365.73	0.00
365.92	0.00
366.12	0.00
366.32	30.43
366.52	0.00
366.72	0.00
366.91	0.00
367.11	0.00
367.31	0.00
367.51	0.00
367.70	0.00
367.90	0.00
368.10	0.00
368.30	0.00
368.49	0.00
368.69	0.00
368.89	0.00
369.09	0.00
369.28	0.00
369.48	0.00
369.68	0.00
369.87	0.00
370.07	0.00
370.27	0.00
370.47	0.00
370.66	0.00
370.86	0.00
371.06	0.00
371.25	0.00
371.45	0.00
371.65	0.00
371.84	0.00
372.04	0.00
372.24	0.00
372.44	44.47
372.63	0.00
372.83	46.81
373.03	21.06
373.22	0.00
373.42	0.00
373.62	0.00
373.81	39.79
374.01	16.38
374.21	18.72
374.40	28.09
374.60	84.26
374.79	46.81
374.99	25.75
375.19	0.00
375.38	0.00
375.58	53.83
375.78	46.81
375.97	74.90
376.17	49.15
376.37	0.00
376.56	25.75
376.76	9.36
376.95	0.00
377.15	0.00
377.35	11.70
377.54	0.00
377.74	42.13
377.93	0.00
378.13	28.09
378.33	11.70
378.52	91.28
378.72	77.24
378.91	0.00
379.11	28.09
379.31	0.00
379.50	0.00
379.70	56.17
379.89	0.00
380.09	0.00
380.28	0.00
380.48	0.00
380.68	56.17
380.87	9.36
381.07	0.00
381.26	21.06
381.46	0.00
381.65	0.00
381.85	2.34
382.04	16.38
382.24	37.45
382.43	16.38
382.63	18.72
382.83	0.00
383.02	0.00
383.22	30.43
383.41	25.75
383.61	58.51
383.80	53.83
384.00	2.34
384.19	0.00
384.39	35.11
384.58	14.04
384.78	0.00
384.97	18.72
385.17	18.72
385.36	53.83
385.56	18.72
385.75	0.00
385.95	0.00
386.14	0.00
386.34	0.00
386.53	0.00
386.72	30.43
386.92	56.17
387.11	32.77
387.31	70.22
387.50	14.04
387.70	53.83
387.89	49.15
388.09	0.00
388.28	7.02
388.48	102.98
388.67	0.00
388.86	14.04
389.06	25.75
389.25	37.45
389.45	39.79
389.64	11.70
389.84	42.13
390.03	7.02
390.22	0.00
390.42	0.00
390.61	0.00
390.81	0.00
391.00	23.41
391.19	25.75
391.39	0.00
391.58	100.64
391.78	63.19
391.97	88.94
392.16	0.00
392.36	9.36
392.55	100.64
392.75	9.36
392.94	4.68
393.13	0.00
393.33	0.00
393.52	0.00
393.71	0.00
393.91	0.00
394.10	21.06
394.29	0.00
394.49	23.41
394.68	51.49
394.88	14.04
395.07	9.36
395.26	0.00
395.46	7.02
395.65	30.43
395.84	21.06
396.04	49.15
396.23	32.77
396.42	0.00
396.62	4.68
396.81	23.41
397.00	49.15
397.19	0.00
397.39	9.36
397.58	0.00
397.77	14.04
397.97	30.43
398.16	0.00
398.35	28.09
398.55	39.79
398.74	2.34
398.93	4.68
399.12	0.00
399.32	53.83
399.51	65.54
399.70	35.11
399.90	4.68
400.09	0.00
400.28	0.00
400.47	11.70
400.67	37.45
400.86	0.00
401.05	9.36
401.24	42.13
401.44	21.06
401.63	53.83
401.82	72.56
402.01	18.72
402.21	2.34
402.40	21.06
402.59	0.00
402.78	46.81
402.97	0.00
403.17	56.17
403.36	32.77
403.55	93.62
403.74	86.60
403.93	0.00
404.13	44.47
404.32	63.19
404.51	25.75
404.70	49.15
404.89	63.19
405.09	53.83
405.28	93.62
405.47	63.19
405.66	56.17
405.85	86.60
406.05	74.90
406.24	0.00
406.43	0.00
406.62	0.00
406.81	0.00
407.00	14.04
407.20	23.41
407.39	0.00
407.58	0.00
407.77	58.51
407.96	35.11
408.15	18.72
408.34	63.19
408.54	67.88
408.73	0.00
408.92	51.49
409.11	9.36
409.30	0.00
409.49	63.19
409.68	0.00
409.87	70.22
410.07	81.92
410.26	114.69
410.45	39.79
410.64	18.72
410.83	49.15
411.02	0.00
411.21	0.00
411.40	70.22
411.59	23.41
411.78	0.00
411.98	30.43
412.17	0.00
412.36	77.24
412.55	56.17
412.74	0.00
412.93	51.49
413.12	28.09
413.31	2.34
413.50	58.51
413.69	42.13
413.88	7.02
414.07	32.77
414.26	65.54
414.45	30.43
414.64	77.24
414.83	0.00
415.02	16.38
415.22	9.36
415.41	16.38
415.60	14.04
415.79	51.49
415.98	9.36
416.17	102.98
416.36	23.41
416.55	0.00
416.74	56.17
416.93	0.00
417.12	0.00
417.31	32.77
417.50	28.09
417.69	65.54
417.88	4.68
418.07	11.70
418.26	35.11
418.45	0.00
418.64	74.90
418.83	4.68
419.02	49.15
419.21	0.00
419.39	25.75
419.58	86.60
419.77	32.77
419.96	16.38
420.15	18.72
420.34	102.98
420.53	18.72
420.72	0.00
420.91	51.49
421.10	46.81
421.29	9.36
421.48	77.24
421.67	16.38
421.86	44.47
422.05	25.75
422.24	21.06
422.43	0.00
422.61	77.24
422.80	42.13
422.99	56.17
423.18	28.09
423.37	0.00
423.56	44.47
423.75	39.79
423.94	30.43
424.13	74.90
424.32	23.41
424.50	44.47
424.69	32.77
424.88	21.06
425.07	16.38
425.26	56.17
425.45	0.00
425.64	77.24
425.83	0.00
426.01	32.77
426.20	9.36
426.39	0.00
426.58	14.04
426.77	0.00
426.96	18.72
427.15	0.00
427.33	0.00
427.52	18.72
427.71	23.41
427.90	0.00
428.09	46.81
428.28	46.81
428.46	46.81
428.65	7.02
428.84	23.41
429.03	63.19
429.22	0.00
429.40	35.11
429.59	11.70
429.78	28.09
429.97	86.60
430.16	23.41
430.34	93.62
430.53	11.70
430.72	9.36
430.91	14.04
431.10	0.00
431.28	30.43
431.47	21.06
431.66	23.41
431.85	37.45
432.03	18.72
432.22	44.47
432.41	102.98
432.60	53.83
432.79	63.19
432.97	88.94
433.16	119.37
433.35	46.81
433.54	37.45
433.72	0.00
433.91	74.90
434.10	65.54
434.28	2.34
434.47	98.30
434.66	49.15
434.85	32.77
435.03	0.00
435.22	37.45
435.41	42.13
435.59	39.79
435.78	60.85
435.97	18.72
436.16	0.00
436.34	11.70
436.53	21.06
436.72	25.75
436.90	35.11
437.09	16.38
437.28	4.68
437.46	37.45
437.65	16.38
437.84	30.43
438.02	39.79
438.21	16.38
438.40	46.81
438.58	63.19
438.77	91.28
438.96	53.83
439.14	63.19
439.33	67.88
439.52	37.45
439.70	28.09
439.89	0.00
440.08	0.00
440.26	0.00
440.45	0.00
440.63	58.51
440.82	56.17
441.01	72.56
441.19	30.43
441.38	46.81
441.57	7.02
441.75	84.26
441.94	0.00
442.12	60.85
442.31	65.54
442.50	2.34
442.68	21.06
442.87	16.38
443.05	35.11
443.24	37.45
443.43	18.72
443.61	44.47
443.80	105.32
443.98	11.70
444.17	30.43
444.35	28.09
444.54	0.00
444.73	32.77
444.91	0.00
445.10	0.00
445.28	0.00
445.47	51.49
445.65	51.49
445.84	53.83
446.02	21.06
446.21	39.79
446.39	0.00
446.58	44.47
446.77	81.92
446.95	65.54
447.14	18.72
447.32	44.47
447.51	44.47
447.69	0.00
447.88	0.00
448.06	107.66
448.25	42.13
448.43	35.11
448.62	0.00
448.80	28.09
448.99	70.22
449.17	0.00
449.36	0.00
449.54	93.62
449.73	4.68
449.91	7.02
450.10	0.00
450.28	16.38
450.46	56.17
450.65	56.17
450.83	9.36
451.02	4.68
451.20	105.32
451.39	14.04
451.57	0.00
451.76	0.00
451.94	63.19
452.13	28.09
452.31	39.79
452.49	32.77
452.68	21.06
452.86	9.36
453.05	28.09
453.23	35.11
453.42	42.13
453.60	79.58
453.78	0.00
453.97	37.45
454.15	88.94
454.34	14.04
454.52	28.09
454.70	51.49
454.89	42.13
455.07	0.00
455.26	0.00
455.44	72.56
455.62	60.85
455.81	2.34
455.99	51.49
456.17	37.45
456.36	25.75
456.54	53.83
456.73	63.19
456.91	25.75
457.09	51.49
457.28	16.38
457.46	65.54
457.64	51.49
457.83	44.47
458.01	32.77
458.19	60.85
458.38	39.79
458.56	46.81
458.74	35.11
458.93	35.11
459.11	44.47
459.29	7.02
459.48	18.72
459.66	2.34
459.84	9.36
460.03	32.77
460.21	21.06
460.39	0.00
460.57	53.83
460.76	7.02
460.94	35.11
461.12	23.41
461.31	11.70
461.49	102.98
461.67	72.56
461.85	65.54
462.04	32.77
462.22	51.49
462.40	56.17
462.59	14.04
462.77	0.00
462.95	44.47
463.13	72.56
463.32	58.51
463.50	67.88
463.68	0.00
463.86	30.43
464.05	4.68
464.23	0.00
464.41	44.47
464.59	0.00
464.78	49.15
464.96	70.22
465.14	30.43
465.32	0.00
465.50	32.77
465.69	63.19
465.87	0.00
466.05	65.54
466.23	58.51
466.41	2.34
466.60	35.11
466.78	102.98
466.96	51.49
467.14	32.77
467.32	63.19
467.51	0.00
467.69	37.45
467.87	49.15
468.05	30.43
468.23	60.85
468.41	126.39
468.60	0.00
468.78	56.17
468.96	72.56
469.14	93.62
469.32	39.79
469.50	16.38
469.69	53.83
469.87	37.45
470.05	0.00
470.23	53.83
470.41	79.58
470.59	0.00
470.77	60.85
470.95	0.00
471.14	37.45
471.32	30.43
471.50	39.79
471.68	65.54
471.86	0.00
472.04	0.00
472.22	35.11
472.40	25.75
472.58	21.06
472.77	58.51
472.95	77.24
473.13	37.45
473.31	79.58
473.49	25.75
473.67	23.41
473.85	37.45
474.03	25.75
474.21	53.83
474.39	0.00
474.57	14.04
474.75	11.70
474.93	30.43
475.12	4.68
475.30	79.58
475.48	7.02
475.66	4.68
475.84	4.68
476.02	32.77
476.20	0.00
476.38	0.00
476.56	56.17
476.74	56.17
476.92	32.77
477.10	63.19
477.28	44.47
477.46	0.00
477.64	65.54
477.82	107.66
478.00	44.47
478.18	18.72
478.36	0.00
478.54	74.90
478.72	30.43
478.90	9.36
479.08	2.34
479.26	42.13
479.44	126.39
479.62	35.11
479.80	88.94
479.98	0.00
480.16	93.62
480.34	35.11
480.52	18.72
480.70	65.54
480.88	0.00
481.06	102.98
481.24	46.81
481.41	58.51
481.59	56.17
481.77	37.45
481.95	25.75
482.13	46.81
482.31	72.56
482.49	11.70
482.67	42.13
482.85	37.45
483.03	25.75
483.21	91.28
483.39	32.77
483.57	81.92
483.74	30.43
483.92	0.00
484.10	60.85
484.28	93.62
484.46	14.04
484.64	4.68
484.82	23.41
485.00	7.02
485.18	16.38
485.35	110.01
485.53	0.00
485.71	84.26
485.89	70.22
486.07	30.43
486.25	67.88
486.43	16.38
486.61	112.35
486.78	25.75
486.96	63.19
487.14	86.60
487.32	60.85
487.50	32.77
487.68	16.38
487.85	58.51
488.03	30.43
488.21	2.34
488.39	42.13
488.57	35.11
488.75	42.13
488.92	53.83
489.10	63.19
489.28	65.54
489.46	30.43
489.64	39.79
489.81	21.06
489.99	11.70
490.17	30.43
490.35	21.06
490.53	16.38
490.70	4.68
490.88	56.17
491.06	65.54
491.24	98.30
491.41	63.19
491.59	88.94
491.77	86.60
491.95	32.77
492.13	16.38
492.30	79.58
492.48	21.06
492.66	42.13
492.84	46.81
493.01	28.09
493.19	0.00
493.37	63.19
493.54	91.28
493.72	32.77
493.90	16.38
494.08	51.49
494.25	21.06
494.43	37.45
494.61	72.56
494.79	0.00
494.96	18.72
495.14	56.17
495.32	49.15
495.49	35.11
495.67	0.00
495.85	86.60
496.02	39.79
496.20	32.77
496.38	42.13
496.55	53.83
496.73	0.00
496.91	21.06
497.09	67.88
497.26	0.00
497.44	102.98
497.62	93.62
497.79	11.70
497.97	0.00
498.14	0.00
498.32	37.45
498.50	39.79
498.67	35.11
498.85	84.26
499.03	56.17
499.20	39.79
499.38	53.83
499.56	56.17
499.73	49.15
499.91	28.09
500.08	30.43
500.26	16.38
500.44	14.04
500.61	95.96
500.79	46.81
500.97	58.51
501.14	2.34
501.32	0.00
501.49	46.81
501.67	4.68
501.84	60.85
502.02	56.17
502.20	63.19
502.37	67.88
502.55	0.00
502.72	4.68
502.90	51.49
503.07	28.09
503.25	30.43
503.43	91.28
503.60	49.15
503.78	44.47
503.95	81.92
504.13	42.13
504.30	65.54
504.48	53.83
504.65	77.24
504.83	49.15
505.01	35.11
505.18	65.54
505.36	0.00
505.53	77.24
505.71	21.06
505.88	0.00
506.06	51.49
506.23	7.02
506.41	11.70
506.58	63.19
506.76	49.15
506.93	0.00
507.11	0.00
507.28	98.30
507.46	91.28
507.63	53.83
507.81	44.47
507.98	44.47
508.16	37.45
508.33	0.00
508.50	0.00
508.68	58.51
508.85	35.11
509.03	91.28
509.20	37.45
509.38	16.38
509.55	37.45
509.73	100.64
509.90	28.09
510.08	56.17
510.25	74.90
510.42	86.60
510.60	42.13
510.77	77.24
510.95	65.54
511.12	0.00
511.30	0.00
511.47	25.75
511.64	0.00
511.82	44.47
511.99	32.77
512.17	0.00
512.34	114.69
512.51	91.28
512.69	65.54
512.86	58.51
513.04	23.41
513.21	70.22
513.38	0.00
513.56	18.72
513.73	32.77
513.90	56.17
514.08	74.90
514.25	65.54
514.43	37.45
514.60	16.38
514.77	39.79
514.95	0.00
515.12	9.36
515.29	21.06
515.47	58.51
515.64	21.06
515.81	30.43
515.99	39.79
516.16	56.17
516.33	9.36
516.51	74.90
516.68	21.06
516.85	35.11
517.03	0.00
517.20	63.19
517.37	0.00
517.54	60.85
517.72	42.13
517.89	0.00
518.06	84.26
518.24	60.85
518.41	60.85
518.58	74.90
518.75	0.00
518.93	9.36
519.10	28.09
519.27	32.77
519.45	46.81
519.62	124.05
519.79	46.81
519.96	60.85
520.14	21.06
520.31	23.41
520.48	4.68
520.65	0.00
520.83	32.77
521.00	105.32
521.17	60.85
521.34	102.98
521.52	9.36
521.69	37.45
521.86	0.00
522.03	0.00
522.20	72.56
522.38	0.00
522.55	81.92
522.72	32.77
522.89	16.38
523.07	58.51
523.24	11.70
523.41	35.11
523.58	37.45
523.75	44.47
523.92	65.54
524.10	30.43
524.27	51.49
524.44	72.56
524.61	11.70
524.78	11.70
524.96	32.77
525.13	49.15
525.30	0.00
525.47	35.11
525.64	79.58
525.81	46.81
525.98	28.09
526.16	63.19
526.33	14.04
526.50	4.68
526.67	25.75
526.84	81.92
527.01	0.00
527.18	4.68
527.36	70.22
527.53	42.13
527.70	58.51
527.87	21.06
528.04	74.90
528.21	25.75
528.38	58.51
528.55	51.49
528.72	14.04
528.89	44.47
529.07	51.49
529.24	86.60
529.41	72.56
529.58	0.00
529.75	44.47
529.92	119.37
530.09	44.47
530.26	56.17
530.43	79.58
530.60	28.09
530.77	65.54
530.94	49.15
531.11	35.11
531.28	42.13
531.46	32.77
531.63	39.79
531.80	110.01
531.97	49.15
532.14	28.09
532.31	42.13
532.48	0.00
532.65	67.88
532.82	0.00
532.99	0.00
533.16	37.45
533.33	23.41
533.50	168.52
533.67	93.62
533.84	81.92
534.01	86.60
534.18	51.49
534.35	11.70
534.52	35.11
534.69	0.00
534.86	46.81
535.03	21.06
535.20	23.41
535.37	39.79
535.54	23.41
535.71	32.77
535.88	37.45
536.05	37.45
536.22	0.00
536.38	86.60
536.55	51.49
536.72	14.04
536.89	0.00
537.06	0.00
537.23	51.49
537.40	37.45
537.57	56.17
537.74	46.81
537.91	81.92
538.08	35.11
538.25	91.28
538.42	138.09
538.59	30.43
538.75	9.36
538.92	4.68
539.09	21.06
539.26	77.24
539.43	44.47
539.60	86.60
539.77	119.37
539.94	35.11
540.11	53.83
540.28	74.90
540.44	49.15
540.61	53.83
540.78	0.00
540.95	51.49
541.12	4.68
541.29	18.72
541.46	42.13
541.62	11.70
541.79	53.83
541.96	39.79
542.13	23.41
542.30	0.00
542.47	39.79
542.63	51.49
542.80	42.13
542.97	0.00
543.14	16.38
543.31	21.06
543.48	72.56
543.64	110.01
543.81	46.81
543.98	60.85
544.15	21.06
544.32	0.00
544.48	30.43
544.65	25.75
544.82	133.41
544.99	18.72
545.16	25.75
545.32	63.19
545.49	74.90
545.66	56.17
545.83	0.00
546.00	0.00
546.16	91.28
546.33	79.58
546.50	100.64
546.67	25.75
546.83	58.51
547.00	2.34
547.17	0.00
547.34	16.38
547.50	30.43
547.67	0.00
547.84	0.00
548.00	67.88
548.17	42.13
548.34	44.47
548.51	25.75
548.67	0.00
548.84	84.26
549.01	77.24
549.18	0.00
549.34	0.00
549.51	0.00
549.68	84.26
549.84	128.73
550.01	35.11
550.18	42.13
550.34	9.36
550.51	81.92
550.68	46.81
550.84	86.60
551.01	49.15
551.18	32.77
551.34	18.72
551.51	2.34
551.68	35.11
551.84	88.94
552.01	51.49
552.18	102.98
552.34	35.11
552.51	0.00
552.68	30.43
552.84	30.43
553.01	28.09
553.18	49.15
553.34	51.49
553.51	21.06
553.67	58.51
553.84	37.45
554.01	42.13
554.17	37.45
554.34	0.00
554.51	88.94
554.67	39.79
554.84	117.03
555.00	0.00
555.17	21.06
555.33	42.13
555.50	0.00
555.67	28.09
555.83	14.04
556.00	16.38
556.16	67.88
556.33	0.00
556.50	49.15
556.66	56.17
556.83	0.00
556.99	35.11
557.16	14.04
557.32	23.41
557.49	2.34
557.65	16.38
557.82	28.09
557.98	39.79
558.15	30.43
558.32	0.00
558.48	9.36
558.65	30.43
558.81	63.19
558.98	28.09
559.14	4.68
559.31	46.81
559.47	44.47
559.64	46.81
559.80	81.92
559.97	100.64
560.13	70.22
560.30	56.17
560.46	0.00
560.63	35.11
560.79	0.00
560.96	56.17
561.12	46.81
561.29	81.92
561.45	100.64
561.61	42.13
561.78	121.71
561.94	42.13
562.11	65.54
562.27	35.11
562.44	42.13
562.60	4.68
562.77	30.43
562.93	25.75
563.10	37.45
563.26	93.62
563.42	67.88
563.59	105.32
563.75	0.00
563.92	65.54
564.08	28.09
564.24	72.56
564.41	23.41
564.57	30.43
564.74	70.22
564.90	9.36
565.07	51.49
565.23	30.43
565.39	56.17
565.56	9.36
565.72	46.81
565.88	72.56
566.05	23.41
566.21	0.00
566.38	0.00
566.54	9.36
566.70	23.41
566.87	42.13
567.03	7.02
567.19	79.58
567.36	65.54
567.52	28.09
567.68	51.49
567.85	21.06
568.01	67.88
568.17	51.49
568.34	25.75
568.50	4.68
568.66	16.38
568.83	0.00
568.99	0.00
569.15	0.00
569.32	49.15
569.48	53.83
569.64	46.81
569.81	18.72
569.97	100.64
570.13	56.17
570.30	23.41
570.46	0.00
570.62	23.41
570.78	70.22
570.95	0.00
571.11	23.41
571.27	74.90
571.43	35.11
571.60	0.00
571.76	79.58
571.92	0.00
572.09	46.81
572.25	0.00
572.41	42.13
572.57	39.79
572.74	14.04
572.90	0.00
573.06	0.00
573.22	124.05
573.38	53.83
573.55	0.00
573.71	67.88
573.87	35.11
574.03	44.47
574.20	49.15
574.36	67.88
574.52	14.04
574.68	0.00
574.84	81.92
575.01	39.79
575.17	14.04
575.33	0.00
575.49	16.38
575.65	58.51
575.82	81.92
575.98	0.00
576.14	98.30
576.30	39.79
576.46	18.72
576.62	0.00
576.79	79.58
576.95	124.05
577.11	7.02
577.27	112.35
577.43	23.41
577.59	72.56
577.75	28.09
577.92	32.77
578.08	23.41
578.24	23.41
578.40	0.00
578.56	63.19
578.72	14.04
578.88	72.56
579.04	77.24
579.21	0.00
579.37	14.04
579.53	46.81
579.69	4.68
579.85	95.96
580.01	42.13
580.17	0.00
580.33	0.00
580.49	0.00
580.65	51.49
580.82	114.69
580.98	32.77
581.14	35.11
581.30	42.13
581.46	16.38
581.62	56.17
581.78	126.39
581.94	63.19
582.10	51.49
582.26	72.56
582.42	65.54
582.58	81.92
582.74	14.04
582.90	110.01
583.06	18.72
583.22	49.15
583.38	49.15
583.54	77.24
583.70	84.26
583.86	56.17
584.02	11.70
584.18	70.22
584.34	58.51
584.50	290.23
584.66	1256.87
584.82	3030.99
584.98	3873.59
585.14	3454.63
585.30	2265.64
585.46	1460.49
585.62	830.89
585.78	411.93
585.94	198.95
586.10	86.60
586.26	23.41
586.42	124.05
586.58	95.96
586.74	58.51
586.90	14.04
587.06	28.09
587.22	53.83
587.38	0.00
587.54	51.49
587.70	245.76
587.86	271.50
588.02	315.97
588.18	241.08
588.34	182.56
588.49	117.03
588.65	30.43
588.81	56.17
588.97	0.00
589.13	65.54
589.29	95.96
589.45	63.19
589.61	77.24
589.77	0.00
589.93	7.02
590.08	35.11
590.24	42.13
590.40	28.09
590.56	51.49
590.72	11.70
590.88	0.00
591.04	25.75
591.20	119.37
591.35	25.75
591.51	67.88
591.67	30.43
591.83	28.09
591.99	53.83
592.15	53.83
592.31	98.30
592.46	25.75
592.62	46.81
592.78	4.68
592.94	65.54
593.10	107.66
593.26	44.47
593.41	107.66
593.57	58.51
593.73	107.66
593.89	220.01
594.05	400.23
594.20	599.18
594.36	545.34
594.52	332.36
594.68	280.86
594.84	152.13
594.99	149.79
595.15	35.11
595.31	53.83
595.47	105.32
595.62	102.98
595.78	9.36
595.94	0.00
596.10	88.94
596.25	84.26
596.41	0.00
596.57	25.75
596.73	63.19
596.88	39.79
597.04	105.32
597.20	191.92
597.36	170.86
597.51	128.73
597.67	18.72
597.83	37.45
597.99	51.49
598.14	49.15
598.30	0.00
598.46	30.43
598.61	32.77
598.77	74.90
598.93	77.24
599.09	37.45
599.24	9.36
599.40	25.75
599.56	16.38
599.71	77.24
599.87	32.77
600.03	0.00
600.18	0.00
600.34	93.62
600.50	16.38
600.65	0.00
600.81	84.26
600.97	49.15
601.12	28.09
601.28	110.01
601.44	11.70
601.59	37.45
601.75	16.38
601.91	25.75
602.06	84.26
602.22	21.06
602.37	0.00
602.53	187.24
602.69	184.90
602.84	187.24
603.00	114.69
603.16	86.60
603.31	70.22
603.47	114.69
603.62	65.54
603.78	9.36
603.94	9.36
604.09	25.75
604.25	0.00
604.40	32.77
604.56	0.00
604.71	126.39
604.87	32.77
605.03	44.47
605.18	173.20
605.34	63.19
605.49	65.54
605.65	14.04
605.80	25.75
605.96	0.00
606.12	9.36
606.27	28.09
606.43	25.75
606.58	28.09
606.74	46.81
606.89	250.44
607.05	320.65
607.20	421.30
607.36	379.17
607.51	318.31
607.67	156.82
607.82	37.45
607.98	128.73
608.13	35.11
608.29	37.45
608.44	135.75
608.60	21.06
608.75	67.88
608.91	119.37
609.06	257.46
609.22	596.84
609.37	786.42
609.53	681.10
609.68	594.50
609.84	397.89
609.99	231.71
610.15	98.30
610.30	140.43
610.46	74.90
610.61	0.00
610.76	14.04
610.92	58.51
611.07	77.24
611.23	51.49
611.38	37.45
611.54	53.83
611.69	81.92
611.84	32.77
612.00	0.00
612.15	60.85
612.31	70.22
612.46	32.77
612.62	37.45
612.77	44.47
612.92	93.62
613.08	39.79
613.23	32.77
613.39	110.01
613.54	28.09
613.69	299.59
613.85	697.48
614.00	1167.93
614.15	1181.97
614.31	837.91
614.46	559.39
614.62	423.64
614.77	290.23
614.92	138.09
615.08	91.28
615.23	95.96
615.38	14.04
615.54	11.70
615.69	42.13
615.84	208.31
616.00	306.61
616.15	266.82
616.30	266.82
616.46	273.84
616.61	110.01
616.76	42.13
616.92	51.49
617.07	30.43
617.22	70.22
617.37	56.17
617.53	102.98
617.68	0.00
617.83	86.60
617.99	32.77
618.14	30.43
618.29	58.51
618.45	98.30
618.60	25.75
618.75	53.83
618.90	0.00
619.06	25.75
619.21	65.54
619.36	28.09
619.51	44.47
619.67	0.00
619.82	91.28
619.97	7.02
620.12	0.00
620.28	60.85
620.43	100.64
620.58	60.85
620.73	30.43
620.89	88.94
621.04	46.81
621.19	128.73
621.34	229.37
621.49	133.41
621.65	184.90
621.80	175.54
621.95	161.50
622.10	70.22
622.25	79.58
622.41	86.60
622.56	58.51
622.71	25.75
622.86	14.04
623.01	53.83
623.16	72.56
623.32	25.75
623.47	11.70
623.62	56.17
623.77	74.90
623.92	35.11
624.07	51.49
624.23	46.81
624.38	63.19
624.53	25.75
624.68	67.88
624.83	37.45
624.98	16.38
625.13	51.49
625.29	58.51
625.44	51.49
625.59	51.49
625.74	49.15
625.89	30.43
626.04	208.31
626.19	400.23
626.34	559.39
626.49	669.39
626.65	463.43
626.80	299.59
626.95	198.95
627.10	166.18
627.25	81.92
627.40	39.79
627.55	0.00
627.70	44.47
627.85	53.83
628.00	4.68
628.15	39.79
628.30	39.79
628.45	0.00
628.60	14.04
628.76	28.09
628.91	37.45
629.06	32.77
629.21	77.24
629.36	53.83
629.51	60.85
629.66	32.77
629.81	23.41
629.96	67.88
630.11	180.22
630.26	102.98
630.41	142.77
630.56	152.13
630.71	37.45
630.86	18.72
631.01	56.17
631.16	16.38
631.31	32.77
631.46	79.58
631.61	49.15
631.76	84.26
631.91	49.15
632.06	0.00
632.21	0.00
632.36	39.79
632.51	77.24
632.66	84.26
632.81	159.16
632.96	210.65
633.10	428.32
633.25	491.51
633.40	416.62
633.55	280.86
633.70	212.99
633.85	65.54
634.00	77.24
634.15	53.83
634.30	28.09
634.45	51.49
634.60	84.26
634.75	88.94
634.90	39.79
635.05	63.19
635.19	32.77
635.34	25.75
635.49	0.00
635.64	39.79
635.79	53.83
635.94	67.88
636.09	39.79
636.24	79.58
636.39	95.96
636.53	67.88
636.68	44.47
636.83	0.00
636.98	56.17
637.13	28.09
637.28	28.09
637.43	110.01
637.57	18.72
637.72	234.05
637.87	559.39
638.02	821.53
638.17	770.04
638.32	617.90
638.46	437.68
638.61	229.37
638.76	163.84
638.91	84.26
639.06	53.83
639.20	67.88
639.35	35.11
639.50	102.98
639.65	374.49
639.80	788.76
639.94	1118.78
640.09	1221.76
640.24	945.58
640.39	641.31
640.54	442.36
640.68	259.80
640.83	128.73
640.98	60.85
641.13	56.17
641.27	49.15
641.42	53.83
641.57	117.03
641.72	0.00
641.86	77.24
642.01	16.38
642.16	74.90
642.31	30.43
642.45	0.00
642.60	0.00
642.75	0.00
642.90	63.19
643.04	21.06
643.19	30.43
643.34	0.00
643.48	93.62
643.63	74.90
643.78	35.11
643.93	84.26
644.07	46.81
644.22	2.34
644.37	0.00
644.51	46.81
644.66	18.72
644.81	49.15
644.95	23.41
645.10	0.00
645.25	0.00
645.39	37.45
645.54	95.96
645.69	74.90
645.83	23.41
645.98	28.09
646.13	35.11
646.27	0.00
646.42	0.00
646.57	0.00
646.71	30.43
646.86	42.13
647.00	11.70
647.15	112.35
647.30	63.19
647.44	25.75
647.59	28.09
647.74	51.49
647.88	79.58
648.03	63.19
648.17	32.77
648.32	7.02
648.47	51.49
648.61	42.13
648.76	49.15
648.90	42.13
649.05	65.54
649.20	60.85
649.34	11.70
649.49	112.35
649.63	7.02
649.78	11.70
649.92	86.60
650.07	70.22
650.21	381.51
650.36	543.00
650.51	688.12
650.65	496.19
650.80	400.23
650.94	311.29
651.09	124.05
651.23	152.13
651.38	65.54
651.52	44.47
651.67	11.70
651.81	56.17
651.96	14.04
652.10	86.60
652.25	9.36
652.39	18.72
652.54	63.19
652.68	51.49
652.83	114.69
652.97	297.25
653.12	227.03
653.26	210.65
653.41	131.07
653.55	156.82
653.70	173.20
653.84	37.45
653.99	60.85
654.13	4.68
654.27	84.26
654.42	0.00
654.56	49.15
654.71	42.13
654.85	4.68
655.00	0.00
655.14	28.09
655.29	56.17
655.43	32.77
655.57	0.00
655.72	0.00
655.86	70.22
656.01	0.00
656.15	32.77
656.30	74.90
656.44	0.00
656.58	0.00
656.73	0.00
656.87	88.94
657.01	63.19
657.16	39.79
657.30	53.83
657.45	51.49
657.59	70.22
657.73	0.00
657.88	81.92
658.02	53.83
658.16	102.98
658.31	7.02
658.45	25.75
658.60	91.28
658.74	63.19
658.88	56.17
659.03	9.36
659.17	67.88
659.31	49.15
659.46	117.03
659.60	318.31
659.74	344.06
659.89	341.72
660.03	161.50
660.17	81.92
660.32	70.22
660.46	91.28
660.60	30.43
660.74	95.96
660.89	65.54
661.03	49.15
661.17	32.77
661.32	44.47
661.46	0.00
661.60	88.94
661.74	0.00
661.89	58.51
662.03	4.68
662.17	95.96
662.31	0.00
662.46	9.36
662.60	88.94
662.74	56.17
662.88	16.38
663.03	100.64
663.17	51.49
663.31	18.72
663.45	30.43
663.60	51.49
663.74	25.75
663.88	49.15
664.02	44.47
664.17	23.41
664.31	2.34
664.45	16.38
664.59	32.77
664.73	51.49
664.88	67.88
665.02	42.13
665.16	53.83
665.30	0.00
665.44	56.17
665.59	100.64
665.73	56.17
665.87	23.41
666.01	32.77
666.15	74.90
666.29	35.11
666.44	72.56
666.58	14.04
666.72	0.00
666.86	21.06
667.00	9.36
667.14	53.83
667.28	79.58
667.43	292.57
667.57	477.47
667.71	543.00
667.85	383.85
667.99	332.36
668.13	297.25
668.27	168.52
668.41	117.03
668.56	60.85
668.70	72.56
668.84	53.83
668.98	0.00
669.12	44.47
669.26	0.00
669.40	18.72
669.54	49.15
669.68	0.00
669.82	4.68
669.96	21.06
670.10	102.98
670.25	28.09
670.39	0.00
670.53	4.68
670.67	39.79
670.81	28.09
670.95	14.04
671.09	67.88
671.23	142.77
671.37	266.82
671.51	379.17
671.65	297.25
671.79	252.78
671.93	196.60
672.07	114.69
672.21	56.17
672.35	67.88
672.49	58.51
672.63	14.04
672.77	86.60
672.91	35.11
673.05	110.01
673.19	46.81
673.33	39.79
673.47	0.00
673.61	4.68
673.75	39.79
673.89	14.04
674.03	23.41
674.17	81.92
674.31	44.47
674.45	105.32
674.59	7.02
674.73	7.02
674.87	0.00
675.01	2.34
675.15	84.26
675.29	30.43
675.43	0.00
675.56	56.17
675.70	0.00
675.84	39.79
675.98	74.90
676.12	0.00
676.26	49.15
676.40	63.19
676.54	0.00
676.68	37.45
676.82	72.56
676.96	0.00
677.10	39.79
677.23	42.13
677.37	42.13
677.51	58.51
677.65	67.88
677.79	77.24
677.93	56.17
678.07	11.70
678.21	0.00
678.34	93.62
678.48	11.70
678.62	67.88
678.76	39.79
678.90	74.90
679.04	58.51
679.18	114.69
679.31	46.81
679.45	70.22
679.59	77.24
679.73	23.41
679.87	9.36
680.00	70.22
680.14	126.39
680.28	51.49
680.42	28.09
680.56	65.54
680.70	53.83
680.83	28.09
680.97	65.54
681.11	88.94
681.25	79.58
681.39	35.11
681.52	49.15
681.66	84.26
681.80	56.17
681.94	65.54
682.07	0.00
682.21	0.00
682.35	9.36
682.49	56.17
682.62	16.38
682.76	0.00
682.90	16.38
683.04	28.09
683.17	0.00
683.31	70.22
683.45	0.00
683.59	93.62
683.72	63.19
683.86	60.85
684.00	105.32
684.13	0.00
684.27	42.13
684.41	46.81
684.55	39.79
684.68	100.64
684.82	42.13
684.96	30.43
685.09	0.00
685.23	30.43
685.37	14.04
685.50	42.13
685.64	11.70
685.78	35.11
685.91	49.15
686.05	0.00
686.19	44.47
686.32	23.41
686.46	9.36
686.60	49.15
686.73	0.00
686.87	53.83
687.01	42.13
687.14	65.54
687.28	0.00
687.42	49.15
687.55	65.54
687.69	0.00
687.82	23.41
687.96	16.38
688.10	0.00
688.23	35.11
688.37	0.00
688.50	86.60
688.64	70.22
688.78	100.64
688.91	21.06
689.05	49.15
689.18	37.45
689.32	46.81
689.46	25.75
689.59	79.58
689.73	58.51
689.86	16.38
690.00	35.11
690.13	60.85
690.27	0.00
690.41	21.06
690.54	25.75
690.68	23.41
690.81	14.04
690.95	28.09
691.08	42.13
691.22	16.38
691.35	0.00
691.49	4.68
691.62	0.00
691.76	49.15
691.89	100.64
692.03	9.36
692.16	30.43
692.30	11.70
692.43	79.58
692.57	110.01
692.70	231.71
692.84	287.89
692.97	259.80
693.11	159.16
693.24	140.43
693.38	161.50
693.51	105.32
693.65	21.06
693.78	51.49
693.92	16.38
694.05	95.96
694.19	53.83
694.32	7.02
694.45	28.09
694.59	0.00
694.72	102.98
694.86	0.00
694.99	0.00
695.13	74.90
695.26	0.00
695.39	16.38
695.53	51.49
695.66	46.81
695.80	44.47
695.93	77.24
696.07	14.04
696.20	49.15
696.33	25.75
696.47	79.58
696.60	23.41
696.73	91.28
696.87	0.00
697.00	0.00
697.14	16.38
697.27	30.43
697.40	0.00
697.54	23.41
697.67	0.00
697.80	60.85
697.94	0.00
698.07	65.54
698.21	11.70
698.34	65.54
698.47	35.11
698.61	46.81
698.74	32.77
698.87	16.38
699.01	0.00
699.14	63.19
699.27	0.00
699.40	0.00
699.54	72.56
699.67	35.11
699.80	11.70
699.94	91.28
700.07	16.38
700.20	0.00
700.34	56.17
700.47	18.72
700.60	56.17
700.73	16.38
700.87	0.00
701.00	16.38
701.13	14.04
701.26	49.15
701.40	9.36
701.53	32.77
701.66	0.00
701.79	0.00
701.93	88.94
702.06	49.15
702.19	0.00
702.32	60.85
702.46	11.70
702.59	42.13
702.72	114.69
702.85	112.35
702.99	278.52
703.12	458.74
703.25	465.77
703.38	397.89
703.51	402.57
703.65	320.65
703.78	210.65
703.91	74.90
704.04	91.28
704.17	107.66
704.31	105.32
704.44	95.96
704.57	42.13
704.70	30.43
704.83	51.49
704.96	77.24
705.10	67.88
705.23	128.73
>>>>>End Processed Spectral Data<<<<<
