SpectraSuite Data File
++++++++++++++++++++++++++++++++++++
Date: Fri Oct 04 12:13:35 GMT-05:00 2013
User: price-jones
Dark Spectrum Present: No
Reference Spectrum Present: No
Number of Sampled Component Spectra: 1
Spectrometers: USB2+H05261
Integration Time (usec): 10000 (USB2+H05261)
Spectra Averaged: 1 (USB2+H05261)
Boxcar Smoothing: 0 (USB2+H05261)
Correct for Electrical Dark: No (USB2+H05261)
Strobe/Lamp Enabled: No (USB2+H05261)
Correct for Detector Non-linearity: No (USB2+H05261)
Correct for Stray Light: No (USB2+H05261)
Number of Pixels in Processed Spectrum: 2048
>>>>>Begin Processed Spectral Data<<<<<
365.73	0.00
365.92	0.00
366.12	0.00
366.32	0.00
366.52	0.00
366.72	0.00
366.91	0.00
367.11	0.00
367.31	0.00
367.51	0.00
367.70	0.00
367.90	0.00
368.10	0.00
368.30	0.00
368.49	0.00
368.69	0.00
368.89	0.00
369.09	0.00
369.28	0.00
369.48	0.00
369.68	0.00
369.87	0.00
370.07	0.00
370.27	0.00
370.47	0.00
370.66	0.00
370.86	0.00
371.06	0.00
371.25	0.00
371.45	0.00
371.65	0.00
371.84	0.00
372.04	0.00
372.24	0.00
372.44	0.00
372.63	35.11
372.83	30.43
373.03	30.43
373.22	0.00
373.42	11.70
373.62	28.09
373.81	81.92
374.01	81.92
374.21	16.38
374.40	35.11
374.60	16.38
374.79	18.72
374.99	72.56
375.19	42.13
375.38	30.43
375.58	30.43
375.78	56.17
375.97	79.58
376.17	67.88
376.37	21.06
376.56	23.41
376.76	16.38
376.95	7.02
377.15	65.54
377.35	51.49
377.54	65.54
377.74	65.54
377.93	60.85
378.13	39.79
378.33	51.49
378.52	28.09
378.72	0.00
378.91	44.47
379.11	28.09
379.31	0.00
379.50	18.72
379.70	0.00
379.89	37.45
380.09	0.00
380.28	44.47
380.48	44.47
380.68	35.11
380.87	28.09
381.07	16.38
381.26	39.79
381.46	79.58
381.65	53.83
381.85	0.00
382.04	0.00
382.24	30.43
382.43	16.38
382.63	0.00
382.83	0.00
383.02	72.56
383.22	42.13
383.41	0.00
383.61	7.02
383.80	51.49
384.00	7.02
384.19	0.00
384.39	72.56
384.58	0.00
384.78	0.00
384.97	0.00
385.17	14.04
385.36	53.83
385.56	0.00
385.75	23.41
385.95	0.00
386.14	0.00
386.34	35.11
386.53	7.02
386.72	32.77
386.92	70.22
387.11	16.38
387.31	0.00
387.50	63.19
387.70	2.34
387.89	39.79
388.09	63.19
388.28	0.00
388.48	16.38
388.67	9.36
388.86	25.75
389.06	60.85
389.25	30.43
389.45	30.43
389.64	23.41
389.84	18.72
390.03	37.45
390.22	42.13
390.42	7.02
390.61	25.75
390.81	35.11
391.00	133.41
391.19	46.81
391.39	25.75
391.58	0.00
391.78	0.00
391.97	14.04
392.16	35.11
392.36	28.09
392.55	0.00
392.75	63.19
392.94	53.83
393.13	49.15
393.33	21.06
393.52	0.00
393.71	0.00
393.91	23.41
394.10	0.00
394.29	0.00
394.49	0.00
394.68	4.68
394.88	74.90
395.07	44.47
395.26	0.00
395.46	0.00
395.65	51.49
395.84	0.00
396.04	39.79
396.23	51.49
396.42	2.34
396.62	18.72
396.81	18.72
397.00	25.75
397.19	7.02
397.39	0.00
397.58	51.49
397.77	56.17
397.97	70.22
398.16	39.79
398.35	39.79
398.55	25.75
398.74	35.11
398.93	2.34
399.12	0.00
399.32	51.49
399.51	9.36
399.70	70.22
399.90	79.58
400.09	72.56
400.28	28.09
400.47	0.00
400.67	49.15
400.86	0.00
401.05	58.51
401.24	39.79
401.44	7.02
401.63	72.56
401.82	0.00
402.01	0.00
402.21	0.00
402.40	39.79
402.59	44.47
402.78	37.45
402.97	32.77
403.17	51.49
403.36	0.00
403.55	0.00
403.74	16.38
403.93	21.06
404.13	72.56
404.32	100.64
404.51	28.09
404.70	0.00
404.89	0.00
405.09	100.64
405.28	25.75
405.47	63.19
405.66	49.15
405.85	67.88
406.05	67.88
406.24	51.49
406.43	35.11
406.62	4.68
406.81	0.00
407.00	11.70
407.20	0.00
407.39	4.68
407.58	0.00
407.77	44.47
407.96	37.45
408.15	60.85
408.34	14.04
408.54	95.96
408.73	30.43
408.92	35.11
409.11	63.19
409.30	124.05
409.49	18.72
409.68	60.85
409.87	0.00
410.07	18.72
410.26	44.47
410.45	88.94
410.64	46.81
410.83	51.49
411.02	0.00
411.21	4.68
411.40	0.00
411.59	0.00
411.78	0.00
411.98	51.49
412.17	46.81
412.36	0.00
412.55	56.17
412.74	72.56
412.93	25.75
413.12	35.11
413.31	51.49
413.50	110.01
413.69	18.72
413.88	35.11
414.07	32.77
414.26	0.00
414.45	44.47
414.64	32.77
414.83	28.09
415.02	28.09
415.22	0.00
415.41	23.41
415.60	18.72
415.79	30.43
415.98	100.64
416.17	81.92
416.36	88.94
416.55	58.51
416.74	28.09
416.93	32.77
417.12	72.56
417.31	0.00
417.50	11.70
417.69	11.70
417.88	58.51
418.07	11.70
418.26	37.45
418.45	53.83
418.64	84.26
418.83	9.36
419.02	32.77
419.21	35.11
419.39	81.92
419.58	114.69
419.77	23.41
419.96	0.00
420.15	56.17
420.34	77.24
420.53	28.09
420.72	0.00
420.91	28.09
421.10	88.94
421.29	23.41
421.48	0.00
421.67	30.43
421.86	35.11
422.05	81.92
422.24	14.04
422.43	28.09
422.61	51.49
422.80	23.41
422.99	42.13
423.18	30.43
423.37	0.00
423.56	11.70
423.75	30.43
423.94	0.00
424.13	35.11
424.32	65.54
424.50	9.36
424.69	117.03
424.88	0.00
425.07	21.06
425.26	30.43
425.45	105.32
425.64	21.06
425.83	16.38
426.01	14.04
426.20	21.06
426.39	35.11
426.58	77.24
426.77	100.64
426.96	14.04
427.15	0.00
427.33	4.68
427.52	35.11
427.71	18.72
427.90	77.24
428.09	74.90
428.28	72.56
428.46	84.26
428.65	72.56
428.84	0.00
429.03	0.00
429.22	84.26
429.40	107.66
429.59	0.00
429.78	53.83
429.97	37.45
430.16	32.77
430.34	86.60
430.53	51.49
430.72	2.34
430.91	37.45
431.10	46.81
431.28	44.47
431.47	39.79
431.66	70.22
431.85	35.11
432.03	32.77
432.22	60.85
432.41	49.15
432.60	0.00
432.79	42.13
432.97	28.09
433.16	9.36
433.35	4.68
433.54	11.70
433.72	37.45
433.91	46.81
434.10	42.13
434.28	65.54
434.47	65.54
434.66	100.64
434.85	72.56
435.03	42.13
435.22	105.32
435.41	65.54
435.59	74.90
435.78	67.88
435.97	60.85
436.16	16.38
436.34	0.00
436.53	100.64
436.72	74.90
436.90	49.15
437.09	21.06
437.28	11.70
437.46	11.70
437.65	88.94
437.84	9.36
438.02	44.47
438.21	7.02
438.40	91.28
438.58	9.36
438.77	30.43
438.96	44.47
439.14	0.00
439.33	0.00
439.52	175.54
439.70	23.41
439.89	91.28
440.08	86.60
440.26	72.56
440.45	28.09
440.63	42.13
440.82	79.58
441.01	81.92
441.19	0.00
441.38	98.30
441.57	28.09
441.75	95.96
441.94	28.09
442.12	28.09
442.31	81.92
442.50	117.03
442.68	107.66
442.87	42.13
443.05	35.11
443.24	14.04
443.43	42.13
443.61	119.37
443.80	11.70
443.98	98.30
444.17	86.60
444.35	67.88
444.54	91.28
444.73	28.09
444.91	63.19
445.10	131.07
445.28	86.60
445.47	49.15
445.65	35.11
445.84	30.43
446.02	110.01
446.21	58.51
446.39	63.19
446.58	65.54
446.77	49.15
446.95	86.60
447.14	0.00
447.32	67.88
447.51	58.51
447.69	0.00
447.88	107.66
448.06	131.07
448.25	18.72
448.43	51.49
448.62	4.68
448.80	77.24
448.99	100.64
449.17	138.09
449.36	28.09
449.54	21.06
449.73	30.43
449.91	0.00
450.10	0.00
450.28	79.58
450.46	16.38
450.65	58.51
450.83	0.00
451.02	70.22
451.20	56.17
451.39	56.17
451.57	91.28
451.76	79.58
451.94	18.72
452.13	32.77
452.31	46.81
452.49	63.19
452.68	110.01
452.86	74.90
453.05	98.30
453.23	14.04
453.42	30.43
453.60	91.28
453.78	37.45
453.97	28.09
454.15	37.45
454.34	60.85
454.52	0.00
454.70	98.30
454.89	39.79
455.07	67.88
455.26	65.54
455.44	91.28
455.62	98.30
455.81	112.35
455.99	14.04
456.17	14.04
456.36	21.06
456.54	72.56
456.73	42.13
456.91	84.26
457.09	21.06
457.28	81.92
457.46	133.41
457.64	42.13
457.83	63.19
458.01	88.94
458.19	98.30
458.38	18.72
458.56	23.41
458.74	65.54
458.93	102.98
459.11	28.09
459.29	72.56
459.48	128.73
459.66	16.38
459.84	70.22
460.03	58.51
460.21	16.38
460.39	60.85
460.57	14.04
460.76	72.56
460.94	44.47
461.12	88.94
461.31	42.13
461.49	88.94
461.67	93.62
461.85	56.17
462.04	14.04
462.22	95.96
462.40	49.15
462.59	100.64
462.77	124.05
462.95	81.92
463.13	46.81
463.32	25.75
463.50	35.11
463.68	58.51
463.86	67.88
464.05	53.83
464.23	42.13
464.41	21.06
464.59	23.41
464.78	0.00
464.96	0.00
465.14	7.02
465.32	39.79
465.50	63.19
465.69	67.88
465.87	124.05
466.05	77.24
466.23	0.00
466.41	72.56
466.60	93.62
466.78	30.43
466.96	60.85
467.14	117.03
467.32	14.04
467.51	131.07
467.69	70.22
467.87	56.17
468.05	88.94
468.23	74.90
468.41	11.70
468.60	42.13
468.78	39.79
468.96	67.88
469.14	140.43
469.32	25.75
469.50	81.92
469.69	56.17
469.87	44.47
470.05	23.41
470.23	35.11
470.41	72.56
470.59	46.81
470.77	88.94
470.95	88.94
471.14	0.00
471.32	102.98
471.50	93.62
471.68	49.15
471.86	63.19
472.04	0.00
472.22	53.83
472.40	28.09
472.58	35.11
472.77	70.22
472.95	44.47
473.13	84.26
473.31	35.11
473.49	56.17
473.67	70.22
473.85	14.04
474.03	161.50
474.21	65.54
474.39	84.26
474.57	4.68
474.75	53.83
474.93	51.49
475.12	42.13
475.30	88.94
475.48	39.79
475.66	14.04
475.84	65.54
476.02	39.79
476.20	49.15
476.38	102.98
476.56	56.17
476.74	56.17
476.92	51.49
477.10	107.66
477.28	63.19
477.46	105.32
477.64	77.24
477.82	91.28
478.00	60.85
478.18	42.13
478.36	0.00
478.54	9.36
478.72	37.45
478.90	37.45
479.08	35.11
479.26	2.34
479.44	77.24
479.62	86.60
479.80	79.58
479.98	72.56
480.16	7.02
480.34	49.15
480.52	56.17
480.70	18.72
480.88	46.81
481.06	65.54
481.24	9.36
481.41	147.45
481.59	124.05
481.77	86.60
481.95	107.66
482.13	72.56
482.31	121.71
482.49	84.26
482.67	49.15
482.85	81.92
483.03	95.96
483.21	58.51
483.39	133.41
483.57	53.83
483.74	124.05
483.92	102.98
484.10	119.37
484.28	98.30
484.46	25.75
484.64	88.94
484.82	11.70
485.00	51.49
485.18	86.60
485.35	102.98
485.53	9.36
485.71	95.96
485.89	65.54
486.07	56.17
486.25	4.68
486.43	37.45
486.61	30.43
486.78	0.00
486.96	77.24
487.14	0.00
487.32	110.01
487.50	63.19
487.68	84.26
487.85	39.79
488.03	124.05
488.21	77.24
488.39	79.58
488.57	37.45
488.75	37.45
488.92	110.01
489.10	42.13
489.28	74.90
489.46	49.15
489.64	84.26
489.81	58.51
489.99	124.05
490.17	58.51
490.35	102.98
490.53	88.94
490.70	18.72
490.88	91.28
491.06	79.58
491.24	95.96
491.41	65.54
491.59	88.94
491.77	53.83
491.95	35.11
492.13	0.00
492.30	74.90
492.48	138.09
492.66	9.36
492.84	88.94
493.01	44.47
493.19	81.92
493.37	93.62
493.54	65.54
493.72	98.30
493.90	11.70
494.08	32.77
494.25	44.47
494.43	86.60
494.61	0.00
494.79	128.73
494.96	91.28
495.14	88.94
495.32	35.11
495.49	46.81
495.67	77.24
495.85	149.79
496.02	72.56
496.20	79.58
496.38	77.24
496.55	72.56
496.73	86.60
496.91	7.02
497.09	30.43
497.26	9.36
497.44	74.90
497.62	175.54
497.79	147.45
497.97	93.62
498.14	84.26
498.32	51.49
498.50	84.26
498.67	121.71
498.85	88.94
499.03	102.98
499.20	67.88
499.38	58.51
499.56	86.60
499.73	74.90
499.91	93.62
500.08	74.90
500.26	53.83
500.44	2.34
500.61	67.88
500.79	18.72
500.97	84.26
501.14	32.77
501.32	107.66
501.49	159.16
501.67	147.45
501.84	131.07
502.02	23.41
502.20	49.15
502.37	39.79
502.55	28.09
502.72	32.77
502.90	32.77
503.07	70.22
503.25	88.94
503.43	86.60
503.60	124.05
503.78	70.22
503.95	63.19
504.13	131.07
504.30	95.96
504.48	77.24
504.65	81.92
504.83	100.64
505.01	117.03
505.18	30.43
505.36	67.88
505.53	105.32
505.71	93.62
505.88	114.69
506.06	110.01
506.23	98.30
506.41	107.66
506.58	70.22
506.76	98.30
506.93	128.73
507.11	18.72
507.28	91.28
507.46	37.45
507.63	49.15
507.81	133.41
507.98	102.98
508.16	102.98
508.33	49.15
508.50	67.88
508.68	74.90
508.85	91.28
509.03	81.92
509.20	70.22
509.38	56.17
509.55	95.96
509.73	84.26
509.90	56.17
510.08	95.96
510.25	63.19
510.42	51.49
510.60	32.77
510.77	58.51
510.95	131.07
511.12	149.79
511.30	121.71
511.47	77.24
511.64	74.90
511.82	28.09
511.99	60.85
512.17	138.09
512.34	81.92
512.51	4.68
512.69	65.54
512.86	51.49
513.04	98.30
513.21	126.39
513.38	0.00
513.56	18.72
513.73	16.38
513.90	102.98
514.08	126.39
514.25	100.64
514.43	81.92
514.60	168.52
514.77	74.90
514.95	93.62
515.12	79.58
515.29	98.30
515.47	121.71
515.64	98.30
515.81	95.96
515.99	98.30
516.16	25.75
516.33	84.26
516.51	67.88
516.68	65.54
516.85	0.00
517.03	119.37
517.20	102.98
517.37	138.09
517.54	58.51
517.72	74.90
517.89	107.66
518.06	0.00
518.24	126.39
518.41	51.49
518.58	39.79
518.75	110.01
518.93	77.24
519.10	35.11
519.27	100.64
519.45	65.54
519.62	81.92
519.79	117.03
519.96	74.90
520.14	56.17
520.31	51.49
520.48	56.17
520.65	105.32
520.83	140.43
521.00	110.01
521.17	65.54
521.34	105.32
521.52	46.81
521.69	58.51
521.86	46.81
522.03	35.11
522.20	98.30
522.38	117.03
522.55	95.96
522.72	93.62
522.89	95.96
523.07	46.81
523.24	79.58
523.41	107.66
523.58	72.56
523.75	105.32
523.92	58.51
524.10	74.90
524.27	39.79
524.44	86.60
524.61	117.03
524.78	154.48
524.96	86.60
525.13	126.39
525.30	21.06
525.47	86.60
525.64	110.01
525.81	81.92
525.98	124.05
526.16	58.51
526.33	95.96
526.50	93.62
526.67	28.09
526.84	112.35
527.01	124.05
527.18	67.88
527.36	105.32
527.53	58.51
527.70	51.49
527.87	4.68
528.04	53.83
528.21	37.45
528.38	112.35
528.55	98.30
528.72	100.64
528.89	72.56
529.07	163.84
529.24	93.62
529.41	56.17
529.58	42.13
529.75	37.45
529.92	30.43
530.09	16.38
530.26	145.11
530.43	142.77
530.60	166.18
530.77	124.05
530.94	124.05
531.11	98.30
531.28	79.58
531.46	98.30
531.63	91.28
531.80	138.09
531.97	105.32
532.14	46.81
532.31	49.15
532.48	72.56
532.65	53.83
532.82	49.15
532.99	100.64
533.16	37.45
533.33	74.90
533.50	72.56
533.67	53.83
533.84	58.51
534.01	102.98
534.18	149.79
534.35	65.54
534.52	77.24
534.69	112.35
534.86	98.30
535.03	32.77
535.20	42.13
535.37	56.17
535.54	56.17
535.71	198.95
535.88	105.32
536.05	107.66
536.22	135.75
536.38	105.32
536.55	53.83
536.72	32.77
536.89	65.54
537.06	145.11
537.23	77.24
537.40	152.13
537.57	133.41
537.74	70.22
537.91	112.35
538.08	91.28
538.25	107.66
538.42	44.47
538.59	63.19
538.75	79.58
538.92	81.92
539.09	93.62
539.26	65.54
539.43	70.22
539.60	128.73
539.77	63.19
539.94	16.38
540.11	63.19
540.28	86.60
540.44	72.56
540.61	42.13
540.78	0.00
540.95	60.85
541.12	63.19
541.29	105.32
541.46	58.51
541.62	67.88
541.79	74.90
541.96	7.02
542.13	53.83
542.30	86.60
542.47	110.01
542.63	77.24
542.80	112.35
542.97	79.58
543.14	79.58
543.31	79.58
543.48	58.51
543.64	51.49
543.81	65.54
543.98	138.09
544.15	98.30
544.32	93.62
544.48	161.50
544.65	51.49
544.82	56.17
544.99	56.17
545.16	25.75
545.32	42.13
545.49	152.13
545.66	79.58
545.83	84.26
546.00	149.79
546.16	161.50
546.33	114.69
546.50	138.09
546.67	142.77
546.83	107.66
547.00	159.16
547.17	23.41
547.34	21.06
547.50	110.01
547.67	135.75
547.84	77.24
548.00	42.13
548.17	74.90
548.34	67.88
548.51	114.69
548.67	98.30
548.84	91.28
549.01	133.41
549.18	86.60
549.34	88.94
549.51	79.58
549.68	81.92
549.84	70.22
550.01	86.60
550.18	117.03
550.34	79.58
550.51	25.75
550.68	81.92
550.84	112.35
551.01	72.56
551.18	93.62
551.34	72.56
551.51	93.62
551.68	77.24
551.84	58.51
552.01	77.24
552.18	72.56
552.34	60.85
552.51	149.79
552.68	81.92
552.84	112.35
553.01	81.92
553.18	117.03
553.34	58.51
553.51	126.39
553.67	81.92
553.84	72.56
554.01	28.09
554.17	100.64
554.34	25.75
554.51	16.38
554.67	53.83
554.84	74.90
555.00	98.30
555.17	77.24
555.33	63.19
555.50	84.26
555.67	74.90
555.83	65.54
556.00	100.64
556.16	128.73
556.33	60.85
556.50	49.15
556.66	4.68
556.83	65.54
556.99	63.19
557.16	23.41
557.32	30.43
557.49	32.77
557.65	105.32
557.82	70.22
557.98	91.28
558.15	149.79
558.32	110.01
558.48	70.22
558.65	98.30
558.81	51.49
558.98	49.15
559.14	100.64
559.31	117.03
559.47	77.24
559.64	0.00
559.80	84.26
559.97	39.79
560.13	39.79
560.30	9.36
560.46	98.30
560.63	117.03
560.79	79.58
560.96	88.94
561.12	126.39
561.29	156.82
561.45	131.07
561.61	79.58
561.78	112.35
561.94	72.56
562.11	11.70
562.27	70.22
562.44	170.86
562.60	100.64
562.77	119.37
562.93	98.30
563.10	100.64
563.26	133.41
563.42	142.77
563.59	88.94
563.75	70.22
563.92	70.22
564.08	35.11
564.24	98.30
564.41	110.01
564.57	133.41
564.74	35.11
564.90	133.41
565.07	79.58
565.23	28.09
565.39	72.56
565.56	39.79
565.72	56.17
565.88	77.24
566.05	114.69
566.21	37.45
566.38	77.24
566.54	84.26
566.70	7.02
566.87	74.90
567.03	107.66
567.19	105.32
567.36	102.98
567.52	70.22
567.68	105.32
567.85	131.07
568.01	30.43
568.17	119.37
568.34	126.39
568.50	58.51
568.66	79.58
568.83	30.43
568.99	21.06
569.15	60.85
569.32	53.83
569.48	112.35
569.64	110.01
569.81	49.15
569.97	14.04
570.13	81.92
570.30	138.09
570.46	49.15
570.62	21.06
570.78	35.11
570.95	44.47
571.11	100.64
571.27	65.54
571.43	79.58
571.60	65.54
571.76	117.03
571.92	25.75
572.09	42.13
572.25	114.69
572.41	51.49
572.57	100.64
572.74	86.60
572.90	142.77
573.06	168.52
573.22	49.15
573.38	49.15
573.55	131.07
573.71	86.60
573.87	30.43
574.03	98.30
574.20	105.32
574.36	42.13
574.52	91.28
574.68	72.56
574.84	91.28
575.01	114.69
575.17	60.85
575.33	65.54
575.49	32.77
575.65	86.60
575.82	131.07
575.98	184.90
576.14	37.45
576.30	63.19
576.46	149.79
576.62	18.72
576.79	51.49
576.95	88.94
577.11	81.92
577.27	119.37
577.43	95.96
577.59	105.32
577.75	110.01
577.92	107.66
578.08	58.51
578.24	42.13
578.40	81.92
578.56	65.54
578.72	102.98
578.88	51.49
579.04	110.01
579.21	65.54
579.37	149.79
579.53	51.49
579.69	77.24
579.85	35.11
580.01	121.71
580.17	100.64
580.33	23.41
580.49	18.72
580.65	63.19
580.82	51.49
580.98	7.02
581.14	121.71
581.30	0.00
581.46	84.26
581.62	77.24
581.78	2.34
581.94	98.30
582.10	133.41
582.26	98.30
582.42	74.90
582.58	100.64
582.74	70.22
582.90	100.64
583.06	138.09
583.22	93.62
583.38	138.09
583.54	133.41
583.70	53.83
583.86	70.22
584.02	77.24
584.18	110.01
584.34	91.28
584.50	30.43
584.66	98.30
584.82	16.38
584.98	0.00
585.14	35.11
585.30	126.39
585.46	60.85
585.62	25.75
585.78	51.49
585.94	32.77
586.10	84.26
586.26	91.28
586.42	0.00
586.58	0.00
586.74	140.43
586.90	114.69
587.06	98.30
587.22	79.58
587.38	112.35
587.54	126.39
587.70	21.06
587.86	79.58
588.02	67.88
588.18	65.54
588.34	42.13
588.49	117.03
588.65	100.64
588.81	119.37
588.97	53.83
589.13	37.45
589.29	110.01
589.45	60.85
589.61	21.06
589.77	121.71
589.93	46.81
590.08	102.98
590.24	49.15
590.40	84.26
590.56	46.81
590.72	117.03
590.88	81.92
591.04	11.70
591.20	91.28
591.35	81.92
591.51	84.26
591.67	81.92
591.83	51.49
591.99	107.66
592.15	51.49
592.31	138.09
592.46	121.71
592.62	79.58
592.78	51.49
592.94	44.47
593.10	98.30
593.26	51.49
593.41	88.94
593.57	9.36
593.73	100.64
593.89	14.04
594.05	72.56
594.20	39.79
594.36	154.48
594.52	37.45
594.68	44.47
594.84	126.39
594.99	28.09
595.15	114.69
595.31	53.83
595.47	142.77
595.62	91.28
595.78	114.69
595.94	79.58
596.10	53.83
596.25	72.56
596.41	56.17
596.57	72.56
596.73	28.09
596.88	0.00
597.04	100.64
597.20	49.15
597.36	121.71
597.51	65.54
597.67	7.02
597.83	56.17
597.99	119.37
598.14	81.92
598.30	67.88
598.46	49.15
598.61	91.28
598.77	53.83
598.93	14.04
599.09	60.85
599.24	46.81
599.40	84.26
599.56	16.38
599.71	135.75
599.87	98.30
600.03	81.92
600.18	63.19
600.34	79.58
600.50	91.28
600.65	67.88
600.81	84.26
600.97	124.05
601.12	88.94
601.28	152.13
601.44	81.92
601.59	37.45
601.75	70.22
601.91	51.49
602.06	39.79
602.22	72.56
602.37	16.38
602.53	177.88
602.69	112.35
602.84	23.41
603.00	28.09
603.16	39.79
603.31	102.98
603.47	30.43
603.62	70.22
603.78	51.49
603.94	49.15
604.09	70.22
604.25	91.28
604.40	72.56
604.56	105.32
604.71	117.03
604.87	51.49
605.03	51.49
605.18	110.01
605.34	93.62
605.49	128.73
605.65	25.75
605.80	44.47
605.96	81.92
606.12	98.30
606.27	114.69
606.43	25.75
606.58	93.62
606.74	65.54
606.89	14.04
607.05	93.62
607.20	9.36
607.36	107.66
607.51	53.83
607.67	107.66
607.82	128.73
607.98	91.28
608.13	0.00
608.29	105.32
608.44	81.92
608.60	88.94
608.75	121.71
608.91	74.90
609.06	30.43
609.22	102.98
609.37	58.51
609.53	46.81
609.68	72.56
609.84	65.54
609.99	37.45
610.15	0.00
610.30	0.00
610.46	72.56
610.61	112.35
610.76	44.47
610.92	23.41
611.07	39.79
611.23	86.60
611.38	100.64
611.54	100.64
611.69	126.39
611.84	72.56
612.00	42.13
612.15	72.56
612.31	133.41
612.46	70.22
612.62	91.28
612.77	2.34
612.92	77.24
613.08	79.58
613.23	11.70
613.39	79.58
613.54	74.90
613.69	79.58
613.85	138.09
614.00	0.00
614.15	86.60
614.31	81.92
614.46	7.02
614.62	37.45
614.77	23.41
614.92	70.22
615.08	67.88
615.23	58.51
615.38	18.72
615.54	107.66
615.69	88.94
615.84	42.13
616.00	65.54
616.15	25.75
616.30	88.94
616.46	145.11
616.61	98.30
616.76	70.22
616.92	105.32
617.07	93.62
617.22	77.24
617.37	56.17
617.53	91.28
617.68	37.45
617.83	51.49
617.99	46.81
618.14	51.49
618.29	77.24
618.45	53.83
618.60	72.56
618.75	0.00
618.90	0.00
619.06	25.75
619.21	39.79
619.36	2.34
619.51	46.81
619.67	51.49
619.82	70.22
619.97	32.77
620.12	21.06
620.28	114.69
620.43	145.11
620.58	86.60
620.73	110.01
620.89	98.30
621.04	74.90
621.19	65.54
621.34	51.49
621.49	53.83
621.65	63.19
621.80	28.09
621.95	56.17
622.10	49.15
622.25	67.88
622.41	70.22
622.56	28.09
622.71	25.75
622.86	58.51
623.01	32.77
623.16	77.24
623.32	0.00
623.47	126.39
623.62	65.54
623.77	88.94
623.92	56.17
624.07	88.94
624.23	86.60
624.38	81.92
624.53	35.11
624.68	65.54
624.83	23.41
624.98	9.36
625.13	114.69
625.29	79.58
625.44	51.49
625.59	84.26
625.74	42.13
625.89	60.85
626.04	58.51
626.19	102.98
626.34	72.56
626.49	105.32
626.65	16.38
626.80	53.83
626.95	107.66
627.10	86.60
627.25	58.51
627.40	88.94
627.55	84.26
627.70	28.09
627.85	98.30
628.00	114.69
628.15	39.79
628.30	37.45
628.45	72.56
628.60	133.41
628.76	135.75
628.91	112.35
629.06	102.98
629.21	56.17
629.36	25.75
629.51	0.00
629.66	58.51
629.81	28.09
629.96	44.47
630.11	84.26
630.26	51.49
630.41	63.19
630.56	91.28
630.71	0.00
630.86	107.66
631.01	7.02
631.16	16.38
631.31	42.13
631.46	110.01
631.61	72.56
631.76	81.92
631.91	95.96
632.06	124.05
632.21	35.11
632.36	25.75
632.51	79.58
632.66	25.75
632.81	126.39
632.96	72.56
633.10	58.51
633.25	100.64
633.40	105.32
633.55	156.82
633.70	37.45
633.85	28.09
634.00	42.13
634.15	32.77
634.30	95.96
634.45	100.64
634.60	16.38
634.75	102.98
634.90	70.22
635.05	102.98
635.19	51.49
635.34	74.90
635.49	0.00
635.64	51.49
635.79	14.04
635.94	30.43
636.09	11.70
636.24	60.85
636.39	25.75
636.53	42.13
636.68	0.00
636.83	67.88
636.98	84.26
637.13	124.05
637.28	63.19
637.43	21.06
637.57	79.58
637.72	0.00
637.87	67.88
638.02	49.15
638.17	67.88
638.32	86.60
638.46	65.54
638.61	9.36
638.76	30.43
638.91	0.00
639.06	128.73
639.20	56.17
639.35	44.47
639.50	93.62
639.65	117.03
639.80	35.11
639.94	86.60
640.09	49.15
640.24	72.56
640.39	42.13
640.54	49.15
640.68	14.04
640.83	18.72
640.98	58.51
641.13	51.49
641.27	44.47
641.42	32.77
641.57	32.77
641.72	93.62
641.86	156.82
642.01	18.72
642.16	35.11
642.31	9.36
642.45	49.15
642.60	25.75
642.75	91.28
642.90	30.43
643.04	65.54
643.19	0.00
643.34	107.66
643.48	79.58
643.63	58.51
643.78	0.00
643.93	21.06
644.07	58.51
644.22	79.58
644.37	131.07
644.51	117.03
644.66	51.49
644.81	0.00
644.95	51.49
645.10	39.79
645.25	72.56
645.39	35.11
645.54	70.22
645.69	100.64
645.83	30.43
645.98	81.92
646.13	32.77
646.27	30.43
646.42	14.04
646.57	11.70
646.71	88.94
646.86	0.00
647.00	51.49
647.15	16.38
647.30	30.43
647.44	39.79
647.59	67.88
647.74	30.43
647.88	16.38
648.03	65.54
648.17	91.28
648.32	44.47
648.47	58.51
648.61	81.92
648.76	93.62
648.90	63.19
649.05	72.56
649.20	42.13
649.34	63.19
649.49	46.81
649.63	0.00
649.78	42.13
649.92	0.00
650.07	72.56
650.21	70.22
650.36	81.92
650.51	9.36
650.65	60.85
650.80	49.15
650.94	49.15
651.09	23.41
651.23	77.24
651.38	30.43
651.52	53.83
651.67	37.45
651.81	149.79
651.96	91.28
652.10	0.00
652.25	72.56
652.39	11.70
652.54	98.30
652.68	37.45
652.83	32.77
652.97	70.22
653.12	86.60
653.26	14.04
653.41	21.06
653.55	14.04
653.70	0.00
653.84	117.03
653.99	11.70
654.13	58.51
654.27	63.19
654.42	25.75
654.56	53.83
654.71	74.90
654.85	23.41
655.00	100.64
655.14	88.94
655.29	133.41
655.43	86.60
655.57	0.00
655.72	56.17
655.86	35.11
656.01	63.19
656.15	86.60
656.30	2.34
656.44	53.83
656.58	51.49
656.73	42.13
656.87	28.09
657.01	93.62
657.16	77.24
657.30	84.26
657.45	98.30
657.59	53.83
657.73	14.04
657.88	30.43
658.02	91.28
658.16	65.54
658.31	63.19
658.45	58.51
658.60	72.56
658.74	0.00
658.88	65.54
659.03	35.11
659.17	110.01
659.31	21.06
659.46	9.36
659.60	142.77
659.74	77.24
659.89	25.75
660.03	25.75
660.17	2.34
660.32	16.38
660.46	105.32
660.60	100.64
660.74	35.11
660.89	18.72
661.03	74.90
661.17	25.75
661.32	65.54
661.46	37.45
661.60	0.00
661.74	7.02
661.89	95.96
662.03	39.79
662.17	30.43
662.31	39.79
662.46	44.47
662.60	35.11
662.74	16.38
662.88	32.77
663.03	65.54
663.17	0.00
663.31	32.77
663.45	56.17
663.60	67.88
663.74	44.47
663.88	65.54
664.02	37.45
664.17	70.22
664.31	102.98
664.45	35.11
664.59	0.00
664.73	74.90
664.88	121.71
665.02	105.32
665.16	25.75
665.30	65.54
665.44	44.47
665.59	44.47
665.73	84.26
665.87	84.26
666.01	44.47
666.15	77.24
666.29	39.79
666.44	56.17
666.58	2.34
666.72	93.62
666.86	70.22
667.00	72.56
667.14	42.13
667.28	28.09
667.43	70.22
667.57	28.09
667.71	53.83
667.85	67.88
667.99	49.15
668.13	7.02
668.27	65.54
668.41	0.00
668.56	0.00
668.70	49.15
668.84	35.11
668.98	58.51
669.12	39.79
669.26	30.43
669.40	65.54
669.54	84.26
669.68	16.38
669.82	95.96
669.96	0.00
670.10	0.00
670.25	32.77
670.39	37.45
670.53	67.88
670.67	30.43
670.81	79.58
670.95	91.28
671.09	0.00
671.23	14.04
671.37	18.72
671.51	91.28
671.65	7.02
671.79	88.94
671.93	42.13
672.07	63.19
672.21	0.00
672.35	72.56
672.49	42.13
672.63	42.13
672.77	56.17
672.91	37.45
673.05	0.00
673.19	49.15
673.33	117.03
673.47	37.45
673.61	18.72
673.75	42.13
673.89	7.02
674.03	51.49
674.17	14.04
674.31	63.19
674.45	60.85
674.59	35.11
674.73	58.51
674.87	30.43
675.01	46.81
675.15	9.36
675.29	16.38
675.43	44.47
675.56	16.38
675.70	84.26
675.84	51.49
675.98	0.00
676.12	4.68
676.26	79.58
676.40	21.06
676.54	105.32
676.68	67.88
676.82	4.68
676.96	0.00
677.10	9.36
677.23	0.00
677.37	91.28
677.51	163.84
677.65	53.83
677.79	30.43
677.93	102.98
678.07	79.58
678.21	81.92
678.34	0.00
678.48	0.00
678.62	51.49
678.76	35.11
678.90	14.04
679.04	0.00
679.18	56.17
679.31	53.83
679.45	32.77
679.59	23.41
679.73	16.38
679.87	14.04
680.00	60.85
680.14	53.83
680.28	32.77
680.42	58.51
680.56	56.17
680.70	60.85
680.83	49.15
680.97	67.88
681.11	0.00
681.25	91.28
681.39	98.30
681.52	51.49
681.66	30.43
681.80	102.98
681.94	56.17
682.07	65.54
682.21	46.81
682.35	77.24
682.49	51.49
682.62	84.26
682.76	56.17
682.90	0.00
683.04	25.75
683.17	110.01
683.31	95.96
683.45	0.00
683.59	77.24
683.72	91.28
683.86	2.34
684.00	23.41
684.13	102.98
684.27	28.09
684.41	2.34
684.55	0.00
684.68	117.03
684.82	58.51
684.96	77.24
685.09	49.15
685.23	44.47
685.37	60.85
685.50	37.45
685.64	14.04
685.78	42.13
685.91	98.30
686.05	18.72
686.19	28.09
686.32	72.56
686.46	67.88
686.60	0.00
686.73	81.92
686.87	0.00
687.01	7.02
687.14	14.04
687.28	9.36
687.42	0.00
687.55	11.70
687.69	0.00
687.82	28.09
687.96	39.79
688.10	79.58
688.23	30.43
688.37	0.00
688.50	28.09
688.64	79.58
688.78	35.11
688.91	51.49
689.05	74.90
689.18	56.17
689.32	51.49
689.46	9.36
689.59	49.15
689.73	32.77
689.86	67.88
690.00	14.04
690.13	39.79
690.27	39.79
690.41	79.58
690.54	21.06
690.68	70.22
690.81	79.58
690.95	65.54
691.08	14.04
691.22	74.90
691.35	11.70
691.49	14.04
691.62	105.32
691.76	74.90
691.89	39.79
692.03	51.49
692.16	88.94
692.30	46.81
692.43	14.04
692.57	53.83
692.70	30.43
692.84	0.00
692.97	9.36
693.11	32.77
693.24	53.83
693.38	16.38
693.51	133.41
693.65	72.56
693.78	39.79
693.92	18.72
694.05	18.72
694.19	0.00
694.32	74.90
694.45	30.43
694.59	95.96
694.72	114.69
694.86	63.19
694.99	53.83
695.13	79.58
695.26	42.13
695.39	77.24
695.53	86.60
695.66	49.15
695.80	32.77
695.93	60.85
696.07	56.17
696.20	30.43
696.33	14.04
696.47	18.72
696.60	49.15
696.73	46.81
696.87	84.26
697.00	44.47
697.14	0.00
697.27	0.00
697.40	11.70
697.54	35.11
697.67	0.00
697.80	60.85
697.94	70.22
698.07	60.85
698.21	77.24
698.34	53.83
698.47	60.85
698.61	28.09
698.74	53.83
698.87	39.79
699.01	25.75
699.14	79.58
699.27	25.75
699.40	0.00
699.54	84.26
699.67	32.77
699.80	77.24
699.94	32.77
700.07	51.49
700.20	0.00
700.34	21.06
700.47	119.37
700.60	58.51
700.73	72.56
700.87	23.41
701.00	42.13
701.13	25.75
701.26	42.13
701.40	35.11
701.53	30.43
701.66	65.54
701.79	56.17
701.93	58.51
702.06	72.56
702.19	4.68
702.32	0.00
702.46	100.64
702.59	81.92
702.72	28.09
702.85	77.24
702.99	72.56
703.12	16.38
703.25	30.43
703.38	14.04
703.51	18.72
703.65	23.41
703.78	21.06
703.91	0.00
704.04	18.72
704.17	32.77
704.31	25.75
704.44	72.56
704.57	30.43
704.70	65.54
704.83	65.54
704.96	79.58
705.10	91.28
705.23	21.06
>>>>>End Processed Spectral Data<<<<<
