SpectraSuite Data File
++++++++++++++++++++++++++++++++++++
Date: Fri Oct 04 12:13:24 GMT-05:00 2013
User: price-jones
Dark Spectrum Present: No
Reference Spectrum Present: No
Number of Sampled Component Spectra: 1
Spectrometers: USB2+H05261
Integration Time (usec): 10000 (USB2+H05261)
Spectra Averaged: 1 (USB2+H05261)
Boxcar Smoothing: 0 (USB2+H05261)
Correct for Electrical Dark: No (USB2+H05261)
Strobe/Lamp Enabled: No (USB2+H05261)
Correct for Detector Non-linearity: No (USB2+H05261)
Correct for Stray Light: No (USB2+H05261)
Number of Pixels in Processed Spectrum: 2048
>>>>>Begin Processed Spectral Data<<<<<
365.73	56.17
365.92	56.17
366.12	56.17
366.32	0.00
366.52	0.00
366.72	0.00
366.91	0.00
367.11	0.00
367.31	0.00
367.51	0.00
367.70	0.00
367.90	0.00
368.10	0.00
368.30	0.00
368.49	0.00
368.69	0.00
368.89	0.00
369.09	0.00
369.28	0.00
369.48	0.00
369.68	0.00
369.87	0.00
370.07	0.00
370.27	0.00
370.47	49.15
370.66	0.00
370.86	14.04
371.06	0.00
371.25	0.00
371.45	0.00
371.65	0.00
371.84	0.00
372.04	0.00
372.24	0.00
372.44	32.77
372.63	16.38
372.83	18.72
373.03	32.77
373.22	18.72
373.42	84.26
373.62	42.13
373.81	9.36
374.01	65.54
374.21	88.94
374.40	32.77
374.60	0.00
374.79	0.00
374.99	0.00
375.19	0.00
375.38	67.88
375.58	56.17
375.78	23.41
375.97	46.81
376.17	0.00
376.37	77.24
376.56	46.81
376.76	49.15
376.95	56.17
377.15	105.32
377.35	58.51
377.54	51.49
377.74	70.22
377.93	0.00
378.13	21.06
378.33	0.00
378.52	23.41
378.72	9.36
378.91	44.47
379.11	39.79
379.31	91.28
379.50	0.00
379.70	0.00
379.89	0.00
380.09	60.85
380.28	0.00
380.48	0.00
380.68	16.38
380.87	70.22
381.07	39.79
381.26	0.00
381.46	51.49
381.65	23.41
381.85	35.11
382.04	0.00
382.24	102.98
382.43	67.88
382.63	35.11
382.83	37.45
383.02	14.04
383.22	28.09
383.41	100.64
383.61	11.70
383.80	88.94
384.00	0.00
384.19	23.41
384.39	0.00
384.58	14.04
384.78	0.00
384.97	0.00
385.17	0.00
385.36	0.00
385.56	4.68
385.75	0.00
385.95	0.00
386.14	0.00
386.34	0.00
386.53	7.02
386.72	25.75
386.92	0.00
387.11	0.00
387.31	42.13
387.50	11.70
387.70	35.11
387.89	28.09
388.09	2.34
388.28	0.00
388.48	74.90
388.67	53.83
388.86	0.00
389.06	0.00
389.25	23.41
389.45	35.11
389.64	32.77
389.84	0.00
390.03	44.47
390.22	51.49
390.42	25.75
390.61	0.00
390.81	63.19
391.00	32.77
391.19	0.00
391.39	0.00
391.58	0.00
391.78	0.00
391.97	14.04
392.16	14.04
392.36	44.47
392.55	30.43
392.75	28.09
392.94	0.00
393.13	14.04
393.33	0.00
393.52	49.15
393.71	4.68
393.91	23.41
394.10	91.28
394.29	0.00
394.49	18.72
394.68	18.72
394.88	0.00
395.07	0.00
395.26	23.41
395.46	39.79
395.65	14.04
395.84	4.68
396.04	86.60
396.23	18.72
396.42	0.00
396.62	0.00
396.81	30.43
397.00	11.70
397.19	60.85
397.39	21.06
397.58	58.51
397.77	49.15
397.97	37.45
398.16	21.06
398.35	0.00
398.55	0.00
398.74	0.00
398.93	0.00
399.12	14.04
399.32	72.56
399.51	32.77
399.70	4.68
399.90	0.00
400.09	0.00
400.28	70.22
400.47	30.43
400.67	0.00
400.86	0.00
401.05	4.68
401.24	18.72
401.44	56.17
401.63	58.51
401.82	44.47
402.01	0.00
402.21	0.00
402.40	49.15
402.59	7.02
402.78	0.00
402.97	63.19
403.17	77.24
403.36	37.45
403.55	49.15
403.74	0.00
403.93	0.00
404.13	21.06
404.32	0.00
404.51	0.00
404.70	53.83
404.89	51.49
405.09	14.04
405.28	0.00
405.47	0.00
405.66	21.06
405.85	4.68
406.05	16.38
406.24	0.00
406.43	58.51
406.62	112.35
406.81	35.11
407.00	14.04
407.20	16.38
407.39	4.68
407.58	18.72
407.77	28.09
407.96	23.41
408.15	0.00
408.34	23.41
408.54	0.00
408.73	23.41
408.92	0.00
409.11	51.49
409.30	16.38
409.49	14.04
409.68	25.75
409.87	0.00
410.07	35.11
410.26	32.77
410.45	30.43
410.64	21.06
410.83	58.51
411.02	42.13
411.21	21.06
411.40	77.24
411.59	39.79
411.78	2.34
411.98	0.00
412.17	0.00
412.36	4.68
412.55	9.36
412.74	9.36
412.93	11.70
413.12	0.00
413.31	28.09
413.50	49.15
413.69	119.37
413.88	70.22
414.07	30.43
414.26	63.19
414.45	60.85
414.64	25.75
414.83	0.00
415.02	25.75
415.22	0.00
415.41	7.02
415.60	37.45
415.79	32.77
415.98	28.09
416.17	18.72
416.36	14.04
416.55	37.45
416.74	58.51
416.93	28.09
417.12	63.19
417.31	0.00
417.50	0.00
417.69	49.15
417.88	4.68
418.07	39.79
418.26	91.28
418.45	0.00
418.64	0.00
418.83	25.75
419.02	37.45
419.21	58.51
419.39	63.19
419.58	16.38
419.77	65.54
419.96	42.13
420.15	37.45
420.34	18.72
420.53	0.00
420.72	16.38
420.91	63.19
421.10	9.36
421.29	0.00
421.48	49.15
421.67	39.79
421.86	2.34
422.05	39.79
422.24	91.28
422.43	49.15
422.61	9.36
422.80	86.60
422.99	0.00
423.18	51.49
423.37	4.68
423.56	51.49
423.75	51.49
423.94	53.83
424.13	0.00
424.32	7.02
424.50	18.72
424.69	25.75
424.88	37.45
425.07	9.36
425.26	0.00
425.45	18.72
425.64	84.26
425.83	16.38
426.01	91.28
426.20	42.13
426.39	37.45
426.58	60.85
426.77	37.45
426.96	0.00
427.15	4.68
427.33	4.68
427.52	49.15
427.71	81.92
427.90	42.13
428.09	0.00
428.28	25.75
428.46	14.04
428.65	21.06
428.84	67.88
429.03	0.00
429.22	84.26
429.40	11.70
429.59	84.26
429.78	11.70
429.97	35.11
430.16	0.00
430.34	49.15
430.53	58.51
430.72	28.09
430.91	56.17
431.10	23.41
431.28	79.58
431.47	0.00
431.66	32.77
431.85	28.09
432.03	74.90
432.22	14.04
432.41	0.00
432.60	65.54
432.79	74.90
432.97	37.45
433.16	18.72
433.35	21.06
433.54	14.04
433.72	65.54
433.91	72.56
434.10	0.00
434.28	28.09
434.47	98.30
434.66	32.77
434.85	67.88
435.03	0.00
435.22	35.11
435.41	0.00
435.59	4.68
435.78	0.00
435.97	0.00
436.16	14.04
436.34	0.00
436.53	28.09
436.72	11.70
436.90	67.88
437.09	0.00
437.28	67.88
437.46	39.79
437.65	53.83
437.84	21.06
438.02	0.00
438.21	32.77
438.40	0.00
438.58	86.60
438.77	49.15
438.96	60.85
439.14	77.24
439.33	14.04
439.52	30.43
439.70	0.00
439.89	42.13
440.08	91.28
440.26	0.00
440.45	0.00
440.63	49.15
440.82	60.85
441.01	58.51
441.19	51.49
441.38	2.34
441.57	49.15
441.75	81.92
441.94	37.45
442.12	56.17
442.31	14.04
442.50	42.13
442.68	60.85
442.87	56.17
443.05	39.79
443.24	4.68
443.43	32.77
443.61	32.77
443.80	58.51
443.98	63.19
444.17	42.13
444.35	0.00
444.54	35.11
444.73	23.41
444.91	35.11
445.10	11.70
445.28	53.83
445.47	30.43
445.65	14.04
445.84	0.00
446.02	0.00
446.21	2.34
446.39	9.36
446.58	0.00
446.77	53.83
446.95	35.11
447.14	49.15
447.32	77.24
447.51	0.00
447.69	0.00
447.88	51.49
448.06	35.11
448.25	30.43
448.43	46.81
448.62	7.02
448.80	0.00
448.99	0.00
449.17	18.72
449.36	30.43
449.54	0.00
449.73	25.75
449.91	0.00
450.10	0.00
450.28	49.15
450.46	44.47
450.65	53.83
450.83	46.81
451.02	28.09
451.20	32.77
451.39	18.72
451.57	37.45
451.76	0.00
451.94	11.70
452.13	39.79
452.31	32.77
452.49	16.38
452.68	60.85
452.86	44.47
453.05	0.00
453.23	72.56
453.42	131.07
453.60	0.00
453.78	2.34
453.97	79.58
454.15	0.00
454.34	147.45
454.52	4.68
454.70	67.88
454.89	39.79
455.07	65.54
455.26	86.60
455.44	65.54
455.62	2.34
455.81	42.13
455.99	0.00
456.17	70.22
456.36	25.75
456.54	88.94
456.73	39.79
456.91	63.19
457.09	2.34
457.28	65.54
457.46	67.88
457.64	84.26
457.83	39.79
458.01	53.83
458.19	28.09
458.38	30.43
458.56	21.06
458.74	30.43
458.93	0.00
459.11	37.45
459.29	107.66
459.48	42.13
459.66	0.00
459.84	53.83
460.03	11.70
460.21	51.49
460.39	44.47
460.57	30.43
460.76	0.00
460.94	37.45
461.12	28.09
461.31	72.56
461.49	56.17
461.67	0.00
461.85	42.13
462.04	84.26
462.22	152.13
462.40	0.00
462.59	37.45
462.77	9.36
462.95	53.83
463.13	60.85
463.32	18.72
463.50	23.41
463.68	74.90
463.86	0.00
464.05	74.90
464.23	0.00
464.41	0.00
464.59	74.90
464.78	39.79
464.96	46.81
465.14	58.51
465.32	30.43
465.50	21.06
465.69	32.77
465.87	46.81
466.05	56.17
466.23	9.36
466.41	72.56
466.60	65.54
466.78	56.17
466.96	42.13
467.14	86.60
467.32	91.28
467.51	60.85
467.69	56.17
467.87	42.13
468.05	0.00
468.23	44.47
468.41	11.70
468.60	46.81
468.78	32.77
468.96	14.04
469.14	42.13
469.32	46.81
469.50	0.00
469.69	32.77
469.87	37.45
470.05	32.77
470.23	39.79
470.41	4.68
470.59	46.81
470.77	56.17
470.95	14.04
471.14	25.75
471.32	0.00
471.50	18.72
471.68	58.51
471.86	63.19
472.04	14.04
472.22	11.70
472.40	25.75
472.58	46.81
472.77	74.90
472.95	0.00
473.13	9.36
473.31	23.41
473.49	65.54
473.67	88.94
473.85	35.11
474.03	70.22
474.21	0.00
474.39	0.00
474.57	39.79
474.75	14.04
474.93	0.00
475.12	79.58
475.30	81.92
475.48	0.00
475.66	53.83
475.84	28.09
476.02	0.00
476.20	0.00
476.38	23.41
476.56	0.00
476.74	46.81
476.92	30.43
477.10	7.02
477.28	79.58
477.46	14.04
477.64	42.13
477.82	21.06
478.00	18.72
478.18	23.41
478.36	53.83
478.54	93.62
478.72	11.70
478.90	37.45
479.08	0.00
479.26	37.45
479.44	53.83
479.62	39.79
479.80	77.24
479.98	11.70
480.16	30.43
480.34	77.24
480.52	37.45
480.70	0.00
480.88	21.06
481.06	0.00
481.24	16.38
481.41	28.09
481.59	49.15
481.77	107.66
481.95	79.58
482.13	79.58
482.31	49.15
482.49	35.11
482.67	16.38
482.85	25.75
483.03	4.68
483.21	23.41
483.39	79.58
483.57	0.00
483.74	9.36
483.92	51.49
484.10	18.72
484.28	2.34
484.46	11.70
484.64	102.98
484.82	56.17
485.00	72.56
485.18	0.00
485.35	42.13
485.53	51.49
485.71	100.64
485.89	74.90
486.07	51.49
486.25	18.72
486.43	67.88
486.61	0.00
486.78	49.15
486.96	0.00
487.14	2.34
487.32	11.70
487.50	102.98
487.68	60.85
487.85	14.04
488.03	21.06
488.21	0.00
488.39	32.77
488.57	23.41
488.75	67.88
488.92	107.66
489.10	0.00
489.28	0.00
489.46	30.43
489.64	63.19
489.81	4.68
489.99	21.06
490.17	84.26
490.35	72.56
490.53	39.79
490.70	49.15
490.88	9.36
491.06	56.17
491.24	7.02
491.41	67.88
491.59	0.00
491.77	18.72
491.95	60.85
492.13	16.38
492.30	60.85
492.48	53.83
492.66	32.77
492.84	81.92
493.01	16.38
493.19	107.66
493.37	91.28
493.54	42.13
493.72	72.56
493.90	65.54
494.08	32.77
494.25	23.41
494.43	0.00
494.61	72.56
494.79	14.04
494.96	72.56
495.14	42.13
495.32	35.11
495.49	46.81
495.67	124.05
495.85	46.81
496.02	53.83
496.20	28.09
496.38	44.47
496.55	30.43
496.73	37.45
496.91	84.26
497.09	84.26
497.26	4.68
497.44	51.49
497.62	0.00
497.79	0.00
497.97	53.83
498.14	7.02
498.32	0.00
498.50	9.36
498.67	81.92
498.85	42.13
499.03	37.45
499.20	2.34
499.38	42.13
499.56	58.51
499.73	0.00
499.91	30.43
500.08	70.22
500.26	110.01
500.44	88.94
500.61	28.09
500.79	53.83
500.97	98.30
501.14	51.49
501.32	86.60
501.49	0.00
501.67	21.06
501.84	30.43
502.02	77.24
502.20	11.70
502.37	93.62
502.55	0.00
502.72	70.22
502.90	65.54
503.07	58.51
503.25	16.38
503.43	49.15
503.60	9.36
503.78	37.45
503.95	60.85
504.13	4.68
504.30	11.70
504.48	93.62
504.65	0.00
504.83	56.17
505.01	93.62
505.18	39.79
505.36	39.79
505.53	58.51
505.71	49.15
505.88	98.30
506.06	51.49
506.23	35.11
506.41	49.15
506.58	86.60
506.76	91.28
506.93	32.77
507.11	79.58
507.28	11.70
507.46	16.38
507.63	0.00
507.81	14.04
507.98	88.94
508.16	53.83
508.33	63.19
508.50	23.41
508.68	0.00
508.85	93.62
509.03	21.06
509.20	51.49
509.38	0.00
509.55	60.85
509.73	28.09
509.90	67.88
510.08	53.83
510.25	46.81
510.42	84.26
510.60	23.41
510.77	60.85
510.95	32.77
511.12	46.81
511.30	105.32
511.47	16.38
511.64	49.15
511.82	100.64
511.99	72.56
512.17	56.17
512.34	56.17
512.51	39.79
512.69	0.00
512.86	28.09
513.04	18.72
513.21	16.38
513.38	23.41
513.56	0.00
513.73	0.00
513.90	16.38
514.08	53.83
514.25	16.38
514.43	91.28
514.60	124.05
514.77	28.09
514.95	28.09
515.12	46.81
515.29	37.45
515.47	46.81
515.64	0.00
515.81	56.17
515.99	105.32
516.16	16.38
516.33	72.56
516.51	42.13
516.68	53.83
516.85	21.06
517.03	60.85
517.20	67.88
517.37	42.13
517.54	0.00
517.72	35.11
517.89	9.36
518.06	18.72
518.24	145.11
518.41	30.43
518.58	72.56
518.75	70.22
518.93	32.77
519.10	53.83
519.27	30.43
519.45	56.17
519.62	0.00
519.79	4.68
519.96	65.54
520.14	58.51
520.31	2.34
520.48	60.85
520.65	93.62
520.83	30.43
521.00	100.64
521.17	28.09
521.34	51.49
521.52	0.00
521.69	56.17
521.86	58.51
522.03	0.00
522.20	18.72
522.38	7.02
522.55	23.41
522.72	42.13
522.89	46.81
523.07	95.96
523.24	4.68
523.41	72.56
523.58	14.04
523.75	53.83
523.92	119.37
524.10	95.96
524.27	77.24
524.44	58.51
524.61	88.94
524.78	81.92
524.96	70.22
525.13	28.09
525.30	28.09
525.47	39.79
525.64	0.00
525.81	28.09
525.98	37.45
526.16	56.17
526.33	65.54
526.50	77.24
526.67	7.02
526.84	74.90
527.01	4.68
527.18	14.04
527.36	30.43
527.53	39.79
527.70	100.64
527.87	70.22
528.04	74.90
528.21	74.90
528.38	79.58
528.55	23.41
528.72	98.30
528.89	70.22
529.07	18.72
529.24	84.26
529.41	0.00
529.58	79.58
529.75	81.92
529.92	42.13
530.09	39.79
530.26	18.72
530.43	91.28
530.60	77.24
530.77	84.26
530.94	56.17
531.11	98.30
531.28	77.24
531.46	35.11
531.63	74.90
531.80	79.58
531.97	23.41
532.14	7.02
532.31	72.56
532.48	0.00
532.65	53.83
532.82	25.75
532.99	51.49
533.16	100.64
533.33	37.45
533.50	7.02
533.67	16.38
533.84	11.70
534.01	84.26
534.18	42.13
534.35	51.49
534.52	81.92
534.69	0.00
534.86	58.51
535.03	9.36
535.20	81.92
535.37	44.47
535.54	0.00
535.71	37.45
535.88	4.68
536.05	58.51
536.22	72.56
536.38	30.43
536.55	95.96
536.72	65.54
536.89	11.70
537.06	0.00
537.23	28.09
537.40	39.79
537.57	46.81
537.74	65.54
537.91	51.49
538.08	0.00
538.25	21.06
538.42	18.72
538.59	14.04
538.75	51.49
538.92	0.00
539.09	25.75
539.26	95.96
539.43	23.41
539.60	21.06
539.77	0.00
539.94	25.75
540.11	42.13
540.28	18.72
540.44	74.90
540.61	21.06
540.78	98.30
540.95	0.00
541.12	56.17
541.29	21.06
541.46	81.92
541.62	23.41
541.79	70.22
541.96	72.56
542.13	74.90
542.30	30.43
542.47	74.90
542.63	42.13
542.80	42.13
542.97	72.56
543.14	93.62
543.31	0.00
543.48	49.15
543.64	72.56
543.81	0.00
543.98	32.77
544.15	51.49
544.32	77.24
544.48	58.51
544.65	81.92
544.82	30.43
544.99	11.70
545.16	95.96
545.32	49.15
545.49	77.24
545.66	7.02
545.83	32.77
546.00	0.00
546.16	11.70
546.33	23.41
546.50	37.45
546.67	44.47
546.83	56.17
547.00	88.94
547.17	28.09
547.34	74.90
547.50	81.92
547.67	14.04
547.84	79.58
548.00	16.38
548.17	79.58
548.34	9.36
548.51	70.22
548.67	4.68
548.84	98.30
549.01	0.00
549.18	35.11
549.34	2.34
549.51	0.00
549.68	39.79
549.84	56.17
550.01	11.70
550.18	67.88
550.34	65.54
550.51	32.77
550.68	51.49
550.84	0.00
551.01	86.60
551.18	65.54
551.34	51.49
551.51	72.56
551.68	30.43
551.84	63.19
552.01	84.26
552.18	63.19
552.34	84.26
552.51	28.09
552.68	72.56
552.84	9.36
553.01	56.17
553.18	35.11
553.34	16.38
553.51	79.58
553.67	23.41
553.84	35.11
554.01	7.02
554.17	102.98
554.34	74.90
554.51	51.49
554.67	72.56
554.84	91.28
555.00	70.22
555.17	53.83
555.33	44.47
555.50	2.34
555.67	35.11
555.83	0.00
556.00	35.11
556.16	98.30
556.33	14.04
556.50	46.81
556.66	0.00
556.83	105.32
556.99	28.09
557.16	2.34
557.32	16.38
557.49	42.13
557.65	51.49
557.82	70.22
557.98	112.35
558.15	58.51
558.32	0.00
558.48	23.41
558.65	60.85
558.81	49.15
558.98	60.85
559.14	28.09
559.31	42.13
559.47	42.13
559.64	16.38
559.80	114.69
559.97	42.13
560.13	70.22
560.30	0.00
560.46	56.17
560.63	37.45
560.79	86.60
560.96	79.58
561.12	32.77
561.29	4.68
561.45	0.00
561.61	70.22
561.78	58.51
561.94	39.79
562.11	4.68
562.27	11.70
562.44	49.15
562.60	60.85
562.77	25.75
562.93	88.94
563.10	81.92
563.26	9.36
563.42	70.22
563.59	0.00
563.75	49.15
563.92	105.32
564.08	4.68
564.24	63.19
564.41	65.54
564.57	4.68
564.74	63.19
564.90	2.34
565.07	70.22
565.23	79.58
565.39	51.49
565.56	79.58
565.72	44.47
565.88	65.54
566.05	42.13
566.21	81.92
566.38	105.32
566.54	98.30
566.70	35.11
566.87	0.00
567.03	63.19
567.19	65.54
567.36	44.47
567.52	4.68
567.68	117.03
567.85	44.47
568.01	46.81
568.17	63.19
568.34	37.45
568.50	0.00
568.66	39.79
568.83	42.13
568.99	79.58
569.15	49.15
569.32	35.11
569.48	28.09
569.64	84.26
569.81	63.19
569.97	91.28
570.13	23.41
570.30	0.00
570.46	37.45
570.62	28.09
570.78	18.72
570.95	42.13
571.11	42.13
571.27	2.34
571.43	100.64
571.60	14.04
571.76	39.79
571.92	32.77
572.09	4.68
572.25	44.47
572.41	0.00
572.57	60.85
572.74	79.58
572.90	60.85
573.06	105.32
573.22	30.43
573.38	46.81
573.55	30.43
573.71	11.70
573.87	91.28
574.03	63.19
574.20	25.75
574.36	95.96
574.52	65.54
574.68	0.00
574.84	65.54
575.01	58.51
575.17	67.88
575.33	72.56
575.49	100.64
575.65	86.60
575.82	37.45
575.98	56.17
576.14	0.00
576.30	0.00
576.46	72.56
576.62	4.68
576.79	0.00
576.95	39.79
577.11	18.72
577.27	0.00
577.43	0.00
577.59	0.00
577.75	58.51
577.92	53.83
578.08	0.00
578.24	49.15
578.40	25.75
578.56	32.77
578.72	58.51
578.88	51.49
579.04	74.90
579.21	100.64
579.37	21.06
579.53	53.83
579.69	81.92
579.85	0.00
580.01	0.00
580.17	74.90
580.33	0.00
580.49	72.56
580.65	51.49
580.82	74.90
580.98	67.88
581.14	79.58
581.30	0.00
581.46	11.70
581.62	93.62
581.78	51.49
581.94	65.54
582.10	56.17
582.26	156.82
582.42	18.72
582.58	39.79
582.74	77.24
582.90	70.22
583.06	0.00
583.22	42.13
583.38	81.92
583.54	58.51
583.70	46.81
583.86	0.00
584.02	56.17
584.18	81.92
584.34	77.24
584.50	102.98
584.66	37.45
584.82	2.34
584.98	42.13
585.14	25.75
585.30	63.19
585.46	23.41
585.62	42.13
585.78	18.72
585.94	58.51
586.10	14.04
586.26	65.54
586.42	67.88
586.58	86.60
586.74	74.90
586.90	25.75
587.06	7.02
587.22	39.79
587.38	58.51
587.54	7.02
587.70	11.70
587.86	93.62
588.02	60.85
588.18	51.49
588.34	0.00
588.49	58.51
588.65	67.88
588.81	39.79
588.97	0.00
589.13	35.11
589.29	23.41
589.45	0.00
589.61	35.11
589.77	11.70
589.93	110.01
590.08	65.54
590.24	63.19
590.40	0.00
590.56	14.04
590.72	65.54
590.88	18.72
591.04	53.83
591.20	35.11
591.35	25.75
591.51	35.11
591.67	0.00
591.83	0.00
591.99	98.30
592.15	49.15
592.31	91.28
592.46	63.19
592.62	74.90
592.78	14.04
592.94	0.00
593.10	35.11
593.26	32.77
593.41	0.00
593.57	63.19
593.73	51.49
593.89	91.28
594.05	105.32
594.20	0.00
594.36	0.00
594.52	102.98
594.68	7.02
594.84	95.96
594.99	4.68
595.15	23.41
595.31	112.35
595.47	14.04
595.62	72.56
595.78	23.41
595.94	56.17
596.10	49.15
596.25	77.24
596.41	84.26
596.57	21.06
596.73	60.85
596.88	51.49
597.04	37.45
597.20	53.83
597.36	56.17
597.51	16.38
597.67	60.85
597.83	79.58
597.99	35.11
598.14	0.00
598.30	0.00
598.46	14.04
598.61	11.70
598.77	7.02
598.93	0.00
599.09	39.79
599.24	56.17
599.40	25.75
599.56	0.00
599.71	117.03
599.87	63.19
600.03	0.00
600.18	0.00
600.34	0.00
600.50	35.11
600.65	44.47
600.81	30.43
600.97	58.51
601.12	0.00
601.28	49.15
601.44	35.11
601.59	42.13
601.75	23.41
601.91	53.83
602.06	44.47
602.22	39.79
602.37	0.00
602.53	53.83
602.69	32.77
602.84	0.00
603.00	28.09
603.16	70.22
603.31	11.70
603.47	28.09
603.62	0.00
603.78	42.13
603.94	100.64
604.09	93.62
604.25	46.81
604.40	0.00
604.56	51.49
604.71	0.00
604.87	0.00
605.03	39.79
605.18	39.79
605.34	86.60
605.49	58.51
605.65	0.00
605.80	39.79
605.96	0.00
606.12	58.51
606.27	4.68
606.43	81.92
606.58	84.26
606.74	51.49
606.89	44.47
607.05	100.64
607.20	9.36
607.36	46.81
607.51	72.56
607.67	91.28
607.82	107.66
607.98	51.49
608.13	84.26
608.29	9.36
608.44	35.11
608.60	81.92
608.75	46.81
608.91	133.41
609.06	39.79
609.22	65.54
609.37	58.51
609.53	44.47
609.68	30.43
609.84	30.43
609.99	30.43
610.15	81.92
610.30	42.13
610.46	88.94
610.61	72.56
610.76	14.04
610.92	0.00
611.07	46.81
611.23	100.64
611.38	60.85
611.54	53.83
611.69	0.00
611.84	25.75
612.00	0.00
612.15	0.00
612.31	0.00
612.46	0.00
612.62	0.00
612.77	30.43
612.92	16.38
613.08	25.75
613.23	53.83
613.39	30.43
613.54	105.32
613.69	0.00
613.85	102.98
614.00	44.47
614.15	9.36
614.31	46.81
614.46	60.85
614.62	51.49
614.77	14.04
614.92	44.47
615.08	98.30
615.23	51.49
615.38	35.11
615.54	28.09
615.69	37.45
615.84	79.58
616.00	0.00
616.15	51.49
616.30	0.00
616.46	91.28
616.61	51.49
616.76	72.56
616.92	0.00
617.07	35.11
617.22	18.72
617.37	72.56
617.53	133.41
617.68	77.24
617.83	72.56
617.99	58.51
618.14	131.07
618.29	79.58
618.45	53.83
618.60	25.75
618.75	74.90
618.90	2.34
619.06	70.22
619.21	49.15
619.36	60.85
619.51	49.15
619.67	21.06
619.82	63.19
619.97	23.41
620.12	35.11
620.28	0.00
620.43	39.79
620.58	7.02
620.73	42.13
620.89	42.13
621.04	35.11
621.19	63.19
621.34	0.00
621.49	51.49
621.65	28.09
621.80	7.02
621.95	46.81
622.10	30.43
622.25	56.17
622.41	51.49
622.56	4.68
622.71	37.45
622.86	39.79
623.01	25.75
623.16	23.41
623.32	56.17
623.47	58.51
623.62	25.75
623.77	51.49
623.92	65.54
624.07	114.69
624.23	88.94
624.38	25.75
624.53	32.77
624.68	65.54
624.83	60.85
624.98	65.54
625.13	14.04
625.29	28.09
625.44	56.17
625.59	9.36
625.74	0.00
625.89	16.38
626.04	0.00
626.19	86.60
626.34	11.70
626.49	49.15
626.65	131.07
626.80	37.45
626.95	63.19
627.10	35.11
627.25	49.15
627.40	16.38
627.55	65.54
627.70	51.49
627.85	18.72
628.00	44.47
628.15	4.68
628.30	23.41
628.45	0.00
628.60	35.11
628.76	39.79
628.91	18.72
629.06	0.00
629.21	0.00
629.36	18.72
629.51	74.90
629.66	51.49
629.81	4.68
629.96	0.00
630.11	7.02
630.26	30.43
630.41	126.39
630.56	95.96
630.71	21.06
630.86	119.37
631.01	77.24
631.16	0.00
631.31	44.47
631.46	124.05
631.61	60.85
631.76	0.00
631.91	0.00
632.06	30.43
632.21	14.04
632.36	56.17
632.51	112.35
632.66	105.32
632.81	11.70
632.96	65.54
633.10	39.79
633.25	28.09
633.40	46.81
633.55	56.17
633.70	81.92
633.85	86.60
634.00	16.38
634.15	49.15
634.30	9.36
634.45	21.06
634.60	11.70
634.75	58.51
634.90	11.70
635.05	0.00
635.19	60.85
635.34	28.09
635.49	39.79
635.64	49.15
635.79	56.17
635.94	63.19
636.09	84.26
636.24	0.00
636.39	91.28
636.53	9.36
636.68	0.00
636.83	18.72
636.98	37.45
637.13	77.24
637.28	2.34
637.43	49.15
637.57	100.64
637.72	49.15
637.87	28.09
638.02	0.00
638.17	37.45
638.32	16.38
638.46	74.90
638.61	23.41
638.76	42.13
638.91	74.90
639.06	74.90
639.20	14.04
639.35	23.41
639.50	37.45
639.65	72.56
639.80	14.04
639.94	88.94
640.09	56.17
640.24	28.09
640.39	2.34
640.54	23.41
640.68	72.56
640.83	0.00
640.98	23.41
641.13	49.15
641.27	42.13
641.42	70.22
641.57	4.68
641.72	32.77
641.86	0.00
642.01	2.34
642.16	63.19
642.31	93.62
642.45	32.77
642.60	18.72
642.75	18.72
642.90	30.43
643.04	91.28
643.19	23.41
643.34	0.00
643.48	18.72
643.63	30.43
643.78	30.43
643.93	65.54
644.07	0.00
644.22	88.94
644.37	51.49
644.51	9.36
644.66	42.13
644.81	14.04
644.95	84.26
645.10	77.24
645.25	4.68
645.39	0.00
645.54	16.38
645.69	100.64
645.83	23.41
645.98	0.00
646.13	88.94
646.27	72.56
646.42	0.00
646.57	11.70
646.71	9.36
646.86	51.49
647.00	0.00
647.15	25.75
647.30	28.09
647.44	0.00
647.59	16.38
647.74	23.41
647.88	35.11
648.03	46.81
648.17	0.00
648.32	39.79
648.47	0.00
648.61	86.60
648.76	4.68
648.90	79.58
649.05	51.49
649.20	49.15
649.34	72.56
649.49	11.70
649.63	18.72
649.78	7.02
649.92	4.68
650.07	18.72
650.21	14.04
650.36	0.00
650.51	30.43
650.65	23.41
650.80	0.00
650.94	0.00
651.09	51.49
651.23	51.49
651.38	39.79
651.52	81.92
651.67	23.41
651.81	32.77
651.96	0.00
652.10	63.19
652.25	58.51
652.39	14.04
652.54	77.24
652.68	56.17
652.83	39.79
652.97	63.19
653.12	44.47
653.26	23.41
653.41	16.38
653.55	60.85
653.70	56.17
653.84	0.00
653.99	84.26
654.13	0.00
654.27	93.62
654.42	39.79
654.56	51.49
654.71	37.45
654.85	58.51
655.00	32.77
655.14	53.83
655.29	0.00
655.43	84.26
655.57	28.09
655.72	0.00
655.86	53.83
656.01	0.00
656.15	0.00
656.30	35.11
656.44	0.00
656.58	28.09
656.73	30.43
656.87	0.00
657.01	72.56
657.16	2.34
657.30	81.92
657.45	21.06
657.59	95.96
657.73	35.11
657.88	0.00
658.02	0.00
658.16	0.00
658.31	46.81
658.45	35.11
658.60	42.13
658.74	11.70
658.88	98.30
659.03	39.79
659.17	49.15
659.31	0.00
659.46	25.75
659.60	0.00
659.74	37.45
659.89	0.00
660.03	39.79
660.17	107.66
660.32	25.75
660.46	0.00
660.60	119.37
660.74	39.79
660.89	86.60
661.03	95.96
661.17	84.26
661.32	25.75
661.46	72.56
661.60	67.88
661.74	0.00
661.89	39.79
662.03	39.79
662.17	56.17
662.31	25.75
662.46	21.06
662.60	56.17
662.74	0.00
662.88	53.83
663.03	126.39
663.17	23.41
663.31	9.36
663.45	0.00
663.60	30.43
663.74	0.00
663.88	67.88
664.02	102.98
664.17	0.00
664.31	88.94
664.45	0.00
664.59	0.00
664.73	0.00
664.88	51.49
665.02	53.83
665.16	37.45
665.30	0.00
665.44	0.00
665.59	100.64
665.73	93.62
665.87	7.02
666.01	56.17
666.15	56.17
666.29	2.34
666.44	0.00
666.58	0.00
666.72	4.68
666.86	0.00
667.00	7.02
667.14	35.11
667.28	84.26
667.43	0.00
667.57	63.19
667.71	77.24
667.85	105.32
667.99	0.00
668.13	58.51
668.27	16.38
668.41	44.47
668.56	23.41
668.70	65.54
668.84	56.17
668.98	14.04
669.12	37.45
669.26	4.68
669.40	0.00
669.54	18.72
669.68	42.13
669.82	9.36
669.96	14.04
670.10	44.47
670.25	81.92
670.39	42.13
670.53	63.19
670.67	23.41
670.81	49.15
670.95	70.22
671.09	81.92
671.23	84.26
671.37	72.56
671.51	9.36
671.65	79.58
671.79	72.56
671.93	49.15
672.07	23.41
672.21	88.94
672.35	91.28
672.49	65.54
672.63	0.00
672.77	0.00
672.91	7.02
673.05	0.00
673.19	81.92
673.33	112.35
673.47	74.90
673.61	72.56
673.75	53.83
673.89	42.13
674.03	65.54
674.17	86.60
674.31	56.17
674.45	53.83
674.59	14.04
674.73	14.04
674.87	0.00
675.01	7.02
675.15	0.00
675.29	0.00
675.43	7.02
675.56	88.94
675.70	0.00
675.84	0.00
675.98	0.00
676.12	53.83
676.26	56.17
676.40	4.68
676.54	72.56
676.68	14.04
676.82	0.00
676.96	37.45
677.10	30.43
677.23	0.00
677.37	42.13
677.51	9.36
677.65	21.06
677.79	74.90
677.93	2.34
678.07	0.00
678.21	39.79
678.34	0.00
678.48	7.02
678.62	0.00
678.76	65.54
678.90	0.00
679.04	91.28
679.18	9.36
679.31	28.09
679.45	37.45
679.59	44.47
679.73	46.81
679.87	0.00
680.00	9.36
680.14	4.68
680.28	18.72
680.42	18.72
680.56	39.79
680.70	91.28
680.83	2.34
680.97	23.41
681.11	11.70
681.25	91.28
681.39	25.75
681.52	0.00
681.66	16.38
681.80	7.02
681.94	77.24
682.07	37.45
682.21	0.00
682.35	105.32
682.49	58.51
682.62	60.85
682.76	28.09
682.90	28.09
683.04	56.17
683.17	81.92
683.31	46.81
683.45	0.00
683.59	51.49
683.72	9.36
683.86	11.70
684.00	72.56
684.13	88.94
684.27	0.00
684.41	60.85
684.55	25.75
684.68	25.75
684.82	0.00
684.96	0.00
685.09	28.09
685.23	86.60
685.37	18.72
685.50	9.36
685.64	30.43
685.78	95.96
685.91	112.35
686.05	25.75
686.19	44.47
686.32	0.00
686.46	49.15
686.60	0.00
686.73	46.81
686.87	2.34
687.01	91.28
687.14	0.00
687.28	25.75
687.42	37.45
687.55	28.09
687.69	37.45
687.82	49.15
687.96	0.00
688.10	37.45
688.23	91.28
688.37	39.79
688.50	44.47
688.64	39.79
688.78	42.13
688.91	9.36
689.05	4.68
689.18	0.00
689.32	58.51
689.46	0.00
689.59	49.15
689.73	2.34
689.86	58.51
690.00	30.43
690.13	77.24
690.27	0.00
690.41	23.41
690.54	28.09
690.68	42.13
690.81	98.30
690.95	0.00
691.08	42.13
691.22	30.43
691.35	56.17
691.49	2.34
691.62	53.83
691.76	0.00
691.89	23.41
692.03	42.13
692.16	9.36
692.30	95.96
692.43	67.88
692.57	0.00
692.70	0.00
692.84	28.09
692.97	44.47
693.11	16.38
693.24	11.70
693.38	0.00
693.51	25.75
693.65	35.11
693.78	44.47
693.92	42.13
694.05	0.00
694.19	28.09
694.32	25.75
694.45	56.17
694.59	2.34
694.72	60.85
694.86	70.22
694.99	63.19
695.13	51.49
695.26	70.22
695.39	117.03
695.53	0.00
695.66	74.90
695.80	77.24
695.93	9.36
696.07	9.36
696.20	30.43
696.33	84.26
696.47	14.04
696.60	56.17
696.73	0.00
696.87	0.00
697.00	23.41
697.14	23.41
697.27	0.00
697.40	88.94
697.54	28.09
697.67	42.13
697.80	95.96
697.94	0.00
698.07	0.00
698.21	0.00
698.34	93.62
698.47	2.34
698.61	74.90
698.74	65.54
698.87	74.90
699.01	46.81
699.14	81.92
699.27	46.81
699.40	32.77
699.54	58.51
699.67	49.15
699.80	32.77
699.94	0.00
700.07	49.15
700.20	0.00
700.34	63.19
700.47	56.17
700.60	72.56
700.73	49.15
700.87	35.11
701.00	100.64
701.13	44.47
701.26	16.38
701.40	65.54
701.53	30.43
701.66	32.77
701.79	0.00
701.93	67.88
702.06	35.11
702.19	4.68
702.32	0.00
702.46	42.13
702.59	0.00
702.72	14.04
702.85	110.01
702.99	60.85
703.12	86.60
703.25	32.77
703.38	9.36
703.51	23.41
703.65	72.56
703.78	16.38
703.91	51.49
704.04	14.04
704.17	30.43
704.31	30.43
704.44	58.51
704.57	28.09
704.70	63.19
704.83	7.02
704.96	16.38
705.10	79.58
705.23	86.60
>>>>>End Processed Spectral Data<<<<<
