SpectraSuite Data File
++++++++++++++++++++++++++++++++++++
Date: Fri Oct 04 12:13:31 GMT-05:00 2013
User: price-jones
Dark Spectrum Present: No
Reference Spectrum Present: No
Number of Sampled Component Spectra: 1
Spectrometers: USB2+H05261
Integration Time (usec): 10000 (USB2+H05261)
Spectra Averaged: 1 (USB2+H05261)
Boxcar Smoothing: 0 (USB2+H05261)
Correct for Electrical Dark: No (USB2+H05261)
Strobe/Lamp Enabled: No (USB2+H05261)
Correct for Detector Non-linearity: No (USB2+H05261)
Correct for Stray Light: No (USB2+H05261)
Number of Pixels in Processed Spectrum: 2048
>>>>>Begin Processed Spectral Data<<<<<
365.73	46.81
365.92	46.81
366.12	46.81
366.32	0.00
366.52	0.00
366.72	0.00
366.91	0.00
367.11	0.00
367.31	0.00
367.51	0.00
367.70	0.00
367.90	0.00
368.10	0.00
368.30	0.00
368.49	0.00
368.69	0.00
368.89	0.00
369.09	0.00
369.28	0.00
369.48	0.00
369.68	0.00
369.87	0.00
370.07	0.00
370.27	0.00
370.47	0.00
370.66	0.00
370.86	0.00
371.06	0.00
371.25	0.00
371.45	18.72
371.65	11.70
371.84	9.36
372.04	25.75
372.24	0.00
372.44	65.54
372.63	0.00
372.83	0.00
373.03	0.00
373.22	0.00
373.42	25.75
373.62	23.41
373.81	49.15
374.01	18.72
374.21	37.45
374.40	32.77
374.60	14.04
374.79	98.30
374.99	28.09
375.19	107.66
375.38	79.58
375.58	51.49
375.78	60.85
375.97	46.81
376.17	2.34
376.37	0.00
376.56	25.75
376.76	95.96
376.95	133.41
377.15	81.92
377.35	14.04
377.54	0.00
377.74	16.38
377.93	7.02
378.13	35.11
378.33	2.34
378.52	0.00
378.72	30.43
378.91	72.56
379.11	60.85
379.31	16.38
379.50	81.92
379.70	0.00
379.89	2.34
380.09	25.75
380.28	37.45
380.48	18.72
380.68	28.09
380.87	0.00
381.07	0.00
381.26	28.09
381.46	0.00
381.65	49.15
381.85	30.43
382.04	0.00
382.24	0.00
382.43	0.00
382.63	14.04
382.83	28.09
383.02	21.06
383.22	42.13
383.41	0.00
383.61	23.41
383.80	77.24
384.00	46.81
384.19	14.04
384.39	0.00
384.58	2.34
384.78	28.09
384.97	0.00
385.17	0.00
385.36	16.38
385.56	77.24
385.75	39.79
385.95	18.72
386.14	0.00
386.34	18.72
386.53	16.38
386.72	18.72
386.92	98.30
387.11	0.00
387.31	0.00
387.50	4.68
387.70	93.62
387.89	0.00
388.09	51.49
388.28	0.00
388.48	25.75
388.67	0.00
388.86	51.49
389.06	88.94
389.25	25.75
389.45	0.00
389.64	0.00
389.84	28.09
390.03	51.49
390.22	9.36
390.42	46.81
390.61	7.02
390.81	18.72
391.00	0.00
391.19	63.19
391.39	49.15
391.58	0.00
391.78	28.09
391.97	67.88
392.16	65.54
392.36	124.05
392.55	0.00
392.75	16.38
392.94	44.47
393.13	0.00
393.33	30.43
393.52	0.00
393.71	0.00
393.91	0.00
394.10	0.00
394.29	16.38
394.49	42.13
394.68	56.17
394.88	32.77
395.07	100.64
395.26	88.94
395.46	35.11
395.65	81.92
395.84	28.09
396.04	42.13
396.23	16.38
396.42	9.36
396.62	88.94
396.81	0.00
397.00	28.09
397.19	0.00
397.39	9.36
397.58	46.81
397.77	0.00
397.97	0.00
398.16	0.00
398.35	51.49
398.55	9.36
398.74	25.75
398.93	46.81
399.12	2.34
399.32	65.54
399.51	46.81
399.70	51.49
399.90	0.00
400.09	39.79
400.28	0.00
400.47	4.68
400.67	98.30
400.86	74.90
401.05	28.09
401.24	21.06
401.44	0.00
401.63	25.75
401.82	0.00
402.01	0.00
402.21	25.75
402.40	0.00
402.59	65.54
402.78	9.36
402.97	0.00
403.17	44.47
403.36	0.00
403.55	0.00
403.74	39.79
403.93	7.02
404.13	60.85
404.32	0.00
404.51	58.51
404.70	0.00
404.89	2.34
405.09	46.81
405.28	0.00
405.47	30.43
405.66	23.41
405.85	0.00
406.05	28.09
406.24	93.62
406.43	49.15
406.62	74.90
406.81	44.47
407.00	28.09
407.20	16.38
407.39	46.81
407.58	30.43
407.77	18.72
407.96	14.04
408.15	18.72
408.34	11.70
408.54	95.96
408.73	14.04
408.92	77.24
409.11	72.56
409.30	53.83
409.49	21.06
409.68	0.00
409.87	0.00
410.07	28.09
410.26	4.68
410.45	37.45
410.64	0.00
410.83	4.68
411.02	21.06
411.21	42.13
411.40	4.68
411.59	18.72
411.78	65.54
411.98	0.00
412.17	0.00
412.36	37.45
412.55	7.02
412.74	4.68
412.93	11.70
413.12	28.09
413.31	74.90
413.50	0.00
413.69	0.00
413.88	67.88
414.07	2.34
414.26	49.15
414.45	88.94
414.64	0.00
414.83	18.72
415.02	0.00
415.22	44.47
415.41	65.54
415.60	18.72
415.79	67.88
415.98	0.00
416.17	65.54
416.36	53.83
416.55	46.81
416.74	0.00
416.93	0.00
417.12	53.83
417.31	35.11
417.50	124.05
417.69	11.70
417.88	65.54
418.07	4.68
418.26	16.38
418.45	4.68
418.64	56.17
418.83	14.04
419.02	28.09
419.21	44.47
419.39	14.04
419.58	35.11
419.77	70.22
419.96	35.11
420.15	51.49
420.34	70.22
420.53	9.36
420.72	4.68
420.91	25.75
421.10	44.47
421.29	58.51
421.48	0.00
421.67	21.06
421.86	21.06
422.05	16.38
422.24	35.11
422.43	58.51
422.61	35.11
422.80	0.00
422.99	21.06
423.18	28.09
423.37	23.41
423.56	0.00
423.75	18.72
423.94	14.04
424.13	42.13
424.32	32.77
424.50	28.09
424.69	51.49
424.88	0.00
425.07	0.00
425.26	2.34
425.45	0.00
425.64	100.64
425.83	11.70
426.01	37.45
426.20	100.64
426.39	18.72
426.58	70.22
426.77	23.41
426.96	0.00
427.15	30.43
427.33	112.35
427.52	0.00
427.71	28.09
427.90	0.00
428.09	2.34
428.28	21.06
428.46	37.45
428.65	44.47
428.84	0.00
429.03	65.54
429.22	0.00
429.40	39.79
429.59	28.09
429.78	35.11
429.97	25.75
430.16	0.00
430.34	39.79
430.53	51.49
430.72	28.09
430.91	49.15
431.10	0.00
431.28	46.81
431.47	2.34
431.66	51.49
431.85	74.90
432.03	0.00
432.22	39.79
432.41	81.92
432.60	28.09
432.79	39.79
432.97	105.32
433.16	56.17
433.35	60.85
433.54	14.04
433.72	9.36
433.91	0.00
434.10	2.34
434.28	35.11
434.47	42.13
434.66	65.54
434.85	21.06
435.03	53.83
435.22	23.41
435.41	0.00
435.59	0.00
435.78	44.47
435.97	14.04
436.16	0.00
436.34	42.13
436.53	16.38
436.72	46.81
436.90	30.43
437.09	0.00
437.28	0.00
437.46	39.79
437.65	0.00
437.84	44.47
438.02	2.34
438.21	39.79
438.40	51.49
438.58	23.41
438.77	51.49
438.96	51.49
439.14	32.77
439.33	23.41
439.52	37.45
439.70	0.00
439.89	65.54
440.08	7.02
440.26	21.06
440.45	44.47
440.63	16.38
440.82	0.00
441.01	30.43
441.19	53.83
441.38	32.77
441.57	0.00
441.75	53.83
441.94	23.41
442.12	53.83
442.31	53.83
442.50	65.54
442.68	0.00
442.87	58.51
443.05	7.02
443.24	0.00
443.43	44.47
443.61	9.36
443.80	35.11
443.98	0.00
444.17	4.68
444.35	86.60
444.54	28.09
444.73	63.19
444.91	0.00
445.10	32.77
445.28	9.36
445.47	65.54
445.65	46.81
445.84	95.96
446.02	25.75
446.21	51.49
446.39	42.13
446.58	16.38
446.77	0.00
446.95	0.00
447.14	4.68
447.32	53.83
447.51	0.00
447.69	42.13
447.88	14.04
448.06	49.15
448.25	25.75
448.43	102.98
448.62	63.19
448.80	102.98
448.99	28.09
449.17	28.09
449.36	0.00
449.54	56.17
449.73	58.51
449.91	42.13
450.10	77.24
450.28	44.47
450.46	39.79
450.65	126.39
450.83	49.15
451.02	98.30
451.20	53.83
451.39	42.13
451.57	77.24
451.76	44.47
451.94	7.02
452.13	7.02
452.31	35.11
452.49	30.43
452.68	14.04
452.86	72.56
453.05	60.85
453.23	37.45
453.42	42.13
453.60	93.62
453.78	32.77
453.97	9.36
454.15	4.68
454.34	72.56
454.52	9.36
454.70	93.62
454.89	49.15
455.07	16.38
455.26	28.09
455.44	91.28
455.62	49.15
455.81	28.09
455.99	53.83
456.17	58.51
456.36	0.00
456.54	51.49
456.73	67.88
456.91	0.00
457.09	39.79
457.28	84.26
457.46	14.04
457.64	42.13
457.83	51.49
458.01	44.47
458.19	37.45
458.38	60.85
458.56	0.00
458.74	140.43
458.93	0.00
459.11	25.75
459.29	30.43
459.48	37.45
459.66	0.00
459.84	102.98
460.03	88.94
460.21	11.70
460.39	42.13
460.57	0.00
460.76	65.54
460.94	16.38
461.12	18.72
461.31	21.06
461.49	95.96
461.67	0.00
461.85	0.00
462.04	91.28
462.22	70.22
462.40	0.00
462.59	65.54
462.77	107.66
462.95	32.77
463.13	21.06
463.32	0.00
463.50	0.00
463.68	32.77
463.86	4.68
464.05	49.15
464.23	81.92
464.41	4.68
464.59	95.96
464.78	18.72
464.96	0.00
465.14	0.00
465.32	7.02
465.50	0.00
465.69	0.00
465.87	7.02
466.05	72.56
466.23	37.45
466.41	0.00
466.60	56.17
466.78	16.38
466.96	51.49
467.14	60.85
467.32	67.88
467.51	93.62
467.69	18.72
467.87	46.81
468.05	0.00
468.23	32.77
468.41	18.72
468.60	49.15
468.78	51.49
468.96	135.75
469.14	49.15
469.32	42.13
469.50	28.09
469.69	30.43
469.87	77.24
470.05	74.90
470.23	0.00
470.41	0.00
470.59	0.00
470.77	72.56
470.95	49.15
471.14	9.36
471.32	0.00
471.50	133.41
471.68	14.04
471.86	21.06
472.04	4.68
472.22	67.88
472.40	0.00
472.58	16.38
472.77	51.49
472.95	53.83
473.13	23.41
473.31	21.06
473.49	25.75
473.67	23.41
473.85	56.17
474.03	0.00
474.21	14.04
474.39	49.15
474.57	37.45
474.75	0.00
474.93	112.35
475.12	4.68
475.30	46.81
475.48	0.00
475.66	0.00
475.84	37.45
476.02	7.02
476.20	72.56
476.38	84.26
476.56	32.77
476.74	112.35
476.92	93.62
477.10	67.88
477.28	21.06
477.46	53.83
477.64	9.36
477.82	0.00
478.00	0.00
478.18	0.00
478.36	53.83
478.54	67.88
478.72	14.04
478.90	77.24
479.08	91.28
479.26	25.75
479.44	37.45
479.62	32.77
479.80	4.68
479.98	60.85
480.16	145.11
480.34	119.37
480.52	0.00
480.70	0.00
480.88	4.68
481.06	154.48
481.24	0.00
481.41	0.00
481.59	93.62
481.77	18.72
481.95	4.68
482.13	84.26
482.31	28.09
482.49	56.17
482.67	0.00
482.85	0.00
483.03	4.68
483.21	46.81
483.39	0.00
483.57	35.11
483.74	18.72
483.92	42.13
484.10	21.06
484.28	30.43
484.46	23.41
484.64	0.00
484.82	86.60
485.00	114.69
485.18	88.94
485.35	77.24
485.53	11.70
485.71	0.00
485.89	0.00
486.07	0.00
486.25	161.50
486.43	93.62
486.61	46.81
486.78	65.54
486.96	2.34
487.14	0.00
487.32	23.41
487.50	4.68
487.68	84.26
487.85	49.15
488.03	16.38
488.21	56.17
488.39	58.51
488.57	2.34
488.75	37.45
488.92	72.56
489.10	11.70
489.28	77.24
489.46	77.24
489.64	0.00
489.81	39.79
489.99	23.41
490.17	56.17
490.35	42.13
490.53	7.02
490.70	44.47
490.88	21.06
491.06	35.11
491.24	77.24
491.41	56.17
491.59	16.38
491.77	32.77
491.95	49.15
492.13	0.00
492.30	0.00
492.48	28.09
492.66	49.15
492.84	30.43
493.01	0.00
493.19	44.47
493.37	124.05
493.54	25.75
493.72	0.00
493.90	39.79
494.08	46.81
494.25	2.34
494.43	30.43
494.61	63.19
494.79	4.68
494.96	74.90
495.14	86.60
495.32	0.00
495.49	0.00
495.67	46.81
495.85	88.94
496.02	49.15
496.20	49.15
496.38	72.56
496.55	60.85
496.73	39.79
496.91	37.45
497.09	4.68
497.26	21.06
497.44	44.47
497.62	100.64
497.79	23.41
497.97	0.00
498.14	0.00
498.32	65.54
498.50	0.00
498.67	46.81
498.85	4.68
499.03	0.00
499.20	53.83
499.38	58.51
499.56	81.92
499.73	44.47
499.91	46.81
500.08	65.54
500.26	21.06
500.44	0.00
500.61	60.85
500.79	77.24
500.97	32.77
501.14	60.85
501.32	86.60
501.49	37.45
501.67	56.17
501.84	65.54
502.02	4.68
502.20	58.51
502.37	28.09
502.55	58.51
502.72	60.85
502.90	0.00
503.07	37.45
503.25	7.02
503.43	39.79
503.60	21.06
503.78	70.22
503.95	42.13
504.13	7.02
504.30	114.69
504.48	72.56
504.65	56.17
504.83	32.77
505.01	37.45
505.18	105.32
505.36	25.75
505.53	32.77
505.71	35.11
505.88	114.69
506.06	0.00
506.23	35.11
506.41	74.90
506.58	16.38
506.76	35.11
506.93	65.54
507.11	35.11
507.28	74.90
507.46	37.45
507.63	70.22
507.81	77.24
507.98	0.00
508.16	93.62
508.33	74.90
508.50	77.24
508.68	30.43
508.85	72.56
509.03	25.75
509.20	88.94
509.38	88.94
509.55	23.41
509.73	42.13
509.90	93.62
510.08	30.43
510.25	35.11
510.42	32.77
510.60	0.00
510.77	98.30
510.95	56.17
511.12	21.06
511.30	100.64
511.47	23.41
511.64	11.70
511.82	91.28
511.99	14.04
512.17	0.00
512.34	32.77
512.51	30.43
512.69	65.54
512.86	2.34
513.04	88.94
513.21	84.26
513.38	0.00
513.56	63.19
513.73	14.04
513.90	18.72
514.08	11.70
514.25	77.24
514.43	49.15
514.60	25.75
514.77	65.54
514.95	11.70
515.12	30.43
515.29	93.62
515.47	72.56
515.64	86.60
515.81	25.75
515.99	49.15
516.16	56.17
516.33	21.06
516.51	28.09
516.68	51.49
516.85	42.13
517.03	44.47
517.20	67.88
517.37	58.51
517.54	16.38
517.72	51.49
517.89	28.09
518.06	14.04
518.24	0.00
518.41	7.02
518.58	98.30
518.75	21.06
518.93	53.83
519.10	110.01
519.27	110.01
519.45	102.98
519.62	23.41
519.79	49.15
519.96	77.24
520.14	117.03
520.31	58.51
520.48	16.38
520.65	67.88
520.83	32.77
521.00	32.77
521.17	0.00
521.34	0.00
521.52	74.90
521.69	72.56
521.86	39.79
522.03	25.75
522.20	35.11
522.38	65.54
522.55	72.56
522.72	44.47
522.89	51.49
523.07	28.09
523.24	23.41
523.41	37.45
523.58	42.13
523.75	21.06
523.92	65.54
524.10	21.06
524.27	77.24
524.44	0.00
524.61	21.06
524.78	0.00
524.96	114.69
525.13	60.85
525.30	88.94
525.47	46.81
525.64	53.83
525.81	0.00
525.98	88.94
526.16	39.79
526.33	35.11
526.50	35.11
526.67	37.45
526.84	0.00
527.01	14.04
527.18	28.09
527.36	23.41
527.53	16.38
527.70	7.02
527.87	35.11
528.04	32.77
528.21	95.96
528.38	102.98
528.55	81.92
528.72	39.79
528.89	67.88
529.07	2.34
529.24	25.75
529.41	107.66
529.58	56.17
529.75	56.17
529.92	0.00
530.09	9.36
530.26	7.02
530.43	98.30
530.60	100.64
530.77	70.22
530.94	102.98
531.11	107.66
531.28	16.38
531.46	35.11
531.63	2.34
531.80	21.06
531.97	84.26
532.14	7.02
532.31	37.45
532.48	14.04
532.65	0.00
532.82	98.30
532.99	119.37
533.16	70.22
533.33	44.47
533.50	60.85
533.67	49.15
533.84	77.24
534.01	23.41
534.18	18.72
534.35	30.43
534.52	11.70
534.69	32.77
534.86	32.77
535.03	9.36
535.20	11.70
535.37	25.75
535.54	81.92
535.71	88.94
535.88	37.45
536.05	72.56
536.22	74.90
536.38	0.00
536.55	65.54
536.72	74.90
536.89	32.77
537.06	14.04
537.23	44.47
537.40	9.36
537.57	74.90
537.74	23.41
537.91	39.79
538.08	51.49
538.25	65.54
538.42	7.02
538.59	35.11
538.75	35.11
538.92	35.11
539.09	79.58
539.26	51.49
539.43	117.03
539.60	74.90
539.77	124.05
539.94	84.26
540.11	147.45
540.28	72.56
540.44	84.26
540.61	63.19
540.78	77.24
540.95	0.00
541.12	14.04
541.29	0.00
541.46	100.64
541.62	23.41
541.79	0.00
541.96	74.90
542.13	32.77
542.30	79.58
542.47	51.49
542.63	30.43
542.80	35.11
542.97	53.83
543.14	37.45
543.31	42.13
543.48	9.36
543.64	42.13
543.81	63.19
543.98	9.36
544.15	9.36
544.32	16.38
544.48	0.00
544.65	53.83
544.82	63.19
544.99	32.77
545.16	93.62
545.32	18.72
545.49	77.24
545.66	105.32
545.83	21.06
546.00	110.01
546.16	58.51
546.33	88.94
546.50	35.11
546.67	32.77
546.83	65.54
547.00	14.04
547.17	0.00
547.34	58.51
547.50	102.98
547.67	42.13
547.84	84.26
548.00	44.47
548.17	4.68
548.34	0.00
548.51	28.09
548.67	0.00
548.84	67.88
549.01	49.15
549.18	21.06
549.34	14.04
549.51	112.35
549.68	39.79
549.84	117.03
550.01	2.34
550.18	21.06
550.34	0.00
550.51	46.81
550.68	84.26
550.84	95.96
551.01	56.17
551.18	23.41
551.34	39.79
551.51	53.83
551.68	98.30
551.84	14.04
552.01	0.00
552.18	95.96
552.34	35.11
552.51	16.38
552.68	9.36
552.84	88.94
553.01	46.81
553.18	51.49
553.34	0.00
553.51	42.13
553.67	37.45
553.84	0.00
554.01	51.49
554.17	53.83
554.34	46.81
554.51	25.75
554.67	56.17
554.84	51.49
555.00	23.41
555.17	0.00
555.33	60.85
555.50	81.92
555.67	56.17
555.83	42.13
556.00	23.41
556.16	58.51
556.33	42.13
556.50	0.00
556.66	58.51
556.83	0.00
556.99	18.72
557.16	70.22
557.32	11.70
557.49	28.09
557.65	124.05
557.82	0.00
557.98	0.00
558.15	35.11
558.32	32.77
558.48	81.92
558.65	44.47
558.81	9.36
558.98	56.17
559.14	35.11
559.31	14.04
559.47	56.17
559.64	28.09
559.80	18.72
559.97	9.36
560.13	35.11
560.30	44.47
560.46	7.02
560.63	72.56
560.79	77.24
560.96	39.79
561.12	42.13
561.29	98.30
561.45	4.68
561.61	28.09
561.78	46.81
561.94	2.34
562.11	53.83
562.27	0.00
562.44	0.00
562.60	7.02
562.77	23.41
562.93	91.28
563.10	102.98
563.26	39.79
563.42	56.17
563.59	49.15
563.75	58.51
563.92	63.19
564.08	86.60
564.24	42.13
564.41	0.00
564.57	30.43
564.74	32.77
564.90	0.00
565.07	58.51
565.23	30.43
565.39	56.17
565.56	21.06
565.72	28.09
565.88	74.90
566.05	51.49
566.21	60.85
566.38	28.09
566.54	14.04
566.70	44.47
566.87	49.15
567.03	21.06
567.19	63.19
567.36	7.02
567.52	0.00
567.68	0.00
567.85	35.11
568.01	91.28
568.17	14.04
568.34	9.36
568.50	14.04
568.66	11.70
568.83	35.11
568.99	67.88
569.15	79.58
569.32	16.38
569.48	44.47
569.64	23.41
569.81	18.72
569.97	51.49
570.13	58.51
570.30	42.13
570.46	21.06
570.62	74.90
570.78	58.51
570.95	42.13
571.11	0.00
571.27	25.75
571.43	117.03
571.60	7.02
571.76	18.72
571.92	37.45
572.09	79.58
572.25	9.36
572.41	2.34
572.57	23.41
572.74	0.00
572.90	0.00
573.06	23.41
573.22	25.75
573.38	79.58
573.55	18.72
573.71	0.00
573.87	37.45
574.03	84.26
574.20	42.13
574.36	77.24
574.52	30.43
574.68	21.06
574.84	128.73
575.01	35.11
575.17	49.15
575.33	32.77
575.49	98.30
575.65	84.26
575.82	74.90
575.98	4.68
576.14	74.90
576.30	88.94
576.46	107.66
576.62	9.36
576.79	21.06
576.95	42.13
577.11	23.41
577.27	9.36
577.43	56.17
577.59	53.83
577.75	0.00
577.92	4.68
578.08	70.22
578.24	60.85
578.40	81.92
578.56	23.41
578.72	49.15
578.88	30.43
579.04	0.00
579.21	37.45
579.37	39.79
579.53	60.85
579.69	77.24
579.85	100.64
580.01	53.83
580.17	9.36
580.33	25.75
580.49	0.00
580.65	46.81
580.82	74.90
580.98	25.75
581.14	9.36
581.30	63.19
581.46	65.54
581.62	147.45
581.78	110.01
581.94	51.49
582.10	28.09
582.26	0.00
582.42	42.13
582.58	77.24
582.74	74.90
582.90	49.15
583.06	23.41
583.22	93.62
583.38	18.72
583.54	84.26
583.70	91.28
583.86	117.03
584.02	88.94
584.18	39.79
584.34	65.54
584.50	175.54
584.66	1240.48
584.82	2771.19
584.98	4262.12
585.14	3791.67
585.30	2427.14
585.46	1502.62
585.62	819.19
585.78	503.22
585.94	152.13
586.10	133.41
586.26	51.49
586.42	81.92
586.58	88.94
586.74	93.62
586.90	28.09
587.06	95.96
587.22	16.38
587.38	0.00
587.54	93.62
587.70	184.90
587.86	327.68
588.02	318.31
588.18	264.48
588.34	252.78
588.49	159.16
588.65	107.66
588.81	91.28
588.97	58.51
589.13	93.62
589.29	46.81
589.45	63.19
589.61	23.41
589.77	51.49
589.93	30.43
590.08	28.09
590.24	30.43
590.40	88.94
590.56	11.70
590.72	32.77
590.88	105.32
591.04	44.47
591.20	32.77
591.35	58.51
591.51	28.09
591.67	51.49
591.83	21.06
591.99	18.72
592.15	9.36
592.31	0.00
592.46	0.00
592.62	0.00
592.78	0.00
592.94	0.00
593.10	91.28
593.26	74.90
593.41	72.56
593.57	70.22
593.73	119.37
593.89	175.54
594.05	332.36
594.20	545.34
594.36	582.79
594.52	416.62
594.68	243.42
594.84	168.52
594.99	161.50
595.15	60.85
595.31	77.24
595.47	53.83
595.62	95.96
595.78	46.81
595.94	46.81
596.10	60.85
596.25	98.30
596.41	16.38
596.57	32.77
596.73	67.88
596.88	154.48
597.04	102.98
597.20	236.39
597.36	135.75
597.51	124.05
597.67	119.37
597.83	51.49
597.99	67.88
598.14	23.41
598.30	0.00
598.46	0.00
598.61	23.41
598.77	60.85
598.93	65.54
599.09	138.09
599.24	7.02
599.40	67.88
599.56	7.02
599.71	14.04
599.87	74.90
600.03	100.64
600.18	14.04
600.34	14.04
600.50	35.11
600.65	65.54
600.81	16.38
600.97	107.66
601.12	60.85
601.28	102.98
601.44	42.13
601.59	70.22
601.75	58.51
601.91	4.68
602.06	11.70
602.22	126.39
602.37	72.56
602.53	114.69
602.69	105.32
602.84	236.39
603.00	215.33
603.16	131.07
603.31	65.54
603.47	72.56
603.62	51.49
603.78	0.00
603.94	91.28
604.09	119.37
604.25	44.47
604.40	98.30
604.56	58.51
604.71	79.58
604.87	21.06
605.03	32.77
605.18	37.45
605.34	46.81
605.49	51.49
605.65	37.45
605.80	0.00
605.96	79.58
606.12	79.58
606.27	58.51
606.43	0.00
606.58	112.35
606.74	0.00
606.89	243.42
607.05	468.11
607.20	454.06
607.36	315.97
607.51	318.31
607.67	276.18
607.82	138.09
607.98	124.05
608.13	93.62
608.29	44.47
608.44	39.79
608.60	65.54
608.75	0.00
608.91	56.17
609.06	301.93
609.22	596.84
609.37	816.85
609.53	716.20
609.68	503.22
609.84	365.12
609.99	231.71
610.15	131.07
610.30	117.03
610.46	0.00
610.61	28.09
610.76	46.81
610.92	56.17
611.07	39.79
611.23	51.49
611.38	37.45
611.54	49.15
611.69	0.00
611.84	30.43
612.00	53.83
612.15	86.60
612.31	9.36
612.46	56.17
612.62	39.79
612.77	70.22
612.92	51.49
613.08	32.77
613.23	88.94
613.39	49.15
613.54	63.19
613.69	301.93
613.85	734.93
614.00	1156.22
614.15	1233.46
614.31	1004.09
614.46	645.99
614.62	369.80
614.77	264.48
614.92	161.50
615.08	142.77
615.23	0.00
615.38	2.34
615.54	65.54
615.69	44.47
615.84	100.64
616.00	327.68
616.15	367.46
616.30	344.06
616.46	229.37
616.61	140.43
616.76	56.17
616.92	44.47
617.07	18.72
617.22	4.68
617.37	72.56
617.53	93.62
617.68	53.83
617.83	16.38
617.99	0.00
618.14	53.83
618.29	28.09
618.45	0.00
618.60	60.85
618.75	35.11
618.90	32.77
619.06	0.00
619.21	0.00
619.36	79.58
619.51	0.00
619.67	49.15
619.82	84.26
619.97	4.68
620.12	0.00
620.28	77.24
620.43	63.19
620.58	18.72
620.73	81.92
620.89	30.43
621.04	77.24
621.19	112.35
621.34	212.99
621.49	203.63
621.65	189.58
621.80	156.82
621.95	93.62
622.10	35.11
622.25	91.28
622.41	74.90
622.56	42.13
622.71	110.01
622.86	65.54
623.01	18.72
623.16	72.56
623.32	16.38
623.47	0.00
623.62	81.92
623.77	65.54
623.92	53.83
624.07	30.43
624.23	44.47
624.38	32.77
624.53	88.94
624.68	0.00
624.83	0.00
624.98	37.45
625.13	0.00
625.29	7.02
625.44	37.45
625.59	32.77
625.74	93.62
625.89	49.15
626.04	114.69
626.19	423.64
626.34	615.56
626.49	685.78
626.65	489.17
626.80	320.65
626.95	271.50
627.10	196.60
627.25	79.58
627.40	51.49
627.55	95.96
627.70	0.00
627.85	21.06
628.00	0.00
628.15	23.41
628.30	72.56
628.45	126.39
628.60	0.00
628.76	60.85
628.91	77.24
629.06	16.38
629.21	42.13
629.36	0.00
629.51	65.54
629.66	30.43
629.81	7.02
629.96	98.30
630.11	198.95
630.26	238.73
630.41	198.95
630.56	114.69
630.71	70.22
630.86	42.13
631.01	0.00
631.16	72.56
631.31	0.00
631.46	30.43
631.61	30.43
631.76	70.22
631.91	70.22
632.06	86.60
632.21	0.00
632.36	77.24
632.51	9.36
632.66	67.88
632.81	84.26
632.96	339.38
633.10	379.17
633.25	472.79
633.40	381.51
633.55	285.55
633.70	229.37
633.85	166.18
634.00	128.73
634.15	23.41
634.30	46.81
634.45	65.54
634.60	72.56
634.75	7.02
634.90	84.26
635.05	124.05
635.19	7.02
635.34	23.41
635.49	72.56
635.64	23.41
635.79	51.49
635.94	25.75
636.09	23.41
636.24	30.43
636.39	9.36
636.53	0.00
636.68	9.36
636.83	63.19
636.98	65.54
637.13	51.49
637.28	112.35
637.43	30.43
637.57	49.15
637.72	215.33
637.87	486.83
638.02	767.70
638.17	968.98
638.32	671.73
638.46	496.19
638.61	315.97
638.76	227.03
638.91	170.86
639.06	42.13
639.20	0.00
639.35	112.35
639.50	79.58
639.65	360.44
639.80	760.67
639.94	1184.31
640.09	1320.06
640.24	985.37
640.39	711.52
640.54	538.32
640.68	369.80
640.83	173.20
640.98	140.43
641.13	91.28
641.27	140.43
641.42	9.36
641.57	46.81
641.72	91.28
641.86	67.88
642.01	51.49
642.16	72.56
642.31	30.43
642.45	74.90
642.60	35.11
642.75	46.81
642.90	42.13
643.04	9.36
643.19	81.92
643.34	126.39
643.48	39.79
643.63	133.41
643.78	44.47
643.93	23.41
644.07	35.11
644.22	35.11
644.37	65.54
644.51	42.13
644.66	56.17
644.81	32.77
644.95	32.77
645.10	58.51
645.25	0.00
645.39	21.06
645.54	9.36
645.69	51.49
645.83	56.17
645.98	9.36
646.13	16.38
646.27	53.83
646.42	46.81
646.57	77.24
646.71	86.60
646.86	0.00
647.00	35.11
647.15	49.15
647.30	60.85
647.44	0.00
647.59	2.34
647.74	60.85
647.88	0.00
648.03	42.13
648.17	39.79
648.32	74.90
648.47	81.92
648.61	91.28
648.76	42.13
648.90	72.56
649.05	98.30
649.20	44.47
649.34	18.72
649.49	46.81
649.63	112.35
649.78	60.85
649.92	37.45
650.07	105.32
650.21	360.44
650.36	547.69
650.51	716.20
650.65	596.84
650.80	404.91
650.94	241.08
651.09	198.95
651.23	142.77
651.38	102.98
651.52	95.96
651.67	91.28
651.81	74.90
651.96	72.56
652.10	77.24
652.25	70.22
652.39	0.00
652.54	72.56
652.68	37.45
652.83	119.37
652.97	180.22
653.12	337.04
653.26	257.46
653.41	184.90
653.55	177.88
653.70	98.30
653.84	102.98
653.99	30.43
654.13	32.77
654.27	7.02
654.42	0.00
654.56	4.68
654.71	23.41
654.85	0.00
655.00	65.54
655.14	100.64
655.29	28.09
655.43	42.13
655.57	0.00
655.72	117.03
655.86	0.00
656.01	30.43
656.15	51.49
656.30	0.00
656.44	28.09
656.58	0.00
656.73	84.26
656.87	16.38
657.01	37.45
657.16	30.43
657.30	0.00
657.45	74.90
657.59	11.70
657.73	72.56
657.88	35.11
658.02	0.00
658.16	11.70
658.31	14.04
658.45	44.47
658.60	23.41
658.74	7.02
658.88	60.85
659.03	35.11
659.17	58.51
659.31	7.02
659.46	184.90
659.60	269.16
659.74	376.83
659.89	383.85
660.03	292.57
660.17	166.18
660.32	65.54
660.46	107.66
660.60	46.81
660.74	95.96
660.89	9.36
661.03	9.36
661.17	18.72
661.32	28.09
661.46	2.34
661.60	51.49
661.74	46.81
661.89	51.49
662.03	72.56
662.17	154.48
662.31	86.60
662.46	30.43
662.60	56.17
662.74	42.13
662.88	107.66
663.03	39.79
663.17	42.13
663.31	79.58
663.45	42.13
663.60	28.09
663.74	84.26
663.88	16.38
664.02	0.00
664.17	16.38
664.31	0.00
664.45	49.15
664.59	46.81
664.73	14.04
664.88	0.00
665.02	42.13
665.16	63.19
665.30	44.47
665.44	51.49
665.59	9.36
665.73	21.06
665.87	60.85
666.01	21.06
666.15	53.83
666.29	74.90
666.44	42.13
666.58	51.49
666.72	9.36
666.86	112.35
667.00	88.94
667.14	74.90
667.28	166.18
667.43	292.57
667.57	423.64
667.71	622.58
667.85	552.37
667.99	411.93
668.13	238.73
668.27	149.79
668.41	135.75
668.56	72.56
668.70	79.58
668.84	23.41
668.98	86.60
669.12	93.62
669.26	63.19
669.40	25.75
669.54	0.00
669.68	49.15
669.82	37.45
669.96	51.49
670.10	39.79
670.25	32.77
670.39	51.49
670.53	39.79
670.67	18.72
670.81	0.00
670.95	49.15
671.09	79.58
671.23	102.98
671.37	245.76
671.51	346.40
671.65	423.64
671.79	315.97
671.93	187.24
672.07	215.33
672.21	117.03
672.35	88.94
672.49	72.56
672.63	0.00
672.77	0.00
672.91	37.45
673.05	74.90
673.19	77.24
673.33	79.58
673.47	16.38
673.61	21.06
673.75	72.56
673.89	49.15
674.03	51.49
674.17	51.49
674.31	86.60
674.45	18.72
674.59	0.00
674.73	0.00
674.87	21.06
675.01	86.60
675.15	84.26
675.29	28.09
675.43	77.24
675.56	25.75
675.70	37.45
675.84	14.04
675.98	58.51
676.12	16.38
676.26	11.70
676.40	18.72
676.54	0.00
676.68	35.11
676.82	100.64
676.96	65.54
677.10	105.32
677.23	49.15
677.37	0.00
677.51	121.71
677.65	39.79
677.79	100.64
677.93	28.09
678.07	95.96
678.21	28.09
678.34	77.24
678.48	63.19
678.62	23.41
678.76	18.72
678.90	51.49
679.04	0.00
679.18	0.00
679.31	32.77
679.45	0.00
679.59	58.51
679.73	0.00
679.87	0.00
680.00	21.06
680.14	0.00
680.28	0.00
680.42	77.24
680.56	72.56
680.70	9.36
680.83	46.81
680.97	37.45
681.11	0.00
681.25	32.77
681.39	28.09
681.52	7.02
681.66	0.00
681.80	0.00
681.94	35.11
682.07	30.43
682.21	79.58
682.35	0.00
682.49	56.17
682.62	49.15
682.76	9.36
682.90	0.00
683.04	56.17
683.17	53.83
683.31	0.00
683.45	4.68
683.59	74.90
683.72	81.92
683.86	14.04
684.00	0.00
684.13	63.19
684.27	0.00
684.41	53.83
684.55	58.51
684.68	23.41
684.82	53.83
684.96	0.00
685.09	0.00
685.23	56.17
685.37	0.00
685.50	39.79
685.64	65.54
685.78	32.77
685.91	49.15
686.05	46.81
686.19	30.43
686.32	49.15
686.46	37.45
686.60	28.09
686.73	21.06
686.87	46.81
687.01	67.88
687.14	0.00
687.28	112.35
687.42	58.51
687.55	0.00
687.69	0.00
687.82	0.00
687.96	0.00
688.10	0.00
688.23	0.00
688.37	65.54
688.50	0.00
688.64	0.00
688.78	67.88
688.91	11.70
689.05	65.54
689.18	63.19
689.32	7.02
689.46	25.75
689.59	58.51
689.73	70.22
689.86	63.19
690.00	51.49
690.13	49.15
690.27	49.15
690.41	65.54
690.54	63.19
690.68	25.75
690.81	72.56
690.95	79.58
691.08	14.04
691.22	72.56
691.35	63.19
691.49	30.43
691.62	0.00
691.76	23.41
691.89	0.00
692.03	0.00
692.16	32.77
692.30	18.72
692.43	133.41
692.57	173.20
692.70	198.95
692.84	299.59
692.97	301.93
693.11	191.92
693.24	175.54
693.38	140.43
693.51	51.49
693.65	63.19
693.78	100.64
693.92	0.00
694.05	16.38
694.19	0.00
694.32	131.07
694.45	51.49
694.59	49.15
694.72	0.00
694.86	67.88
694.99	86.60
695.13	84.26
695.26	67.88
695.39	98.30
695.53	42.13
695.66	25.75
695.80	28.09
695.93	0.00
696.07	0.00
696.20	16.38
696.33	67.88
696.47	60.85
696.60	121.71
696.73	0.00
696.87	28.09
697.00	51.49
697.14	91.28
697.27	0.00
697.40	0.00
697.54	14.04
697.67	67.88
697.80	77.24
697.94	56.17
698.07	0.00
698.21	42.13
698.34	18.72
698.47	107.66
698.61	51.49
698.74	9.36
698.87	30.43
699.01	0.00
699.14	2.34
699.27	142.77
699.40	81.92
699.54	0.00
699.67	16.38
699.80	2.34
699.94	0.00
700.07	0.00
700.20	60.85
700.34	0.00
700.47	7.02
700.60	0.00
700.73	23.41
700.87	14.04
701.00	67.88
701.13	28.09
701.26	65.54
701.40	35.11
701.53	25.75
701.66	46.81
701.79	58.51
701.93	32.77
702.06	81.92
702.19	28.09
702.32	121.71
702.46	67.88
702.59	4.68
702.72	2.34
702.85	245.76
702.99	397.89
703.12	477.47
703.25	533.64
703.38	433.00
703.51	465.77
703.65	241.08
703.78	222.35
703.91	112.35
704.04	93.62
704.17	98.30
704.31	11.70
704.44	79.58
704.57	74.90
704.70	0.00
704.83	25.75
704.96	77.24
705.10	56.17
705.23	56.17
>>>>>End Processed Spectral Data<<<<<
