SpectraSuite Data File
++++++++++++++++++++++++++++++++++++
Date: Fri Oct 04 12:13:29 GMT-05:00 2013
User: price-jones
Dark Spectrum Present: No
Reference Spectrum Present: No
Number of Sampled Component Spectra: 1
Spectrometers: USB2+H05261
Integration Time (usec): 10000 (USB2+H05261)
Spectra Averaged: 1 (USB2+H05261)
Boxcar Smoothing: 0 (USB2+H05261)
Correct for Electrical Dark: No (USB2+H05261)
Strobe/Lamp Enabled: No (USB2+H05261)
Correct for Detector Non-linearity: No (USB2+H05261)
Correct for Stray Light: No (USB2+H05261)
Number of Pixels in Processed Spectrum: 2048
>>>>>Begin Processed Spectral Data<<<<<
365.73	32.77
365.92	32.77
366.12	32.77
366.32	0.00
366.52	0.00
366.72	0.00
366.91	0.00
367.11	0.00
367.31	0.00
367.51	0.00
367.70	0.00
367.90	0.00
368.10	0.00
368.30	0.00
368.49	0.00
368.69	0.00
368.89	0.00
369.09	0.00
369.28	0.00
369.48	0.00
369.68	0.00
369.87	0.00
370.07	0.00
370.27	0.00
370.47	0.00
370.66	0.00
370.86	0.00
371.06	0.00
371.25	53.83
371.45	0.00
371.65	0.00
371.84	0.00
372.04	11.70
372.24	0.00
372.44	39.79
372.63	4.68
372.83	2.34
373.03	39.79
373.22	63.19
373.42	42.13
373.62	67.88
373.81	0.00
374.01	11.70
374.21	128.73
374.40	9.36
374.60	0.00
374.79	0.00
374.99	51.49
375.19	11.70
375.38	0.00
375.58	56.17
375.78	0.00
375.97	0.00
376.17	35.11
376.37	0.00
376.56	11.70
376.76	4.68
376.95	60.85
377.15	84.26
377.35	30.43
377.54	39.79
377.74	21.06
377.93	88.94
378.13	0.00
378.33	51.49
378.52	0.00
378.72	70.22
378.91	60.85
379.11	0.00
379.31	44.47
379.50	28.09
379.70	98.30
379.89	0.00
380.09	32.77
380.28	11.70
380.48	0.00
380.68	72.56
380.87	0.00
381.07	9.36
381.26	42.13
381.46	23.41
381.65	63.19
381.85	0.00
382.04	30.43
382.24	9.36
382.43	72.56
382.63	18.72
382.83	32.77
383.02	37.45
383.22	16.38
383.41	11.70
383.61	14.04
383.80	51.49
384.00	0.00
384.19	126.39
384.39	2.34
384.58	0.00
384.78	44.47
384.97	0.00
385.17	11.70
385.36	49.15
385.56	46.81
385.75	105.32
385.95	98.30
386.14	25.75
386.34	60.85
386.53	4.68
386.72	37.45
386.92	39.79
387.11	7.02
387.31	0.00
387.50	49.15
387.70	35.11
387.89	79.58
388.09	56.17
388.28	9.36
388.48	51.49
388.67	0.00
388.86	46.81
389.06	0.00
389.25	53.83
389.45	70.22
389.64	81.92
389.84	42.13
390.03	0.00
390.22	0.00
390.42	28.09
390.61	4.68
390.81	65.54
391.00	56.17
391.19	58.51
391.39	30.43
391.58	65.54
391.78	0.00
391.97	21.06
392.16	0.00
392.36	74.90
392.55	0.00
392.75	32.77
392.94	4.68
393.13	60.85
393.33	35.11
393.52	0.00
393.71	0.00
393.91	37.45
394.10	16.38
394.29	9.36
394.49	0.00
394.68	0.00
394.88	65.54
395.07	46.81
395.26	11.70
395.46	9.36
395.65	18.72
395.84	0.00
396.04	117.03
396.23	0.00
396.42	7.02
396.62	0.00
396.81	9.36
397.00	0.00
397.19	0.00
397.39	0.00
397.58	0.00
397.77	0.00
397.97	42.13
398.16	0.00
398.35	70.22
398.55	0.00
398.74	79.58
398.93	0.00
399.12	16.38
399.32	32.77
399.51	0.00
399.70	0.00
399.90	0.00
400.09	28.09
400.28	60.85
400.47	37.45
400.67	9.36
400.86	0.00
401.05	70.22
401.24	0.00
401.44	0.00
401.63	39.79
401.82	28.09
402.01	0.00
402.21	60.85
402.40	21.06
402.59	0.00
402.78	28.09
402.97	9.36
403.17	67.88
403.36	23.41
403.55	9.36
403.74	30.43
403.93	39.79
404.13	49.15
404.32	72.56
404.51	7.02
404.70	86.60
404.89	39.79
405.09	44.47
405.28	39.79
405.47	98.30
405.66	42.13
405.85	42.13
406.05	56.17
406.24	42.13
406.43	0.00
406.62	0.00
406.81	51.49
407.00	0.00
407.20	0.00
407.39	63.19
407.58	70.22
407.77	91.28
407.96	53.83
408.15	0.00
408.34	9.36
408.54	0.00
408.73	0.00
408.92	56.17
409.11	21.06
409.30	0.00
409.49	39.79
409.68	0.00
409.87	11.70
410.07	9.36
410.26	2.34
410.45	79.58
410.64	11.70
410.83	0.00
411.02	18.72
411.21	11.70
411.40	9.36
411.59	0.00
411.78	37.45
411.98	84.26
412.17	0.00
412.36	35.11
412.55	53.83
412.74	28.09
412.93	0.00
413.12	7.02
413.31	95.96
413.50	49.15
413.69	39.79
413.88	0.00
414.07	4.68
414.26	16.38
414.45	0.00
414.64	2.34
414.83	58.51
415.02	35.11
415.22	79.58
415.41	0.00
415.60	30.43
415.79	0.00
415.98	70.22
416.17	0.00
416.36	51.49
416.55	9.36
416.74	0.00
416.93	9.36
417.12	49.15
417.31	9.36
417.50	32.77
417.69	18.72
417.88	28.09
418.07	4.68
418.26	58.51
418.45	53.83
418.64	0.00
418.83	28.09
419.02	56.17
419.21	110.01
419.39	60.85
419.58	49.15
419.77	63.19
419.96	30.43
420.15	7.02
420.34	30.43
420.53	0.00
420.72	0.00
420.91	7.02
421.10	0.00
421.29	81.92
421.48	112.35
421.67	35.11
421.86	0.00
422.05	0.00
422.24	0.00
422.43	11.70
422.61	4.68
422.80	25.75
422.99	4.68
423.18	4.68
423.37	18.72
423.56	95.96
423.75	0.00
423.94	28.09
424.13	42.13
424.32	4.68
424.50	37.45
424.69	65.54
424.88	0.00
425.07	58.51
425.26	39.79
425.45	39.79
425.64	4.68
425.83	0.00
426.01	18.72
426.20	4.68
426.39	23.41
426.58	46.81
426.77	0.00
426.96	18.72
427.15	0.00
427.33	60.85
427.52	88.94
427.71	0.00
427.90	0.00
428.09	0.00
428.28	0.00
428.46	37.45
428.65	67.88
428.84	0.00
429.03	18.72
429.22	21.06
429.40	98.30
429.59	77.24
429.78	58.51
429.97	35.11
430.16	98.30
430.34	42.13
430.53	65.54
430.72	4.68
430.91	14.04
431.10	0.00
431.28	11.70
431.47	18.72
431.66	91.28
431.85	0.00
432.03	0.00
432.22	0.00
432.41	9.36
432.60	35.11
432.79	16.38
432.97	0.00
433.16	65.54
433.35	28.09
433.54	67.88
433.72	56.17
433.91	0.00
434.10	102.98
434.28	51.49
434.47	35.11
434.66	9.36
434.85	11.70
435.03	93.62
435.22	14.04
435.41	4.68
435.59	74.90
435.78	44.47
435.97	0.00
436.16	7.02
436.34	7.02
436.53	60.85
436.72	21.06
436.90	0.00
437.09	0.00
437.28	35.11
437.46	0.00
437.65	11.70
437.84	60.85
438.02	0.00
438.21	53.83
438.40	98.30
438.58	4.68
438.77	124.05
438.96	86.60
439.14	60.85
439.33	28.09
439.52	18.72
439.70	23.41
439.89	65.54
440.08	0.00
440.26	39.79
440.45	42.13
440.63	21.06
440.82	39.79
441.01	0.00
441.19	77.24
441.38	0.00
441.57	25.75
441.75	35.11
441.94	11.70
442.12	35.11
442.31	0.00
442.50	77.24
442.68	35.11
442.87	72.56
443.05	11.70
443.24	37.45
443.43	39.79
443.61	70.22
443.80	16.38
443.98	30.43
444.17	65.54
444.35	0.00
444.54	74.90
444.73	0.00
444.91	0.00
445.10	0.00
445.28	9.36
445.47	7.02
445.65	30.43
445.84	56.17
446.02	51.49
446.21	23.41
446.39	95.96
446.58	53.83
446.77	46.81
446.95	39.79
447.14	21.06
447.32	37.45
447.51	56.17
447.69	28.09
447.88	9.36
448.06	32.77
448.25	18.72
448.43	79.58
448.62	0.00
448.80	0.00
448.99	16.38
449.17	39.79
449.36	39.79
449.54	37.45
449.73	37.45
449.91	46.81
450.10	74.90
450.28	91.28
450.46	0.00
450.65	74.90
450.83	23.41
451.02	46.81
451.20	11.70
451.39	21.06
451.57	58.51
451.76	0.00
451.94	79.58
452.13	53.83
452.31	37.45
452.49	42.13
452.68	46.81
452.86	49.15
453.05	46.81
453.23	9.36
453.42	42.13
453.60	30.43
453.78	32.77
453.97	88.94
454.15	0.00
454.34	91.28
454.52	72.56
454.70	72.56
454.89	77.24
455.07	37.45
455.26	81.92
455.44	46.81
455.62	11.70
455.81	46.81
455.99	11.70
456.17	42.13
456.36	0.00
456.54	0.00
456.73	93.62
456.91	25.75
457.09	0.00
457.28	0.00
457.46	138.09
457.64	18.72
457.83	37.45
458.01	14.04
458.19	0.00
458.38	67.88
458.56	0.00
458.74	21.06
458.93	49.15
459.11	46.81
459.29	72.56
459.48	0.00
459.66	39.79
459.84	21.06
460.03	56.17
460.21	0.00
460.39	0.00
460.57	37.45
460.76	0.00
460.94	0.00
461.12	35.11
461.31	35.11
461.49	0.00
461.67	30.43
461.85	0.00
462.04	28.09
462.22	49.15
462.40	18.72
462.59	0.00
462.77	30.43
462.95	42.13
463.13	51.49
463.32	21.06
463.50	2.34
463.68	51.49
463.86	18.72
464.05	72.56
464.23	56.17
464.41	42.13
464.59	49.15
464.78	35.11
464.96	39.79
465.14	60.85
465.32	28.09
465.50	7.02
465.69	44.47
465.87	44.47
466.05	0.00
466.23	58.51
466.41	0.00
466.60	16.38
466.78	53.83
466.96	0.00
467.14	37.45
467.32	16.38
467.51	79.58
467.69	58.51
467.87	0.00
468.05	7.02
468.23	4.68
468.41	49.15
468.60	72.56
468.78	30.43
468.96	32.77
469.14	46.81
469.32	7.02
469.50	0.00
469.69	28.09
469.87	11.70
470.05	114.69
470.23	0.00
470.41	0.00
470.59	0.00
470.77	72.56
470.95	70.22
471.14	67.88
471.32	14.04
471.50	23.41
471.68	9.36
471.86	23.41
472.04	58.51
472.22	88.94
472.40	0.00
472.58	95.96
472.77	63.19
472.95	32.77
473.13	112.35
473.31	74.90
473.49	23.41
473.67	42.13
473.85	72.56
474.03	16.38
474.21	119.37
474.39	44.47
474.57	14.04
474.75	0.00
474.93	63.19
475.12	23.41
475.30	7.02
475.48	49.15
475.66	0.00
475.84	14.04
476.02	56.17
476.20	42.13
476.38	88.94
476.56	49.15
476.74	0.00
476.92	7.02
477.10	23.41
477.28	86.60
477.46	46.81
477.64	30.43
477.82	42.13
478.00	51.49
478.18	7.02
478.36	56.17
478.54	56.17
478.72	35.11
478.90	23.41
479.08	30.43
479.26	49.15
479.44	0.00
479.62	56.17
479.80	28.09
479.98	39.79
480.16	51.49
480.34	32.77
480.52	9.36
480.70	49.15
480.88	14.04
481.06	30.43
481.24	49.15
481.41	42.13
481.59	37.45
481.77	86.60
481.95	0.00
482.13	70.22
482.31	72.56
482.49	81.92
482.67	51.49
482.85	44.47
483.03	65.54
483.21	4.68
483.39	0.00
483.57	72.56
483.74	42.13
483.92	42.13
484.10	7.02
484.28	42.13
484.46	46.81
484.64	2.34
484.82	23.41
485.00	16.38
485.18	0.00
485.35	37.45
485.53	30.43
485.71	60.85
485.89	0.00
486.07	58.51
486.25	72.56
486.43	60.85
486.61	0.00
486.78	4.68
486.96	4.68
487.14	56.17
487.32	18.72
487.50	2.34
487.68	0.00
487.85	30.43
488.03	0.00
488.21	18.72
488.39	51.49
488.57	0.00
488.75	93.62
488.92	86.60
489.10	58.51
489.28	79.58
489.46	11.70
489.64	98.30
489.81	49.15
489.99	128.73
490.17	72.56
490.35	16.38
490.53	0.00
490.70	39.79
490.88	35.11
491.06	0.00
491.24	0.00
491.41	0.00
491.59	14.04
491.77	37.45
491.95	63.19
492.13	23.41
492.30	14.04
492.48	72.56
492.66	0.00
492.84	4.68
493.01	7.02
493.19	84.26
493.37	88.94
493.54	23.41
493.72	39.79
493.90	58.51
494.08	0.00
494.25	4.68
494.43	28.09
494.61	72.56
494.79	79.58
494.96	65.54
495.14	30.43
495.32	16.38
495.49	18.72
495.67	114.69
495.85	114.69
496.02	49.15
496.20	60.85
496.38	51.49
496.55	72.56
496.73	18.72
496.91	28.09
497.09	60.85
497.26	79.58
497.44	30.43
497.62	70.22
497.79	79.58
497.97	32.77
498.14	98.30
498.32	95.96
498.50	74.90
498.67	56.17
498.85	53.83
499.03	105.32
499.20	37.45
499.38	44.47
499.56	14.04
499.73	37.45
499.91	0.00
500.08	28.09
500.26	32.77
500.44	79.58
500.61	74.90
500.79	67.88
500.97	0.00
501.14	0.00
501.32	18.72
501.49	23.41
501.67	107.66
501.84	4.68
502.02	51.49
502.20	9.36
502.37	63.19
502.55	0.00
502.72	67.88
502.90	60.85
503.07	42.13
503.25	110.01
503.43	84.26
503.60	0.00
503.78	32.77
503.95	11.70
504.13	51.49
504.30	102.98
504.48	60.85
504.65	0.00
504.83	0.00
505.01	77.24
505.18	39.79
505.36	72.56
505.53	37.45
505.71	53.83
505.88	35.11
506.06	67.88
506.23	28.09
506.41	0.00
506.58	35.11
506.76	49.15
506.93	86.60
507.11	65.54
507.28	18.72
507.46	30.43
507.63	23.41
507.81	0.00
507.98	56.17
508.16	2.34
508.33	28.09
508.50	0.00
508.68	11.70
508.85	39.79
509.03	28.09
509.20	0.00
509.38	39.79
509.55	51.49
509.73	51.49
509.90	11.70
510.08	46.81
510.25	42.13
510.42	84.26
510.60	70.22
510.77	67.88
510.95	70.22
511.12	60.85
511.30	28.09
511.47	42.13
511.64	44.47
511.82	46.81
511.99	37.45
512.17	65.54
512.34	70.22
512.51	25.75
512.69	30.43
512.86	0.00
513.04	9.36
513.21	0.00
513.38	0.00
513.56	100.64
513.73	60.85
513.90	0.00
514.08	2.34
514.25	23.41
514.43	2.34
514.60	25.75
514.77	46.81
514.95	25.75
515.12	0.00
515.29	88.94
515.47	0.00
515.64	72.56
515.81	18.72
515.99	65.54
516.16	46.81
516.33	117.03
516.51	67.88
516.68	70.22
516.85	0.00
517.03	74.90
517.20	0.00
517.37	28.09
517.54	0.00
517.72	2.34
517.89	0.00
518.06	56.17
518.24	37.45
518.41	35.11
518.58	0.00
518.75	84.26
518.93	46.81
519.10	32.77
519.27	37.45
519.45	100.64
519.62	58.51
519.79	18.72
519.96	63.19
520.14	72.56
520.31	56.17
520.48	77.24
520.65	70.22
520.83	7.02
521.00	72.56
521.17	0.00
521.34	18.72
521.52	58.51
521.69	16.38
521.86	37.45
522.03	39.79
522.20	114.69
522.38	86.60
522.55	67.88
522.72	28.09
522.89	7.02
523.07	0.00
523.24	91.28
523.41	88.94
523.58	39.79
523.75	93.62
523.92	30.43
524.10	11.70
524.27	49.15
524.44	53.83
524.61	86.60
524.78	86.60
524.96	46.81
525.13	35.11
525.30	65.54
525.47	42.13
525.64	145.11
525.81	0.00
525.98	4.68
526.16	32.77
526.33	14.04
526.50	58.51
526.67	11.70
526.84	84.26
527.01	58.51
527.18	0.00
527.36	0.00
527.53	11.70
527.70	21.06
527.87	79.58
528.04	21.06
528.21	49.15
528.38	7.02
528.55	65.54
528.72	51.49
528.89	0.00
529.07	0.00
529.24	49.15
529.41	49.15
529.58	11.70
529.75	42.13
529.92	77.24
530.09	7.02
530.26	0.00
530.43	93.62
530.60	114.69
530.77	23.41
530.94	102.98
531.11	18.72
531.28	0.00
531.46	46.81
531.63	105.32
531.80	67.88
531.97	32.77
532.14	21.06
532.31	49.15
532.48	7.02
532.65	93.62
532.82	28.09
532.99	39.79
533.16	28.09
533.33	9.36
533.50	39.79
533.67	11.70
533.84	42.13
534.01	107.66
534.18	77.24
534.35	46.81
534.52	53.83
534.69	53.83
534.86	0.00
535.03	30.43
535.20	51.49
535.37	18.72
535.54	88.94
535.71	86.60
535.88	4.68
536.05	79.58
536.22	0.00
536.38	60.85
536.55	32.77
536.72	39.79
536.89	37.45
537.06	0.00
537.23	56.17
537.40	44.47
537.57	0.00
537.74	65.54
537.91	0.00
538.08	65.54
538.25	79.58
538.42	91.28
538.59	18.72
538.75	152.13
538.92	0.00
539.09	37.45
539.26	14.04
539.43	9.36
539.60	18.72
539.77	112.35
539.94	131.07
540.11	65.54
540.28	70.22
540.44	112.35
540.61	4.68
540.78	28.09
540.95	0.00
541.12	44.47
541.29	56.17
541.46	117.03
541.62	2.34
541.79	4.68
541.96	35.11
542.13	4.68
542.30	30.43
542.47	58.51
542.63	14.04
542.80	30.43
542.97	93.62
543.14	56.17
543.31	74.90
543.48	39.79
543.64	28.09
543.81	51.49
543.98	63.19
544.15	25.75
544.32	21.06
544.48	42.13
544.65	4.68
544.82	84.26
544.99	32.77
545.16	0.00
545.32	44.47
545.49	0.00
545.66	0.00
545.83	25.75
546.00	32.77
546.16	65.54
546.33	98.30
546.50	56.17
546.67	0.00
546.83	2.34
547.00	18.72
547.17	60.85
547.34	0.00
547.50	77.24
547.67	11.70
547.84	4.68
548.00	46.81
548.17	2.34
548.34	2.34
548.51	88.94
548.67	44.47
548.84	0.00
549.01	46.81
549.18	46.81
549.34	0.00
549.51	84.26
549.68	102.98
549.84	58.51
550.01	42.13
550.18	23.41
550.34	65.54
550.51	44.47
550.68	51.49
550.84	44.47
551.01	42.13
551.18	98.30
551.34	2.34
551.51	16.38
551.68	0.00
551.84	128.73
552.01	30.43
552.18	100.64
552.34	0.00
552.51	0.00
552.68	53.83
552.84	4.68
553.01	56.17
553.18	53.83
553.34	0.00
553.51	28.09
553.67	70.22
553.84	81.92
554.01	25.75
554.17	2.34
554.34	14.04
554.51	65.54
554.67	74.90
554.84	42.13
555.00	32.77
555.17	74.90
555.33	4.68
555.50	63.19
555.67	0.00
555.83	14.04
556.00	37.45
556.16	63.19
556.33	32.77
556.50	135.75
556.66	18.72
556.83	0.00
556.99	93.62
557.16	4.68
557.32	0.00
557.49	18.72
557.65	30.43
557.82	2.34
557.98	56.17
558.15	98.30
558.32	7.02
558.48	46.81
558.65	88.94
558.81	28.09
558.98	18.72
559.14	0.00
559.31	72.56
559.47	37.45
559.64	79.58
559.80	51.49
559.97	2.34
560.13	117.03
560.30	0.00
560.46	60.85
560.63	77.24
560.79	16.38
560.96	42.13
561.12	39.79
561.29	4.68
561.45	42.13
561.61	18.72
561.78	18.72
561.94	49.15
562.11	117.03
562.27	70.22
562.44	67.88
562.60	77.24
562.77	67.88
562.93	16.38
563.10	11.70
563.26	0.00
563.42	58.51
563.59	9.36
563.75	23.41
563.92	16.38
564.08	53.83
564.24	11.70
564.41	63.19
564.57	11.70
564.74	37.45
564.90	58.51
565.07	0.00
565.23	60.85
565.39	58.51
565.56	65.54
565.72	35.11
565.88	14.04
566.05	11.70
566.21	39.79
566.38	65.54
566.54	42.13
566.70	42.13
566.87	63.19
567.03	100.64
567.19	9.36
567.36	14.04
567.52	79.58
567.68	14.04
567.85	0.00
568.01	0.00
568.17	30.43
568.34	49.15
568.50	14.04
568.66	53.83
568.83	49.15
568.99	72.56
569.15	58.51
569.32	14.04
569.48	49.15
569.64	28.09
569.81	0.00
569.97	58.51
570.13	131.07
570.30	67.88
570.46	9.36
570.62	53.83
570.78	60.85
570.95	46.81
571.11	16.38
571.27	30.43
571.43	32.77
571.60	56.17
571.76	35.11
571.92	53.83
572.09	102.98
572.25	35.11
572.41	49.15
572.57	11.70
572.74	0.00
572.90	51.49
573.06	28.09
573.22	77.24
573.38	42.13
573.55	0.00
573.71	44.47
573.87	77.24
574.03	70.22
574.20	60.85
574.36	32.77
574.52	30.43
574.68	79.58
574.84	79.58
575.01	11.70
575.17	11.70
575.33	35.11
575.49	95.96
575.65	0.00
575.82	0.00
575.98	81.92
576.14	46.81
576.30	65.54
576.46	37.45
576.62	91.28
576.79	74.90
576.95	79.58
577.11	95.96
577.27	0.00
577.43	25.75
577.59	102.98
577.75	30.43
577.92	30.43
578.08	100.64
578.24	95.96
578.40	58.51
578.56	98.30
578.72	0.00
578.88	21.06
579.04	117.03
579.21	77.24
579.37	49.15
579.53	42.13
579.69	70.22
579.85	37.45
580.01	91.28
580.17	2.34
580.33	105.32
580.49	23.41
580.65	107.66
580.82	39.79
580.98	128.73
581.14	46.81
581.30	67.88
581.46	21.06
581.62	60.85
581.78	67.88
581.94	60.85
582.10	37.45
582.26	42.13
582.42	79.58
582.58	56.17
582.74	21.06
582.90	39.79
583.06	74.90
583.22	30.43
583.38	53.83
583.54	56.17
583.70	74.90
583.86	56.17
584.02	25.75
584.18	56.17
584.34	156.82
584.50	243.42
584.66	1427.73
584.82	3096.53
584.98	4280.84
585.14	3646.55
585.30	2363.94
585.46	1380.92
585.62	919.83
585.78	353.42
585.94	201.29
586.10	70.22
586.26	102.98
586.42	140.43
586.58	102.98
586.74	79.58
586.90	67.88
587.06	81.92
587.22	161.50
587.38	42.13
587.54	124.05
587.70	231.71
587.86	362.78
588.02	414.27
588.18	280.86
588.34	163.84
588.49	142.77
588.65	100.64
588.81	51.49
588.97	77.24
589.13	0.00
589.29	51.49
589.45	23.41
589.61	4.68
589.77	0.00
589.93	11.70
590.08	107.66
590.24	0.00
590.40	102.98
590.56	117.03
590.72	9.36
590.88	0.00
591.04	49.15
591.20	21.06
591.35	58.51
591.51	51.49
591.67	46.81
591.83	7.02
591.99	88.94
592.15	42.13
592.31	16.38
592.46	30.43
592.62	21.06
592.78	65.54
592.94	91.28
593.10	105.32
593.26	0.00
593.41	39.79
593.57	28.09
593.73	56.17
593.89	201.29
594.05	383.85
594.20	608.54
594.36	573.43
594.52	407.25
594.68	248.10
594.84	180.22
594.99	124.05
595.15	107.66
595.31	32.77
595.47	51.49
595.62	42.13
595.78	72.56
595.94	30.43
596.10	21.06
596.25	25.75
596.41	14.04
596.57	0.00
596.73	44.47
596.88	46.81
597.04	91.28
597.20	168.52
597.36	175.54
597.51	180.22
597.67	86.60
597.83	100.64
597.99	100.64
598.14	21.06
598.30	44.47
598.46	107.66
598.61	51.49
598.77	42.13
598.93	86.60
599.09	42.13
599.24	72.56
599.40	0.00
599.56	70.22
599.71	145.11
599.87	16.38
600.03	56.17
600.18	42.13
600.34	0.00
600.50	56.17
600.65	30.43
600.81	35.11
600.97	100.64
601.12	86.60
601.28	51.49
601.44	0.00
601.59	98.30
601.75	51.49
601.91	23.41
602.06	0.00
602.22	60.85
602.37	140.43
602.53	114.69
602.69	194.26
602.84	227.03
603.00	198.95
603.16	102.98
603.31	30.43
603.47	30.43
603.62	79.58
603.78	44.47
603.94	51.49
604.09	28.09
604.25	30.43
604.40	39.79
604.56	44.47
604.71	30.43
604.87	51.49
605.03	32.77
605.18	49.15
605.34	65.54
605.49	79.58
605.65	53.83
605.80	46.81
605.96	21.06
606.12	37.45
606.27	58.51
606.43	51.49
606.58	0.00
606.74	30.43
606.89	210.65
607.05	367.46
607.20	421.30
607.36	395.55
607.51	255.12
607.67	259.80
607.82	133.41
607.98	105.32
608.13	4.68
608.29	79.58
608.44	49.15
608.60	21.06
608.75	35.11
608.91	102.98
609.06	358.10
609.22	671.73
609.37	842.59
609.53	779.40
609.68	505.56
609.84	388.53
609.99	297.25
610.15	175.54
610.30	72.56
610.46	79.58
610.61	86.60
610.76	32.77
610.92	0.00
611.07	32.77
611.23	32.77
611.38	0.00
611.54	98.30
611.69	70.22
611.84	4.68
612.00	60.85
612.15	58.51
612.31	79.58
612.46	4.68
612.62	100.64
612.77	77.24
612.92	25.75
613.08	70.22
613.23	49.15
613.39	79.58
613.54	138.09
613.69	313.63
613.85	772.38
614.00	1268.57
614.15	1284.95
614.31	919.83
614.46	667.05
614.62	477.47
614.77	320.65
614.92	168.52
615.08	117.03
615.23	14.04
615.38	74.90
615.54	56.17
615.69	100.64
615.84	238.73
616.00	315.97
616.15	362.78
616.30	327.68
616.46	245.76
616.61	133.41
616.76	124.05
616.92	100.64
617.07	81.92
617.22	0.00
617.37	63.19
617.53	37.45
617.68	88.94
617.83	77.24
617.99	0.00
618.14	35.11
618.29	72.56
618.45	18.72
618.60	42.13
618.75	42.13
618.90	4.68
619.06	65.54
619.21	0.00
619.36	14.04
619.51	46.81
619.67	39.79
619.82	60.85
619.97	0.00
620.12	102.98
620.28	98.30
620.43	0.00
620.58	0.00
620.73	81.92
620.89	58.51
621.04	86.60
621.19	88.94
621.34	236.39
621.49	205.97
621.65	156.82
621.80	70.22
621.95	95.96
622.10	60.85
622.25	51.49
622.41	30.43
622.56	42.13
622.71	14.04
622.86	70.22
623.01	11.70
623.16	42.13
623.32	49.15
623.47	84.26
623.62	0.00
623.77	102.98
623.92	23.41
624.07	88.94
624.23	0.00
624.38	0.00
624.53	49.15
624.68	53.83
624.83	28.09
624.98	0.00
625.13	60.85
625.29	9.36
625.44	88.94
625.59	56.17
625.74	23.41
625.89	98.30
626.04	215.33
626.19	374.49
626.34	561.73
626.49	770.04
626.65	535.98
626.80	372.15
626.95	252.78
627.10	124.05
627.25	100.64
627.40	44.47
627.55	49.15
627.70	25.75
627.85	21.06
628.00	91.28
628.15	30.43
628.30	86.60
628.45	32.77
628.60	60.85
628.76	0.00
628.91	25.75
629.06	7.02
629.21	30.43
629.36	11.70
629.51	16.38
629.66	46.81
629.81	67.88
629.96	98.30
630.11	173.20
630.26	203.63
630.41	175.54
630.56	23.41
630.71	37.45
630.86	70.22
631.01	81.92
631.16	28.09
631.31	16.38
631.46	14.04
631.61	77.24
631.76	58.51
631.91	42.13
632.06	0.00
632.21	65.54
632.36	110.01
632.51	56.17
632.66	77.24
632.81	117.03
632.96	257.46
633.10	442.36
633.25	489.17
633.40	421.30
633.55	327.68
633.70	224.69
633.85	149.79
634.00	67.88
634.15	84.26
634.30	37.45
634.45	4.68
634.60	21.06
634.75	0.00
634.90	21.06
635.05	0.00
635.19	42.13
635.34	63.19
635.49	16.38
635.64	44.47
635.79	46.81
635.94	0.00
636.09	51.49
636.24	21.06
636.39	4.68
636.53	79.58
636.68	51.49
636.83	14.04
636.98	28.09
637.13	37.45
637.28	0.00
637.43	14.04
637.57	72.56
637.72	220.01
637.87	566.41
638.02	777.06
638.17	828.55
638.32	610.88
638.46	486.83
638.61	355.76
638.76	248.10
638.91	112.35
639.06	0.00
639.20	79.58
639.35	30.43
639.50	65.54
639.65	344.06
639.80	802.80
639.94	1238.14
640.09	1280.27
640.24	1057.92
640.39	634.29
640.54	512.58
640.68	290.23
640.83	177.88
640.98	98.30
641.13	18.72
641.27	56.17
641.42	42.13
641.57	58.51
641.72	65.54
641.86	56.17
642.01	30.43
642.16	74.90
642.31	42.13
642.45	81.92
642.60	35.11
642.75	35.11
642.90	107.66
643.04	63.19
643.19	0.00
643.34	14.04
643.48	0.00
643.63	67.88
643.78	93.62
643.93	39.79
644.07	18.72
644.22	126.39
644.37	0.00
644.51	93.62
644.66	0.00
644.81	67.88
644.95	32.77
645.10	49.15
645.25	0.00
645.39	0.00
645.54	0.00
645.69	0.00
645.83	42.13
645.98	65.54
646.13	0.00
646.27	72.56
646.42	9.36
646.57	46.81
646.71	49.15
646.86	37.45
647.00	4.68
647.15	60.85
647.30	84.26
647.44	42.13
647.59	4.68
647.74	133.41
647.88	11.70
648.03	23.41
648.17	107.66
648.32	63.19
648.47	2.34
648.61	9.36
648.76	25.75
648.90	0.00
649.05	53.83
649.20	63.19
649.34	67.88
649.49	4.68
649.63	67.88
649.78	63.19
649.92	7.02
650.07	173.20
650.21	337.04
650.36	664.71
650.51	655.35
650.65	690.46
650.80	465.77
650.94	280.86
651.09	149.79
651.23	56.17
651.38	79.58
651.52	0.00
651.67	7.02
651.81	0.00
651.96	9.36
652.10	0.00
652.25	58.51
652.39	53.83
652.54	46.81
652.68	84.26
652.83	156.82
652.97	191.92
653.12	231.71
653.26	238.73
653.41	152.13
653.55	142.77
653.70	74.90
653.84	100.64
653.99	135.75
654.13	46.81
654.27	44.47
654.42	67.88
654.56	0.00
654.71	93.62
654.85	18.72
655.00	81.92
655.14	95.96
655.29	37.45
655.43	4.68
655.57	0.00
655.72	0.00
655.86	16.38
656.01	18.72
656.15	67.88
656.30	72.56
656.44	39.79
656.58	49.15
656.73	105.32
656.87	0.00
657.01	53.83
657.16	67.88
657.30	58.51
657.45	0.00
657.59	63.19
657.73	79.58
657.88	86.60
658.02	0.00
658.16	56.17
658.31	84.26
658.45	46.81
658.60	2.34
658.74	9.36
658.88	21.06
659.03	0.00
659.17	35.11
659.31	117.03
659.46	173.20
659.60	304.27
659.74	344.06
659.89	346.40
660.03	194.26
660.17	187.24
660.32	100.64
660.46	86.60
660.60	91.28
660.74	91.28
660.89	102.98
661.03	25.75
661.17	0.00
661.32	37.45
661.46	39.79
661.60	51.49
661.74	58.51
661.89	58.51
662.03	0.00
662.17	46.81
662.31	18.72
662.46	126.39
662.60	53.83
662.74	0.00
662.88	65.54
663.03	81.92
663.17	39.79
663.31	53.83
663.45	37.45
663.60	16.38
663.74	23.41
663.88	28.09
664.02	56.17
664.17	25.75
664.31	23.41
664.45	0.00
664.59	119.37
664.73	65.54
664.88	70.22
665.02	56.17
665.16	2.34
665.30	32.77
665.44	39.79
665.59	0.00
665.73	42.13
665.87	32.77
666.01	114.69
666.15	0.00
666.29	98.30
666.44	60.85
666.58	49.15
666.72	65.54
666.86	30.43
667.00	0.00
667.14	32.77
667.28	67.88
667.43	271.50
667.57	484.49
667.71	655.35
667.85	524.28
667.99	428.32
668.13	327.68
668.27	124.05
668.41	72.56
668.56	51.49
668.70	58.51
668.84	0.00
668.98	44.47
669.12	72.56
669.26	46.81
669.40	60.85
669.54	11.70
669.68	53.83
669.82	9.36
669.96	0.00
670.10	0.00
670.25	0.00
670.39	42.13
670.53	0.00
670.67	37.45
670.81	72.56
670.95	117.03
671.09	56.17
671.23	131.07
671.37	266.82
671.51	358.10
671.65	418.96
671.79	414.27
671.93	177.88
672.07	163.84
672.21	124.05
672.35	93.62
672.49	4.68
672.63	25.75
672.77	16.38
672.91	51.49
673.05	49.15
673.19	21.06
673.33	9.36
673.47	37.45
673.61	53.83
673.75	16.38
673.89	30.43
674.03	84.26
674.17	0.00
674.31	46.81
674.45	72.56
674.59	9.36
674.73	0.00
674.87	46.81
675.01	72.56
675.15	0.00
675.29	67.88
675.43	4.68
675.56	0.00
675.70	88.94
675.84	37.45
675.98	32.77
676.12	7.02
676.26	46.81
676.40	23.41
676.54	4.68
676.68	60.85
676.82	44.47
676.96	74.90
677.10	84.26
677.23	63.19
677.37	0.00
677.51	4.68
677.65	25.75
677.79	0.00
677.93	16.38
678.07	44.47
678.21	56.17
678.34	58.51
678.48	0.00
678.62	16.38
678.76	32.77
678.90	72.56
679.04	88.94
679.18	0.00
679.31	46.81
679.45	28.09
679.59	114.69
679.73	65.54
679.87	0.00
680.00	18.72
680.14	14.04
680.28	56.17
680.42	35.11
680.56	9.36
680.70	28.09
680.83	0.00
680.97	79.58
681.11	0.00
681.25	84.26
681.39	25.75
681.52	67.88
681.66	173.20
681.80	0.00
681.94	39.79
682.07	0.00
682.21	37.45
682.35	21.06
682.49	0.00
682.62	16.38
682.76	70.22
682.90	25.75
683.04	74.90
683.17	100.64
683.31	39.79
683.45	42.13
683.59	42.13
683.72	0.00
683.86	21.06
684.00	138.09
684.13	18.72
684.27	30.43
684.41	39.79
684.55	25.75
684.68	2.34
684.82	0.00
684.96	0.00
685.09	32.77
685.23	0.00
685.37	0.00
685.50	0.00
685.64	0.00
685.78	9.36
685.91	63.19
686.05	9.36
686.19	0.00
686.32	32.77
686.46	23.41
686.60	0.00
686.73	4.68
686.87	44.47
687.01	49.15
687.14	2.34
687.28	30.43
687.42	44.47
687.55	86.60
687.69	35.11
687.82	44.47
687.96	0.00
688.10	0.00
688.23	53.83
688.37	23.41
688.50	21.06
688.64	35.11
688.78	0.00
688.91	32.77
689.05	4.68
689.18	7.02
689.32	23.41
689.46	9.36
689.59	37.45
689.73	14.04
689.86	4.68
690.00	70.22
690.13	35.11
690.27	23.41
690.41	14.04
690.54	74.90
690.68	11.70
690.81	56.17
690.95	35.11
691.08	16.38
691.22	58.51
691.35	21.06
691.49	25.75
691.62	7.02
691.76	0.00
691.89	4.68
692.03	0.00
692.16	65.54
692.30	0.00
692.43	105.32
692.57	149.79
692.70	212.99
692.84	318.31
692.97	259.80
693.11	231.71
693.24	145.11
693.38	44.47
693.51	56.17
693.65	30.43
693.78	42.13
693.92	44.47
694.05	58.51
694.19	25.75
694.32	28.09
694.45	81.92
694.59	0.00
694.72	53.83
694.86	18.72
694.99	42.13
695.13	21.06
695.26	25.75
695.39	86.60
695.53	74.90
695.66	72.56
695.80	37.45
695.93	28.09
696.07	39.79
696.20	70.22
696.33	46.81
696.47	86.60
696.60	42.13
696.73	44.47
696.87	60.85
697.00	16.38
697.14	53.83
697.27	74.90
697.40	35.11
697.54	23.41
697.67	46.81
697.80	37.45
697.94	0.00
698.07	37.45
698.21	28.09
698.34	0.00
698.47	53.83
698.61	63.19
698.74	2.34
698.87	114.69
699.01	11.70
699.14	46.81
699.27	42.13
699.40	46.81
699.54	9.36
699.67	16.38
699.80	0.00
699.94	21.06
700.07	14.04
700.20	37.45
700.34	35.11
700.47	16.38
700.60	42.13
700.73	0.00
700.87	32.77
701.00	65.54
701.13	0.00
701.26	21.06
701.40	0.00
701.53	49.15
701.66	0.00
701.79	18.72
701.93	0.00
702.06	14.04
702.19	100.64
702.32	9.36
702.46	51.49
702.59	117.03
702.72	161.50
702.85	248.10
702.99	320.65
703.12	491.51
703.25	510.24
703.38	444.70
703.51	355.76
703.65	362.78
703.78	180.22
703.91	128.73
704.04	77.24
704.17	67.88
704.31	70.22
704.44	65.54
704.57	67.88
704.70	39.79
704.83	2.34
704.96	0.00
705.10	16.38
705.23	0.00
>>>>>End Processed Spectral Data<<<<<
