SpectraSuite Data File
++++++++++++++++++++++++++++++++++++
Date: Tue Oct 01 18:25:08 GMT-05:00 2013
User: stostad
Dark Spectrum Present: No
Reference Spectrum Present: No
Number of Sampled Component Spectra: 1
Spectrometers: USB2+H05261
Integration Time (usec): 100000 (USB2+H05261)
Spectra Averaged: 1 (USB2+H05261)
Boxcar Smoothing: 0 (USB2+H05261)
Correct for Electrical Dark: No (USB2+H05261)
Strobe/Lamp Enabled: No (USB2+H05261)
Correct for Detector Non-linearity: No (USB2+H05261)
Correct for Stray Light: No (USB2+H05261)
Number of Pixels in Processed Spectrum: 2048
>>>>>Begin Processed Spectral Data<<<<<
365.73	81.92
365.92	81.92
366.12	81.92
366.32	0.00
366.52	0.00
366.72	58.51
366.91	0.00
367.11	0.00
367.31	37.45
367.51	0.00
367.70	0.00
367.90	16.38
368.10	0.00
368.30	0.00
368.49	0.00
368.69	0.00
368.89	21.06
369.09	0.00
369.28	30.43
369.48	2.34
369.68	0.00
369.87	28.09
370.07	0.00
370.27	56.17
370.47	51.49
370.66	135.75
370.86	63.19
371.06	44.47
371.25	53.83
371.45	88.94
371.65	102.98
371.84	30.43
372.04	77.24
372.24	117.03
372.44	140.43
372.63	93.62
372.83	184.90
373.03	208.31
373.22	175.54
373.42	98.30
373.62	124.05
373.81	135.75
374.01	145.11
374.21	147.45
374.40	124.05
374.60	140.43
374.79	70.22
374.99	184.90
375.19	229.37
375.38	170.86
375.58	177.88
375.78	166.18
375.97	126.39
376.17	220.01
376.37	79.58
376.56	159.16
376.76	163.84
376.95	140.43
377.15	128.73
377.35	231.71
377.54	201.29
377.74	138.09
377.93	156.82
378.13	119.37
378.33	91.28
378.52	117.03
378.72	170.86
378.91	173.20
379.11	117.03
379.31	142.77
379.50	149.79
379.70	135.75
379.89	220.01
380.09	135.75
380.28	112.35
380.48	119.37
380.68	149.79
380.87	88.94
381.07	168.52
381.26	74.90
381.46	156.82
381.65	117.03
381.85	117.03
382.04	95.96
382.24	112.35
382.43	131.07
382.63	100.64
382.83	138.09
383.02	100.64
383.22	135.75
383.41	28.09
383.61	107.66
383.80	154.48
384.00	210.65
384.19	149.79
384.39	140.43
384.58	58.51
384.78	114.69
384.97	105.32
385.17	128.73
385.36	117.03
385.56	180.22
385.75	107.66
385.95	147.45
386.14	189.58
386.34	182.56
386.53	81.92
386.72	147.45
386.92	175.54
387.11	95.96
387.31	133.41
387.50	98.30
387.70	117.03
387.89	65.54
388.09	117.03
388.28	114.69
388.48	166.18
388.67	138.09
388.86	138.09
389.06	128.73
389.25	189.58
389.45	161.50
389.64	154.48
389.84	149.79
390.03	175.54
390.22	175.54
390.42	124.05
390.61	175.54
390.81	95.96
391.00	63.19
391.19	49.15
391.39	46.81
391.58	51.49
391.78	194.26
391.97	98.30
392.16	44.47
392.36	135.75
392.55	88.94
392.75	86.60
392.94	149.79
393.13	131.07
393.33	72.56
393.52	67.88
393.71	175.54
393.91	56.17
394.10	53.83
394.29	135.75
394.49	177.88
394.68	168.52
394.88	194.26
395.07	117.03
395.26	133.41
395.46	191.92
395.65	149.79
395.84	126.39
396.04	119.37
396.23	114.69
396.42	126.39
396.62	124.05
396.81	163.84
397.00	124.05
397.19	119.37
397.39	39.79
397.58	180.22
397.77	53.83
397.97	112.35
398.16	177.88
398.35	98.30
398.55	152.13
398.74	161.50
398.93	128.73
399.12	168.52
399.32	107.66
399.51	126.39
399.70	70.22
399.90	133.41
400.09	145.11
400.28	203.63
400.47	121.71
400.67	217.67
400.86	93.62
401.05	159.16
401.24	121.71
401.44	142.77
401.63	147.45
401.82	201.29
402.01	173.20
402.21	156.82
402.40	243.42
402.59	133.41
402.78	175.54
402.97	145.11
403.17	135.75
403.36	177.88
403.55	212.99
403.74	114.69
403.93	241.08
404.13	149.79
404.32	140.43
404.51	142.77
404.70	67.88
404.89	147.45
405.09	121.71
405.28	102.98
405.47	166.18
405.66	117.03
405.85	142.77
406.05	100.64
406.24	222.35
406.43	131.07
406.62	114.69
406.81	189.58
407.00	184.90
407.20	191.92
407.39	91.28
407.58	131.07
407.77	112.35
407.96	147.45
408.15	163.84
408.34	135.75
408.54	70.22
408.73	147.45
408.92	166.18
409.11	175.54
409.30	74.90
409.49	114.69
409.68	112.35
409.87	114.69
410.07	74.90
410.26	117.03
410.45	128.73
410.64	100.64
410.83	145.11
411.02	142.77
411.21	149.79
411.40	84.26
411.59	138.09
411.78	173.20
411.98	126.39
412.17	72.56
412.36	173.20
412.55	117.03
412.74	128.73
412.93	201.29
413.12	77.24
413.31	107.66
413.50	173.20
413.69	95.96
413.88	163.84
414.07	145.11
414.26	65.54
414.45	124.05
414.64	166.18
414.83	159.16
415.02	187.24
415.22	203.63
415.41	229.37
415.60	142.77
415.79	142.77
415.98	156.82
416.17	145.11
416.36	77.24
416.55	95.96
416.74	63.19
416.93	133.41
417.12	112.35
417.31	110.01
417.50	163.84
417.69	170.86
417.88	121.71
418.07	133.41
418.26	117.03
418.45	250.44
418.64	269.16
418.83	189.58
419.02	170.86
419.21	180.22
419.39	173.20
419.58	177.88
419.77	159.16
419.96	149.79
420.15	168.52
420.34	210.65
420.53	145.11
420.72	191.92
420.91	152.13
421.10	149.79
421.29	142.77
421.48	161.50
421.67	147.45
421.86	131.07
422.05	110.01
422.24	102.98
422.43	128.73
422.61	133.41
422.80	114.69
422.99	135.75
423.18	140.43
423.37	159.16
423.56	168.52
423.75	140.43
423.94	67.88
424.13	163.84
424.32	175.54
424.50	145.11
424.69	121.71
424.88	196.60
425.07	145.11
425.26	203.63
425.45	170.86
425.64	196.60
425.83	180.22
426.01	203.63
426.20	201.29
426.39	138.09
426.58	131.07
426.77	159.16
426.96	159.16
427.15	175.54
427.33	145.11
427.52	170.86
427.71	170.86
427.90	131.07
428.09	18.72
428.28	95.96
428.46	154.48
428.65	175.54
428.84	107.66
429.03	180.22
429.22	107.66
429.40	65.54
429.59	159.16
429.78	156.82
429.97	243.42
430.16	124.05
430.34	173.20
430.53	102.98
430.72	170.86
430.91	159.16
431.10	159.16
431.28	138.09
431.47	93.62
431.66	63.19
431.85	112.35
432.03	175.54
432.22	217.67
432.41	159.16
432.60	168.52
432.79	168.52
432.97	184.90
433.16	189.58
433.35	133.41
433.54	154.48
433.72	112.35
433.91	152.13
434.10	142.77
434.28	159.16
434.47	147.45
434.66	159.16
434.85	114.69
435.03	210.65
435.22	170.86
435.41	156.82
435.59	159.16
435.78	119.37
435.97	131.07
436.16	154.48
436.34	156.82
436.53	140.43
436.72	147.45
436.90	112.35
437.09	74.90
437.28	128.73
437.46	81.92
437.65	131.07
437.84	126.39
438.02	166.18
438.21	102.98
438.40	93.62
438.58	93.62
438.77	126.39
438.96	145.11
439.14	149.79
439.33	140.43
439.52	112.35
439.70	149.79
439.89	201.29
440.08	161.50
440.26	191.92
440.45	255.12
440.63	236.39
440.82	177.88
441.01	105.32
441.19	135.75
441.38	133.41
441.57	170.86
441.75	112.35
441.94	159.16
442.12	170.86
442.31	81.92
442.50	166.18
442.68	142.77
442.87	81.92
443.05	135.75
443.24	135.75
443.43	161.50
443.61	175.54
443.80	98.30
443.98	91.28
444.17	133.41
444.35	133.41
444.54	142.77
444.73	220.01
444.91	191.92
445.10	74.90
445.28	114.69
445.47	149.79
445.65	142.77
445.84	60.85
446.02	138.09
446.21	147.45
446.39	168.52
446.58	126.39
446.77	140.43
446.95	173.20
447.14	88.94
447.32	205.97
447.51	156.82
447.69	194.26
447.88	163.84
448.06	163.84
448.25	84.26
448.43	196.60
448.62	133.41
448.80	140.43
448.99	149.79
449.17	191.92
449.36	168.52
449.54	175.54
449.73	133.41
449.91	215.33
450.10	119.37
450.28	173.20
450.46	170.86
450.65	205.97
450.83	91.28
451.02	152.13
451.20	98.30
451.39	194.26
451.57	147.45
451.76	140.43
451.94	224.69
452.13	147.45
452.31	119.37
452.49	100.64
452.68	126.39
452.86	147.45
453.05	191.92
453.23	51.49
453.42	159.16
453.60	154.48
453.78	175.54
453.97	140.43
454.15	81.92
454.34	119.37
454.52	152.13
454.70	166.18
454.89	149.79
455.07	121.71
455.26	170.86
455.44	168.52
455.62	133.41
455.81	145.11
455.99	201.29
456.17	142.77
456.36	205.97
456.54	133.41
456.73	133.41
456.91	152.13
457.09	117.03
457.28	131.07
457.46	84.26
457.64	168.52
457.83	161.50
458.01	126.39
458.19	142.77
458.38	77.24
458.56	112.35
458.74	126.39
458.93	163.84
459.11	159.16
459.29	117.03
459.48	227.03
459.66	222.35
459.84	161.50
460.03	128.73
460.21	182.56
460.39	191.92
460.57	175.54
460.76	161.50
460.94	67.88
461.12	140.43
461.31	161.50
461.49	121.71
461.67	121.71
461.85	177.88
462.04	166.18
462.22	559.39
462.40	145.11
462.59	135.75
462.77	102.98
462.95	163.84
463.13	135.75
463.32	175.54
463.50	124.05
463.68	138.09
463.86	177.88
464.05	184.90
464.23	135.75
464.41	128.73
464.59	131.07
464.78	128.73
464.96	105.32
465.14	168.52
465.32	84.26
465.50	159.16
465.69	145.11
465.87	159.16
466.05	138.09
466.23	173.20
466.41	147.45
466.60	135.75
466.78	166.18
466.96	182.56
467.14	105.32
467.32	124.05
467.51	196.60
467.69	142.77
467.87	145.11
468.05	166.18
468.23	145.11
468.41	198.95
468.60	168.52
468.78	156.82
468.96	161.50
469.14	205.97
469.32	177.88
469.50	124.05
469.69	191.92
469.87	205.97
470.05	189.58
470.23	131.07
470.41	86.60
470.59	105.32
470.77	217.67
470.95	102.98
471.14	191.92
471.32	198.95
471.50	166.18
471.68	110.01
471.86	166.18
472.04	147.45
472.22	117.03
472.40	93.62
472.58	177.88
472.77	166.18
472.95	119.37
473.13	189.58
473.31	135.75
473.49	142.77
473.67	126.39
473.85	119.37
474.03	182.56
474.21	168.52
474.39	133.41
474.57	173.20
474.75	147.45
474.93	114.69
475.12	131.07
475.30	142.77
475.48	224.69
475.66	102.98
475.84	126.39
476.02	145.11
476.20	170.86
476.38	147.45
476.56	163.84
476.74	100.64
476.92	119.37
477.10	135.75
477.28	147.45
477.46	117.03
477.64	117.03
477.82	201.29
478.00	133.41
478.18	102.98
478.36	67.88
478.54	140.43
478.72	93.62
478.90	135.75
479.08	147.45
479.26	133.41
479.44	98.30
479.62	98.30
479.80	100.64
479.98	119.37
480.16	107.66
480.34	173.20
480.52	79.58
480.70	156.82
480.88	119.37
481.06	154.48
481.24	145.11
481.41	105.32
481.59	145.11
481.77	210.65
481.95	212.99
482.13	175.54
482.31	152.13
482.49	135.75
482.67	184.90
482.85	208.31
483.03	131.07
483.21	98.30
483.39	126.39
483.57	161.50
483.74	110.01
483.92	32.77
484.10	114.69
484.28	166.18
484.46	154.48
484.64	65.54
484.82	21.06
485.00	145.11
485.18	135.75
485.35	126.39
485.53	161.50
485.71	145.11
485.89	184.90
486.07	194.26
486.25	180.22
486.43	70.22
486.61	196.60
486.78	189.58
486.96	86.60
487.14	119.37
487.32	114.69
487.50	131.07
487.68	133.41
487.85	135.75
488.03	212.99
488.21	149.79
488.39	168.52
488.57	56.17
488.75	93.62
488.92	276.18
489.10	201.29
489.28	145.11
489.46	67.88
489.64	175.54
489.81	147.45
489.99	252.78
490.17	205.97
490.35	182.56
490.53	140.43
490.70	154.48
490.88	210.65
491.06	161.50
491.24	175.54
491.41	173.20
491.59	105.32
491.77	93.62
491.95	117.03
492.13	135.75
492.30	133.41
492.48	105.32
492.66	152.13
492.84	114.69
493.01	102.98
493.19	105.32
493.37	205.97
493.54	196.60
493.72	133.41
493.90	131.07
494.08	126.39
494.25	95.96
494.43	147.45
494.61	159.16
494.79	84.26
494.96	100.64
495.14	210.65
495.32	250.44
495.49	117.03
495.67	147.45
495.85	117.03
496.02	128.73
496.20	145.11
496.38	154.48
496.55	124.05
496.73	119.37
496.91	77.24
497.09	149.79
497.26	121.71
497.44	105.32
497.62	163.84
497.79	112.35
497.97	194.26
498.14	161.50
498.32	149.79
498.50	107.66
498.67	102.98
498.85	110.01
499.03	140.43
499.20	124.05
499.38	128.73
499.56	175.54
499.73	215.33
499.91	128.73
500.08	159.16
500.26	194.26
500.44	140.43
500.61	135.75
500.79	81.92
500.97	74.90
501.14	117.03
501.32	135.75
501.49	163.84
501.67	175.54
501.84	112.35
502.02	70.22
502.20	252.78
502.37	177.88
502.55	133.41
502.72	126.39
502.90	124.05
503.07	184.90
503.25	203.63
503.43	142.77
503.60	220.01
503.78	124.05
503.95	159.16
504.13	98.30
504.30	39.79
504.48	177.88
504.65	215.33
504.83	189.58
505.01	128.73
505.18	81.92
505.36	63.19
505.53	210.65
505.71	119.37
505.88	149.79
506.06	175.54
506.23	177.88
506.41	95.96
506.58	124.05
506.76	121.71
506.93	93.62
507.11	126.39
507.28	135.75
507.46	149.79
507.63	231.71
507.81	156.82
507.98	175.54
508.16	126.39
508.33	84.26
508.50	107.66
508.68	131.07
508.85	131.07
509.03	133.41
509.20	112.35
509.38	175.54
509.55	210.65
509.73	133.41
509.90	105.32
510.08	105.32
510.25	168.52
510.42	168.52
510.60	147.45
510.77	166.18
510.95	147.45
511.12	112.35
511.30	161.50
511.47	161.50
511.64	170.86
511.82	194.26
511.99	196.60
512.17	196.60
512.34	184.90
512.51	93.62
512.69	170.86
512.86	161.50
513.04	77.24
513.21	180.22
513.38	145.11
513.56	114.69
513.73	154.48
513.90	138.09
514.08	84.26
514.25	117.03
514.43	191.92
514.60	114.69
514.77	86.60
514.95	138.09
515.12	100.64
515.29	161.50
515.47	177.88
515.64	168.52
515.81	184.90
515.99	154.48
516.16	159.16
516.33	182.56
516.51	131.07
516.68	145.11
516.85	142.77
517.03	198.95
517.20	168.52
517.37	138.09
517.54	187.24
517.72	105.32
517.89	128.73
518.06	149.79
518.24	189.58
518.41	180.22
518.58	271.50
518.75	175.54
518.93	189.58
519.10	119.37
519.27	124.05
519.45	145.11
519.62	128.73
519.79	70.22
519.96	72.56
520.14	107.66
520.31	203.63
520.48	117.03
520.65	124.05
520.83	196.60
521.00	102.98
521.17	182.56
521.34	163.84
521.52	107.66
521.69	147.45
521.86	156.82
522.03	154.48
522.20	201.29
522.38	180.22
522.55	173.20
522.72	159.16
522.89	126.39
523.07	88.94
523.24	114.69
523.41	149.79
523.58	168.52
523.75	126.39
523.92	173.20
524.10	154.48
524.27	138.09
524.44	98.30
524.61	152.13
524.78	201.29
524.96	166.18
525.13	173.20
525.30	159.16
525.47	152.13
525.64	194.26
525.81	147.45
525.98	93.62
526.16	147.45
526.33	93.62
526.50	166.18
526.67	100.64
526.84	133.41
527.01	114.69
527.18	140.43
527.36	107.66
527.53	156.82
527.70	163.84
527.87	156.82
528.04	133.41
528.21	100.64
528.38	168.52
528.55	227.03
528.72	194.26
528.89	159.16
529.07	163.84
529.24	133.41
529.41	126.39
529.58	121.71
529.75	175.54
529.92	198.95
530.09	149.79
530.26	98.30
530.43	126.39
530.60	124.05
530.77	180.22
530.94	131.07
531.11	133.41
531.28	145.11
531.46	168.52
531.63	161.50
531.80	128.73
531.97	128.73
532.14	114.69
532.31	152.13
532.48	91.28
532.65	187.24
532.82	205.97
532.99	220.01
533.16	124.05
533.33	234.05
533.50	196.60
533.67	105.32
533.84	241.08
534.01	212.99
534.18	184.90
534.35	149.79
534.52	166.18
534.69	126.39
534.86	170.86
535.03	142.77
535.20	91.28
535.37	149.79
535.54	159.16
535.71	114.69
535.88	154.48
536.05	70.22
536.22	177.88
536.38	53.83
536.55	142.77
536.72	142.77
536.89	60.85
537.06	84.26
537.23	133.41
537.40	98.30
537.57	88.94
537.74	159.16
537.91	196.60
538.08	154.48
538.25	236.39
538.42	149.79
538.59	159.16
538.75	128.73
538.92	102.98
539.09	182.56
539.26	194.26
539.43	444.70
539.60	580.45
539.77	968.98
539.94	706.84
540.11	430.66
540.28	304.27
540.44	266.82
540.61	95.96
540.78	189.58
540.95	156.82
541.12	124.05
541.29	114.69
541.46	152.13
541.62	177.88
541.79	170.86
541.96	88.94
542.13	133.41
542.30	114.69
542.47	163.84
542.63	147.45
542.80	114.69
542.97	147.45
543.14	124.05
543.31	152.13
543.48	142.77
543.64	100.64
543.81	156.82
543.98	95.96
544.15	142.77
544.32	74.90
544.48	142.77
544.65	138.09
544.82	70.22
544.99	110.01
545.16	102.98
545.32	81.92
545.49	70.22
545.66	119.37
545.83	198.95
546.00	156.82
546.16	86.60
546.33	121.71
546.50	145.11
546.67	161.50
546.83	168.52
547.00	212.99
547.17	177.88
547.34	168.52
547.50	124.05
547.67	145.11
547.84	161.50
548.00	145.11
548.17	154.48
548.34	149.79
548.51	163.84
548.67	147.45
548.84	74.90
549.01	86.60
549.18	184.90
549.34	196.60
549.51	159.16
549.68	117.03
549.84	168.52
550.01	72.56
550.18	231.71
550.34	229.37
550.51	175.54
550.68	191.92
550.84	145.11
551.01	194.26
551.18	152.13
551.34	152.13
551.51	114.69
551.68	138.09
551.84	98.30
552.01	63.19
552.18	72.56
552.34	191.92
552.51	138.09
552.68	149.79
552.84	138.09
553.01	154.48
553.18	156.82
553.34	128.73
553.51	163.84
553.67	142.77
553.84	117.03
554.01	163.84
554.17	152.13
554.34	168.52
554.51	135.75
554.67	163.84
554.84	70.22
555.00	212.99
555.17	229.37
555.33	124.05
555.50	112.35
555.67	131.07
555.83	124.05
556.00	126.39
556.16	299.59
556.33	166.18
556.50	149.79
556.66	154.48
556.83	128.73
556.99	173.20
557.16	114.69
557.32	145.11
557.49	121.71
557.65	100.64
557.82	128.73
557.98	107.66
558.15	100.64
558.32	131.07
558.48	67.88
558.65	98.30
558.81	175.54
558.98	91.28
559.14	161.50
559.31	114.69
559.47	98.30
559.64	124.05
559.80	196.60
559.97	161.50
560.13	173.20
560.30	182.56
560.46	229.37
560.63	124.05
560.79	154.48
560.96	203.63
561.12	163.84
561.29	201.29
561.45	124.05
561.61	107.66
561.78	203.63
561.94	189.58
562.11	138.09
562.27	182.56
562.44	131.07
562.60	173.20
562.77	133.41
562.93	170.86
563.10	131.07
563.26	124.05
563.42	145.11
563.59	154.48
563.75	112.35
563.92	191.92
564.08	65.54
564.24	149.79
564.41	180.22
564.57	170.86
564.74	131.07
564.90	126.39
565.07	149.79
565.23	191.92
565.39	184.90
565.56	170.86
565.72	119.37
565.88	131.07
566.05	124.05
566.21	98.30
566.38	142.77
566.54	128.73
566.70	124.05
566.87	163.84
567.03	177.88
567.19	201.29
567.36	131.07
567.52	117.03
567.68	198.95
567.85	194.26
568.01	105.32
568.17	86.60
568.34	142.77
568.50	159.16
568.66	112.35
568.83	205.97
568.99	163.84
569.15	236.39
569.32	107.66
569.48	152.13
569.64	117.03
569.81	131.07
569.97	152.13
570.13	229.37
570.30	133.41
570.46	154.48
570.62	135.75
570.78	166.18
570.95	140.43
571.11	184.90
571.27	189.58
571.43	98.30
571.60	138.09
571.76	117.03
571.92	205.97
572.09	110.01
572.25	93.62
572.41	161.50
572.57	112.35
572.74	180.22
572.90	168.52
573.06	154.48
573.22	166.18
573.38	135.75
573.55	142.77
573.71	126.39
573.87	100.64
574.03	154.48
574.20	182.56
574.36	205.97
574.52	243.42
574.68	128.73
574.84	224.69
575.01	147.45
575.17	217.67
575.33	184.90
575.49	231.71
575.65	245.76
575.82	292.57
575.98	369.80
576.14	444.70
576.30	292.57
576.46	220.01
576.62	177.88
576.79	255.12
576.95	231.71
577.11	107.66
577.27	175.54
577.43	142.77
577.59	210.65
577.75	203.63
577.92	184.90
578.08	131.07
578.24	156.82
578.40	163.84
578.56	194.26
578.72	147.45
578.88	131.07
579.04	191.92
579.21	196.60
579.37	208.31
579.53	248.10
579.69	205.97
579.85	173.20
580.01	210.65
580.17	234.05
580.33	224.69
580.49	201.29
580.65	217.67
580.82	138.09
580.98	196.60
581.14	248.10
581.30	154.48
581.46	203.63
581.62	283.20
581.78	334.70
581.94	283.20
582.10	215.33
582.26	220.01
582.42	252.78
582.58	262.14
582.74	252.78
582.90	245.76
583.06	212.99
583.22	205.97
583.38	210.65
583.54	313.63
583.70	337.04
583.86	383.85
584.02	528.96
584.18	594.50
584.34	1015.79
584.50	7103.53
584.66	24198.80
584.82	40914.90
584.98	42759.25
585.14	26904.46
585.30	13884.06
585.46	6771.17
585.62	2738.43
585.78	1210.06
585.94	678.76
586.10	449.38
586.26	404.91
586.42	409.59
586.58	344.06
586.74	301.93
586.90	320.65
587.06	287.89
587.22	205.97
587.38	390.87
587.54	1327.08
587.70	2619.06
587.86	3372.71
588.02	2558.21
588.18	1521.35
588.34	896.43
588.49	425.98
588.65	355.76
588.81	220.01
588.97	140.43
589.13	189.58
589.29	196.60
589.45	205.97
589.61	311.29
589.77	262.14
589.93	231.71
590.08	285.55
590.24	248.10
590.40	227.03
590.56	236.39
590.72	173.20
590.88	145.11
591.04	198.95
591.20	245.76
591.35	273.84
591.51	175.54
591.67	198.95
591.83	189.58
591.99	198.95
592.15	142.77
592.31	238.73
592.46	173.20
592.62	210.65
592.78	177.88
592.94	210.65
593.10	180.22
593.26	196.60
593.41	173.20
593.57	315.97
593.73	1102.39
593.89	3101.21
594.05	5151.52
594.20	5135.14
594.36	3552.93
594.52	2026.90
594.68	1160.91
594.84	662.37
594.99	341.72
595.15	266.82
595.31	161.50
595.47	168.52
595.62	189.58
595.78	131.07
595.94	133.41
596.10	194.26
596.25	238.73
596.41	238.73
596.57	243.42
596.73	255.12
596.88	578.11
597.04	1144.52
597.20	1291.98
597.36	1008.77
597.51	641.31
597.67	418.96
597.83	224.69
597.99	210.65
598.14	166.18
598.30	180.22
598.46	250.44
598.61	210.65
598.77	194.26
598.93	138.09
599.09	131.07
599.24	98.30
599.40	184.90
599.56	161.50
599.71	154.48
599.87	170.86
600.03	191.92
600.18	154.48
600.34	168.52
600.50	126.39
600.65	180.22
600.81	212.99
600.97	145.11
601.12	236.39
601.28	238.73
601.44	124.05
601.59	184.90
601.75	145.11
601.91	224.69
602.06	198.95
602.22	395.55
602.37	763.01
602.53	1329.42
602.69	1453.47
602.84	1036.86
603.00	704.50
603.16	414.27
603.31	280.86
603.47	280.86
603.62	182.56
603.78	189.58
603.94	259.80
604.09	147.45
604.25	133.41
604.40	243.42
604.56	142.77
604.71	231.71
604.87	161.50
605.03	124.05
605.18	229.37
605.34	156.82
605.49	107.66
605.65	156.82
605.80	170.86
605.96	147.45
606.12	184.90
606.27	182.56
606.43	180.22
606.58	484.49
606.74	1666.46
606.89	3311.86
607.05	4238.71
607.20	3559.95
607.36	2401.39
607.51	1486.24
607.67	912.81
607.82	648.33
607.98	301.93
608.13	208.31
608.29	187.24
608.44	250.44
608.60	315.97
608.75	755.99
608.91	2726.72
609.06	5364.51
609.22	7386.73
609.37	6274.98
609.53	4159.13
609.68	2726.72
609.84	1486.24
609.99	791.10
610.15	421.30
610.30	332.36
610.46	259.80
610.61	311.29
610.76	205.97
610.92	245.76
611.07	208.31
611.23	248.10
611.38	175.54
611.54	215.33
611.69	194.26
611.84	98.30
612.00	173.20
612.15	273.84
612.31	360.44
612.46	390.87
612.62	313.63
612.77	306.61
612.92	322.99
613.08	264.48
613.23	259.80
613.39	575.77
613.54	2740.77
613.69	7117.57
613.85	11534.16
614.00	11611.40
614.15	8175.49
614.31	5200.67
614.46	3234.62
614.62	1781.15
614.77	784.08
614.92	465.77
615.08	376.83
615.23	276.18
615.38	271.50
615.54	631.94
615.69	1614.97
615.84	2682.25
616.00	3164.40
616.15	2506.71
616.30	1757.74
616.46	1144.52
616.61	678.76
616.76	484.49
616.92	269.16
617.07	220.01
617.22	135.75
617.37	166.18
617.53	142.77
617.68	156.82
617.83	170.86
617.99	220.01
618.14	231.71
618.29	210.65
618.45	250.44
618.60	198.95
618.75	138.09
618.90	203.63
619.06	173.20
619.21	194.26
619.36	182.56
619.51	119.37
619.67	166.18
619.82	131.07
619.97	191.92
620.12	163.84
620.28	152.13
620.43	128.73
620.58	152.13
620.73	93.62
620.89	388.53
621.04	837.91
621.19	1537.73
621.34	1881.79
621.49	1451.13
621.65	1181.97
621.80	739.61
621.95	524.28
622.10	355.76
622.25	194.26
622.41	93.62
622.56	154.48
622.71	194.26
622.86	180.22
623.01	163.84
623.16	142.77
623.32	182.56
623.47	236.39
623.62	98.30
623.77	196.60
623.92	133.41
624.07	154.48
624.23	159.16
624.38	156.82
624.53	135.75
624.68	131.07
624.83	227.03
624.98	184.90
625.13	236.39
625.29	121.71
625.44	149.79
625.59	227.03
625.74	433.00
625.89	1572.84
626.04	3700.39
626.19	5558.77
626.34	5692.18
626.49	4264.46
626.65	2904.60
626.80	2036.27
626.95	1090.69
627.10	575.77
627.25	311.29
627.40	337.04
627.55	262.14
627.70	131.07
627.85	191.92
628.00	191.92
628.15	149.79
628.30	128.73
628.45	145.11
628.60	212.99
628.76	198.95
628.91	173.20
629.06	152.13
629.21	208.31
629.36	117.03
629.51	180.22
629.66	294.91
629.81	770.04
629.96	1331.76
630.11	1657.10
630.26	1350.49
630.41	959.62
630.56	725.57
630.71	489.17
630.86	222.35
631.01	154.48
631.16	243.42
631.31	234.05
631.46	205.97
631.61	149.79
631.76	170.86
631.91	131.07
632.06	154.48
632.21	229.37
632.36	217.67
632.51	287.89
632.66	866.00
632.81	2062.01
632.96	3492.08
633.10	3812.73
633.25	3124.62
633.40	2232.87
633.55	1490.92
633.70	851.96
633.85	524.28
634.00	339.38
634.15	236.39
634.30	252.78
634.45	212.99
634.60	180.22
634.75	156.82
634.90	156.82
635.05	161.50
635.19	135.75
635.34	166.18
635.49	140.43
635.64	205.97
635.79	196.60
635.94	175.54
636.09	163.84
636.24	229.37
636.39	208.31
636.53	201.29
636.68	149.79
636.83	175.54
636.98	243.42
637.13	198.95
637.28	252.78
637.43	617.90
637.57	2246.91
637.72	4856.61
637.87	7131.61
638.02	7049.69
638.17	5296.63
638.32	3609.11
638.46	2354.58
638.61	1413.68
638.76	758.33
638.91	451.72
639.06	313.63
639.20	386.19
639.35	947.92
639.50	3286.11
639.65	7375.03
639.80	11052.01
639.94	10518.37
640.09	7943.78
640.24	5327.06
640.39	3620.81
640.54	2052.65
640.68	1100.05
640.83	493.85
640.98	372.15
641.13	229.37
641.27	271.50
641.42	227.03
641.57	215.33
641.72	212.99
641.86	161.50
642.01	156.82
642.16	196.60
642.31	145.11
642.45	231.71
642.60	220.01
642.75	93.62
642.90	145.11
643.04	147.45
643.19	154.48
643.34	152.13
643.48	180.22
643.63	168.52
643.78	201.29
643.93	198.95
644.07	161.50
644.22	170.86
644.37	93.62
644.51	198.95
644.66	184.90
644.81	152.13
644.95	194.26
645.10	147.45
645.25	149.79
645.39	212.99
645.54	168.52
645.69	212.99
645.83	117.03
645.98	280.86
646.13	163.84
646.27	198.95
646.42	152.13
646.57	187.24
646.71	166.18
646.86	95.96
647.00	159.16
647.15	173.20
647.30	110.01
647.44	173.20
647.59	145.11
647.74	114.69
647.88	187.24
648.03	152.13
648.17	159.16
648.32	88.94
648.47	168.52
648.61	152.13
648.76	147.45
648.90	154.48
649.05	173.20
649.20	145.11
649.34	128.73
649.49	196.60
649.63	297.25
649.78	407.25
649.92	1322.40
650.07	3372.71
650.21	5455.79
650.36	5947.30
650.51	4482.13
650.65	3297.81
650.80	2153.29
650.94	1240.48
651.09	702.16
651.23	409.59
651.38	299.59
651.52	266.82
651.67	121.71
651.81	201.29
651.96	203.63
652.10	222.35
652.25	145.11
652.39	255.12
652.54	571.09
652.68	1107.07
652.83	1858.39
652.97	2209.47
653.12	1790.51
653.26	1329.42
653.41	919.83
653.55	564.07
653.70	372.15
653.84	285.55
653.99	124.05
654.13	173.20
654.27	168.52
654.42	65.54
654.56	196.60
654.71	210.65
654.85	161.50
655.00	133.41
655.14	128.73
655.29	166.18
655.43	248.10
655.57	182.56
655.72	119.37
655.86	177.88
656.01	135.75
656.15	91.28
656.30	191.92
656.44	161.50
656.58	117.03
656.73	191.92
656.87	112.35
657.01	37.45
657.16	159.16
657.30	236.39
657.45	161.50
657.59	173.20
657.73	147.45
657.88	135.75
658.02	156.82
658.16	138.09
658.31	77.24
658.45	175.54
658.60	91.28
658.74	131.07
658.88	140.43
659.03	271.50
659.17	685.78
659.31	1507.30
659.46	2562.89
659.60	3197.17
659.74	2555.86
659.89	1753.06
660.03	1282.61
660.17	777.06
660.32	449.38
660.46	334.70
660.60	210.65
660.74	117.03
660.89	187.24
661.03	177.88
661.17	95.96
661.32	168.52
661.46	198.95
661.60	140.43
661.74	201.29
661.89	210.65
662.03	149.79
662.17	81.92
662.31	154.48
662.46	198.95
662.60	142.77
662.74	145.11
662.88	198.95
663.03	107.66
663.17	67.88
663.31	191.92
663.45	156.82
663.60	84.26
663.74	131.07
663.88	161.50
664.02	131.07
664.17	95.96
664.31	131.07
664.45	194.26
664.59	175.54
664.73	180.22
664.88	241.08
665.02	177.88
665.16	98.30
665.30	205.97
665.44	182.56
665.59	262.14
665.73	149.79
665.87	161.50
666.01	215.33
666.15	156.82
666.29	128.73
666.44	229.37
666.58	252.78
666.72	191.92
666.86	184.90
667.00	348.74
667.14	1139.84
667.28	2855.45
667.43	4697.46
667.57	5364.51
667.71	4479.79
667.85	3105.89
667.99	1935.62
668.13	1083.67
668.27	678.76
668.41	353.42
668.56	308.95
668.70	280.86
668.84	187.24
668.98	140.43
669.12	91.28
669.26	168.52
669.40	238.73
669.54	100.64
669.68	205.97
669.82	105.32
669.96	166.18
670.10	229.37
670.25	166.18
670.39	156.82
670.53	154.48
670.67	163.84
670.81	119.37
670.95	397.89
671.09	1093.03
671.23	2202.44
671.37	3239.30
671.51	3258.03
671.65	2541.82
671.79	1603.27
671.93	1013.45
672.07	650.67
672.21	470.45
672.35	250.44
672.49	114.69
672.63	154.48
672.77	208.31
672.91	142.77
673.05	156.82
673.19	161.50
673.33	156.82
673.47	166.18
673.61	147.45
673.75	112.35
673.89	145.11
674.03	191.92
674.17	102.98
674.31	159.16
674.45	196.60
674.59	133.41
674.73	79.58
674.87	222.35
675.01	201.29
675.15	159.16
675.29	180.22
675.43	194.26
675.56	152.13
675.70	135.75
675.84	161.50
675.98	201.29
676.12	110.01
676.26	128.73
676.40	110.01
676.54	110.01
676.68	147.45
676.82	191.92
676.96	135.75
677.10	173.20
677.23	131.07
677.37	124.05
677.51	133.41
677.65	243.42
677.79	198.95
677.93	163.84
678.07	114.69
678.21	86.60
678.34	182.56
678.48	98.30
678.62	163.84
678.76	142.77
678.90	91.28
679.04	170.86
679.18	173.20
679.31	170.86
679.45	159.16
679.59	105.32
679.73	168.52
679.87	124.05
680.00	135.75
680.14	100.64
680.28	177.88
680.42	180.22
680.56	126.39
680.70	161.50
680.83	135.75
680.97	67.88
681.11	84.26
681.25	138.09
681.39	114.69
681.52	149.79
681.66	184.90
681.80	74.90
681.94	234.05
682.07	98.30
682.21	112.35
682.35	86.60
682.49	156.82
682.62	173.20
682.76	86.60
682.90	149.79
683.04	86.60
683.17	173.20
683.31	196.60
683.45	131.07
683.59	140.43
683.72	135.75
683.86	86.60
684.00	98.30
684.13	135.75
684.27	142.77
684.41	114.69
684.55	163.84
684.68	163.84
684.82	159.16
684.96	163.84
685.09	152.13
685.23	124.05
685.37	140.43
685.50	102.98
685.64	248.10
685.78	110.01
685.91	107.66
686.05	154.48
686.19	100.64
686.32	147.45
686.46	128.73
686.60	201.29
686.73	217.67
686.87	248.10
687.01	163.84
687.14	180.22
687.28	161.50
687.42	220.01
687.55	170.86
687.69	229.37
687.82	170.86
687.96	112.35
688.10	133.41
688.23	203.63
688.37	191.92
688.50	149.79
688.64	65.54
688.78	102.98
688.91	166.18
689.05	142.77
689.18	110.01
689.32	93.62
689.46	196.60
689.59	149.79
689.73	142.77
689.86	84.26
690.00	110.01
690.13	138.09
690.27	133.41
690.41	91.28
690.54	234.05
690.68	110.01
690.81	175.54
690.95	152.13
691.08	166.18
691.22	95.96
691.35	175.54
691.49	149.79
691.62	180.22
691.76	117.03
691.89	184.90
692.03	191.92
692.16	187.24
692.30	465.77
692.43	1135.16
692.57	1898.17
692.70	2291.38
692.84	2022.22
692.97	1652.42
693.11	1062.60
693.24	894.08
693.38	592.16
693.51	470.45
693.65	304.27
693.78	250.44
693.92	187.24
694.05	163.84
694.19	154.48
694.32	159.16
694.45	170.86
694.59	166.18
694.72	131.07
694.86	140.43
694.99	217.67
695.13	208.31
695.26	114.69
695.39	121.71
695.53	196.60
695.66	105.32
695.80	184.90
695.93	156.82
696.07	222.35
696.20	334.70
696.33	339.38
696.47	299.59
696.60	280.86
696.73	259.80
696.87	152.13
697.00	215.33
697.14	161.50
697.27	208.31
697.40	196.60
697.54	102.98
697.67	77.24
697.80	98.30
697.94	170.86
698.07	88.94
698.21	140.43
698.34	147.45
698.47	126.39
698.61	177.88
698.74	93.62
698.87	114.69
699.01	114.69
699.14	159.16
699.27	117.03
699.40	276.18
699.54	112.35
699.67	126.39
699.80	145.11
699.94	142.77
700.07	65.54
700.20	163.84
700.34	194.26
700.47	168.52
700.60	138.09
700.73	74.90
700.87	222.35
701.00	149.79
701.13	203.63
701.26	140.43
701.40	93.62
701.53	180.22
701.66	159.16
701.79	194.26
701.93	187.24
702.06	252.78
702.19	194.26
702.32	259.80
702.46	365.12
702.59	573.43
702.72	1423.05
702.85	2527.78
702.99	3740.18
703.12	4264.46
703.25	3604.42
703.38	3136.32
703.51	2492.67
703.65	1860.73
703.78	1289.64
703.91	844.93
704.04	519.60
704.17	365.12
704.31	252.78
704.44	124.05
704.57	238.73
704.70	173.20
704.83	156.82
704.96	191.92
705.10	168.52
705.23	117.03
>>>>>End Processed Spectral Data<<<<<
