SpectraSuite Data File
++++++++++++++++++++++++++++++++++++
Date: Fri Oct 04 12:13:40 GMT-05:00 2013
User: price-jones
Dark Spectrum Present: No
Reference Spectrum Present: No
Number of Sampled Component Spectra: 1
Spectrometers: USB2+H05261
Integration Time (usec): 10000 (USB2+H05261)
Spectra Averaged: 1 (USB2+H05261)
Boxcar Smoothing: 0 (USB2+H05261)
Correct for Electrical Dark: No (USB2+H05261)
Strobe/Lamp Enabled: No (USB2+H05261)
Correct for Detector Non-linearity: No (USB2+H05261)
Correct for Stray Light: No (USB2+H05261)
Number of Pixels in Processed Spectrum: 2048
>>>>>Begin Processed Spectral Data<<<<<
365.73	11.70
365.92	11.70
366.12	11.70
366.32	0.00
366.52	0.00
366.72	0.00
366.91	0.00
367.11	0.00
367.31	0.00
367.51	0.00
367.70	0.00
367.90	0.00
368.10	0.00
368.30	0.00
368.49	0.00
368.69	0.00
368.89	0.00
369.09	0.00
369.28	0.00
369.48	0.00
369.68	0.00
369.87	0.00
370.07	0.00
370.27	0.00
370.47	0.00
370.66	0.00
370.86	0.00
371.06	0.00
371.25	0.00
371.45	0.00
371.65	0.00
371.84	35.11
372.04	0.00
372.24	0.00
372.44	0.00
372.63	0.00
372.83	74.90
373.03	39.79
373.22	42.13
373.42	4.68
373.62	35.11
373.81	0.00
374.01	30.43
374.21	14.04
374.40	42.13
374.60	0.00
374.79	0.00
374.99	63.19
375.19	37.45
375.38	21.06
375.58	32.77
375.78	18.72
375.97	37.45
376.17	42.13
376.37	86.60
376.56	0.00
376.76	35.11
376.95	7.02
377.15	46.81
377.35	0.00
377.54	49.15
377.74	37.45
377.93	0.00
378.13	60.85
378.33	39.79
378.52	0.00
378.72	67.88
378.91	7.02
379.11	58.51
379.31	30.43
379.50	81.92
379.70	63.19
379.89	0.00
380.09	0.00
380.28	0.00
380.48	32.77
380.68	49.15
380.87	53.83
381.07	35.11
381.26	32.77
381.46	28.09
381.65	11.70
381.85	81.92
382.04	11.70
382.24	35.11
382.43	42.13
382.63	25.75
382.83	23.41
383.02	0.00
383.22	91.28
383.41	0.00
383.61	4.68
383.80	16.38
384.00	0.00
384.19	42.13
384.39	28.09
384.58	35.11
384.78	30.43
384.97	25.75
385.17	0.00
385.36	18.72
385.56	35.11
385.75	0.00
385.95	7.02
386.14	14.04
386.34	4.68
386.53	0.00
386.72	63.19
386.92	7.02
387.11	28.09
387.31	30.43
387.50	2.34
387.70	0.00
387.89	0.00
388.09	0.00
388.28	37.45
388.48	25.75
388.67	7.02
388.86	0.00
389.06	11.70
389.25	0.00
389.45	28.09
389.64	21.06
389.84	0.00
390.03	0.00
390.22	0.00
390.42	11.70
390.61	4.68
390.81	11.70
391.00	4.68
391.19	0.00
391.39	32.77
391.58	0.00
391.78	42.13
391.97	4.68
392.16	51.49
392.36	56.17
392.55	56.17
392.75	42.13
392.94	37.45
393.13	30.43
393.33	0.00
393.52	16.38
393.71	49.15
393.91	65.54
394.10	0.00
394.29	72.56
394.49	56.17
394.68	0.00
394.88	39.79
395.07	28.09
395.26	0.00
395.46	16.38
395.65	0.00
395.84	32.77
396.04	7.02
396.23	30.43
396.42	112.35
396.62	16.38
396.81	4.68
397.00	7.02
397.19	7.02
397.39	16.38
397.58	18.72
397.77	67.88
397.97	35.11
398.16	37.45
398.35	0.00
398.55	65.54
398.74	58.51
398.93	60.85
399.12	46.81
399.32	0.00
399.51	0.00
399.70	65.54
399.90	23.41
400.09	0.00
400.28	93.62
400.47	14.04
400.67	0.00
400.86	21.06
401.05	28.09
401.24	0.00
401.44	51.49
401.63	67.88
401.82	25.75
402.01	4.68
402.21	23.41
402.40	84.26
402.59	37.45
402.78	0.00
402.97	39.79
403.17	23.41
403.36	44.47
403.55	18.72
403.74	32.77
403.93	4.68
404.13	42.13
404.32	4.68
404.51	0.00
404.70	56.17
404.89	0.00
405.09	16.38
405.28	16.38
405.47	53.83
405.66	124.05
405.85	21.06
406.05	53.83
406.24	65.54
406.43	42.13
406.62	28.09
406.81	0.00
407.00	30.43
407.20	49.15
407.39	16.38
407.58	23.41
407.77	49.15
407.96	65.54
408.15	0.00
408.34	28.09
408.54	25.75
408.73	53.83
408.92	60.85
409.11	0.00
409.30	65.54
409.49	0.00
409.68	23.41
409.87	0.00
410.07	0.00
410.26	0.00
410.45	21.06
410.64	46.81
410.83	51.49
411.02	4.68
411.21	0.00
411.40	0.00
411.59	58.51
411.78	56.17
411.98	46.81
412.17	4.68
412.36	79.58
412.55	63.19
412.74	4.68
412.93	2.34
413.12	0.00
413.31	37.45
413.50	11.70
413.69	9.36
413.88	25.75
414.07	72.56
414.26	0.00
414.45	11.70
414.64	21.06
414.83	25.75
415.02	63.19
415.22	37.45
415.41	32.77
415.60	88.94
415.79	16.38
415.98	46.81
416.17	70.22
416.36	0.00
416.55	11.70
416.74	23.41
416.93	37.45
417.12	39.79
417.31	95.96
417.50	72.56
417.69	93.62
417.88	21.06
418.07	35.11
418.26	67.88
418.45	67.88
418.64	14.04
418.83	81.92
419.02	86.60
419.21	39.79
419.39	79.58
419.58	28.09
419.77	37.45
419.96	0.00
420.15	77.24
420.34	21.06
420.53	23.41
420.72	0.00
420.91	72.56
421.10	58.51
421.29	16.38
421.48	42.13
421.67	0.00
421.86	0.00
422.05	63.19
422.24	7.02
422.43	49.15
422.61	25.75
422.80	18.72
422.99	0.00
423.18	14.04
423.37	56.17
423.56	63.19
423.75	30.43
423.94	74.90
424.13	39.79
424.32	63.19
424.50	53.83
424.69	58.51
424.88	74.90
425.07	72.56
425.26	9.36
425.45	28.09
425.64	2.34
425.83	11.70
426.01	18.72
426.20	74.90
426.39	0.00
426.58	58.51
426.77	39.79
426.96	18.72
427.15	81.92
427.33	9.36
427.52	28.09
427.71	77.24
427.90	16.38
428.09	39.79
428.28	58.51
428.46	70.22
428.65	49.15
428.84	60.85
429.03	7.02
429.22	74.90
429.40	53.83
429.59	16.38
429.78	81.92
429.97	46.81
430.16	79.58
430.34	0.00
430.53	72.56
430.72	100.64
430.91	63.19
431.10	77.24
431.28	18.72
431.47	67.88
431.66	91.28
431.85	42.13
432.03	11.70
432.22	121.71
432.41	154.48
432.60	39.79
432.79	0.00
432.97	93.62
433.16	53.83
433.35	46.81
433.54	37.45
433.72	65.54
433.91	35.11
434.10	0.00
434.28	81.92
434.47	16.38
434.66	0.00
434.85	42.13
435.03	14.04
435.22	42.13
435.41	49.15
435.59	56.17
435.78	77.24
435.97	53.83
436.16	56.17
436.34	79.58
436.53	56.17
436.72	0.00
436.90	9.36
437.09	100.64
437.28	77.24
437.46	4.68
437.65	79.58
437.84	9.36
438.02	30.43
438.21	49.15
438.40	46.81
438.58	2.34
438.77	74.90
438.96	51.49
439.14	16.38
439.33	32.77
439.52	35.11
439.70	9.36
439.89	65.54
440.08	42.13
440.26	0.00
440.45	133.41
440.63	0.00
440.82	44.47
441.01	86.60
441.19	58.51
441.38	51.49
441.57	30.43
441.75	79.58
441.94	74.90
442.12	70.22
442.31	74.90
442.50	53.83
442.68	25.75
442.87	107.66
443.05	84.26
443.24	0.00
443.43	37.45
443.61	39.79
443.80	105.32
443.98	74.90
444.17	42.13
444.35	16.38
444.54	30.43
444.73	30.43
444.91	121.71
445.10	42.13
445.28	0.00
445.47	58.51
445.65	102.98
445.84	16.38
446.02	77.24
446.21	88.94
446.39	86.60
446.58	18.72
446.77	93.62
446.95	56.17
447.14	58.51
447.32	42.13
447.51	18.72
447.69	65.54
447.88	2.34
448.06	21.06
448.25	35.11
448.43	37.45
448.62	84.26
448.80	18.72
448.99	79.58
449.17	35.11
449.36	28.09
449.54	0.00
449.73	0.00
449.91	67.88
450.10	149.79
450.28	56.17
450.46	102.98
450.65	56.17
450.83	30.43
451.02	58.51
451.20	70.22
451.39	46.81
451.57	91.28
451.76	16.38
451.94	93.62
452.13	74.90
452.31	60.85
452.49	28.09
452.68	53.83
452.86	56.17
453.05	58.51
453.23	0.00
453.42	95.96
453.60	65.54
453.78	72.56
453.97	60.85
454.15	88.94
454.34	7.02
454.52	46.81
454.70	60.85
454.89	0.00
455.07	70.22
455.26	79.58
455.44	128.73
455.62	112.35
455.81	7.02
455.99	114.69
456.17	95.96
456.36	112.35
456.54	21.06
456.73	112.35
456.91	93.62
457.09	77.24
457.28	67.88
457.46	0.00
457.64	0.00
457.83	7.02
458.01	16.38
458.19	18.72
458.38	81.92
458.56	180.22
458.74	81.92
458.93	39.79
459.11	67.88
459.29	42.13
459.48	53.83
459.66	0.00
459.84	79.58
460.03	100.64
460.21	49.15
460.39	58.51
460.57	77.24
460.76	67.88
460.94	0.00
461.12	16.38
461.31	84.26
461.49	74.90
461.67	81.92
461.85	14.04
462.04	2.34
462.22	131.07
462.40	0.00
462.59	28.09
462.77	44.47
462.95	49.15
463.13	88.94
463.32	98.30
463.50	121.71
463.68	91.28
463.86	51.49
464.05	7.02
464.23	11.70
464.41	74.90
464.59	114.69
464.78	39.79
464.96	35.11
465.14	49.15
465.32	98.30
465.50	35.11
465.69	77.24
465.87	60.85
466.05	0.00
466.23	84.26
466.41	95.96
466.60	65.54
466.78	102.98
466.96	65.54
467.14	39.79
467.32	35.11
467.51	35.11
467.69	86.60
467.87	60.85
468.05	0.00
468.23	0.00
468.41	4.68
468.60	60.85
468.78	91.28
468.96	72.56
469.14	37.45
469.32	37.45
469.50	35.11
469.69	93.62
469.87	98.30
470.05	93.62
470.23	14.04
470.41	65.54
470.59	77.24
470.77	105.32
470.95	67.88
471.14	30.43
471.32	14.04
471.50	77.24
471.68	77.24
471.86	65.54
472.04	84.26
472.22	70.22
472.40	18.72
472.58	88.94
472.77	4.68
472.95	56.17
473.13	7.02
473.31	105.32
473.49	0.00
473.67	21.06
473.85	105.32
474.03	37.45
474.21	32.77
474.39	121.71
474.57	138.09
474.75	63.19
474.93	46.81
475.12	145.11
475.30	102.98
475.48	51.49
475.66	0.00
475.84	77.24
476.02	60.85
476.20	35.11
476.38	60.85
476.56	53.83
476.74	23.41
476.92	140.43
477.10	44.47
477.28	131.07
477.46	74.90
477.64	121.71
477.82	121.71
478.00	91.28
478.18	67.88
478.36	30.43
478.54	51.49
478.72	35.11
478.90	4.68
479.08	25.75
479.26	51.49
479.44	21.06
479.62	46.81
479.80	74.90
479.98	44.47
480.16	51.49
480.34	46.81
480.52	67.88
480.70	65.54
480.88	77.24
481.06	28.09
481.24	58.51
481.41	117.03
481.59	126.39
481.77	23.41
481.95	39.79
482.13	156.82
482.31	53.83
482.49	18.72
482.67	37.45
482.85	28.09
483.03	102.98
483.21	37.45
483.39	28.09
483.57	93.62
483.74	159.16
483.92	0.00
484.10	110.01
484.28	117.03
484.46	88.94
484.64	9.36
484.82	0.00
485.00	72.56
485.18	44.47
485.35	56.17
485.53	30.43
485.71	77.24
485.89	77.24
486.07	56.17
486.25	42.13
486.43	128.73
486.61	77.24
486.78	72.56
486.96	86.60
487.14	37.45
487.32	77.24
487.50	32.77
487.68	60.85
487.85	37.45
488.03	46.81
488.21	81.92
488.39	51.49
488.57	51.49
488.75	39.79
488.92	110.01
489.10	114.69
489.28	77.24
489.46	67.88
489.64	88.94
489.81	60.85
489.99	53.83
490.17	35.11
490.35	44.47
490.53	86.60
490.70	70.22
490.88	63.19
491.06	39.79
491.24	121.71
491.41	70.22
491.59	63.19
491.77	135.75
491.95	65.54
492.13	51.49
492.30	84.26
492.48	79.58
492.66	105.32
492.84	18.72
493.01	72.56
493.19	49.15
493.37	100.64
493.54	0.00
493.72	51.49
493.90	79.58
494.08	100.64
494.25	18.72
494.43	30.43
494.61	0.00
494.79	0.00
494.96	126.39
495.14	74.90
495.32	74.90
495.49	93.62
495.67	91.28
495.85	28.09
496.02	131.07
496.20	84.26
496.38	70.22
496.55	30.43
496.73	51.49
496.91	9.36
497.09	53.83
497.26	110.01
497.44	23.41
497.62	51.49
497.79	72.56
497.97	140.43
498.14	58.51
498.32	49.15
498.50	42.13
498.67	93.62
498.85	121.71
499.03	51.49
499.20	149.79
499.38	58.51
499.56	112.35
499.73	117.03
499.91	84.26
500.08	65.54
500.26	117.03
500.44	135.75
500.61	100.64
500.79	110.01
500.97	140.43
501.14	98.30
501.32	58.51
501.49	32.77
501.67	107.66
501.84	77.24
502.02	74.90
502.20	77.24
502.37	145.11
502.55	93.62
502.72	46.81
502.90	60.85
503.07	119.37
503.25	21.06
503.43	119.37
503.60	53.83
503.78	72.56
503.95	44.47
504.13	14.04
504.30	72.56
504.48	63.19
504.65	93.62
504.83	56.17
505.01	135.75
505.18	119.37
505.36	84.26
505.53	56.17
505.71	81.92
505.88	79.58
506.06	7.02
506.23	58.51
506.41	128.73
506.58	152.13
506.76	147.45
506.93	107.66
507.11	147.45
507.28	4.68
507.46	86.60
507.63	39.79
507.81	86.60
507.98	121.71
508.16	95.96
508.33	60.85
508.50	84.26
508.68	114.69
508.85	53.83
509.03	88.94
509.20	110.01
509.38	72.56
509.55	102.98
509.73	46.81
509.90	93.62
510.08	46.81
510.25	114.69
510.42	81.92
510.60	102.98
510.77	88.94
510.95	67.88
511.12	124.05
511.30	74.90
511.47	51.49
511.64	74.90
511.82	42.13
511.99	102.98
512.17	0.00
512.34	81.92
512.51	37.45
512.69	126.39
512.86	23.41
513.04	121.71
513.21	91.28
513.38	138.09
513.56	140.43
513.73	105.32
513.90	63.19
514.08	86.60
514.25	100.64
514.43	56.17
514.60	14.04
514.77	152.13
514.95	110.01
515.12	53.83
515.29	46.81
515.47	133.41
515.64	124.05
515.81	67.88
515.99	140.43
516.16	102.98
516.33	42.13
516.51	105.32
516.68	95.96
516.85	44.47
517.03	72.56
517.20	67.88
517.37	133.41
517.54	95.96
517.72	65.54
517.89	133.41
518.06	49.15
518.24	88.94
518.41	32.77
518.58	58.51
518.75	16.38
518.93	88.94
519.10	72.56
519.27	128.73
519.45	105.32
519.62	121.71
519.79	65.54
519.96	105.32
520.14	86.60
520.31	91.28
520.48	145.11
520.65	63.19
520.83	98.30
521.00	65.54
521.17	98.30
521.34	98.30
521.52	56.17
521.69	84.26
521.86	117.03
522.03	86.60
522.20	182.56
522.38	112.35
522.55	88.94
522.72	60.85
522.89	84.26
523.07	53.83
523.24	98.30
523.41	30.43
523.58	25.75
523.75	67.88
523.92	79.58
524.10	84.26
524.27	70.22
524.44	124.05
524.61	114.69
524.78	58.51
524.96	91.28
525.13	25.75
525.30	25.75
525.47	91.28
525.64	74.90
525.81	46.81
525.98	74.90
526.16	95.96
526.33	124.05
526.50	63.19
526.67	98.30
526.84	84.26
527.01	102.98
527.18	37.45
527.36	21.06
527.53	7.02
527.70	177.88
527.87	23.41
528.04	95.96
528.21	91.28
528.38	51.49
528.55	65.54
528.72	133.41
528.89	98.30
529.07	56.17
529.24	86.60
529.41	119.37
529.58	67.88
529.75	49.15
529.92	128.73
530.09	58.51
530.26	28.09
530.43	112.35
530.60	105.32
530.77	149.79
530.94	18.72
531.11	107.66
531.28	65.54
531.46	119.37
531.63	86.60
531.80	0.00
531.97	91.28
532.14	102.98
532.31	74.90
532.48	46.81
532.65	114.69
532.82	133.41
532.99	140.43
533.16	53.83
533.33	56.17
533.50	77.24
533.67	135.75
533.84	91.28
534.01	74.90
534.18	84.26
534.35	98.30
534.52	133.41
534.69	58.51
534.86	105.32
535.03	145.11
535.20	98.30
535.37	79.58
535.54	102.98
535.71	201.29
535.88	56.17
536.05	135.75
536.22	112.35
536.38	11.70
536.55	72.56
536.72	133.41
536.89	163.84
537.06	88.94
537.23	93.62
537.40	121.71
537.57	93.62
537.74	114.69
537.91	112.35
538.08	53.83
538.25	74.90
538.42	140.43
538.59	53.83
538.75	98.30
538.92	93.62
539.09	53.83
539.26	84.26
539.43	84.26
539.60	72.56
539.77	67.88
539.94	32.77
540.11	107.66
540.28	4.68
540.44	105.32
540.61	14.04
540.78	11.70
540.95	56.17
541.12	100.64
541.29	63.19
541.46	32.77
541.62	124.05
541.79	107.66
541.96	37.45
542.13	49.15
542.30	58.51
542.47	77.24
542.63	88.94
542.80	79.58
542.97	107.66
543.14	133.41
543.31	63.19
543.48	74.90
543.64	23.41
543.81	100.64
543.98	91.28
544.15	107.66
544.32	102.98
544.48	84.26
544.65	112.35
544.82	112.35
544.99	166.18
545.16	135.75
545.32	128.73
545.49	30.43
545.66	86.60
545.83	46.81
546.00	133.41
546.16	70.22
546.33	95.96
546.50	46.81
546.67	49.15
546.83	110.01
547.00	79.58
547.17	93.62
547.34	100.64
547.50	112.35
547.67	112.35
547.84	147.45
548.00	154.48
548.17	126.39
548.34	77.24
548.51	117.03
548.67	152.13
548.84	131.07
549.01	121.71
549.18	91.28
549.34	72.56
549.51	53.83
549.68	63.19
549.84	84.26
550.01	72.56
550.18	102.98
550.34	79.58
550.51	110.01
550.68	131.07
550.84	35.11
551.01	124.05
551.18	126.39
551.34	25.75
551.51	107.66
551.68	67.88
551.84	110.01
552.01	81.92
552.18	128.73
552.34	88.94
552.51	95.96
552.68	39.79
552.84	105.32
553.01	65.54
553.18	93.62
553.34	42.13
553.51	126.39
553.67	142.77
553.84	86.60
554.01	131.07
554.17	58.51
554.34	107.66
554.51	93.62
554.67	107.66
554.84	168.52
555.00	42.13
555.17	63.19
555.33	60.85
555.50	102.98
555.67	98.30
555.83	35.11
556.00	95.96
556.16	44.47
556.33	67.88
556.50	105.32
556.66	98.30
556.83	72.56
556.99	30.43
557.16	140.43
557.32	91.28
557.49	88.94
557.65	84.26
557.82	65.54
557.98	4.68
558.15	105.32
558.32	18.72
558.48	60.85
558.65	9.36
558.81	88.94
558.98	56.17
559.14	100.64
559.31	88.94
559.47	114.69
559.64	46.81
559.80	60.85
559.97	86.60
560.13	88.94
560.30	121.71
560.46	56.17
560.63	114.69
560.79	105.32
560.96	107.66
561.12	70.22
561.29	67.88
561.45	79.58
561.61	84.26
561.78	102.98
561.94	60.85
562.11	25.75
562.27	23.41
562.44	81.92
562.60	77.24
562.77	131.07
562.93	140.43
563.10	117.03
563.26	0.00
563.42	16.38
563.59	107.66
563.75	124.05
563.92	51.49
564.08	79.58
564.24	65.54
564.41	95.96
564.57	60.85
564.74	107.66
564.90	65.54
565.07	46.81
565.23	46.81
565.39	37.45
565.56	28.09
565.72	63.19
565.88	95.96
566.05	117.03
566.21	72.56
566.38	39.79
566.54	60.85
566.70	25.75
566.87	79.58
567.03	81.92
567.19	81.92
567.36	91.28
567.52	67.88
567.68	18.72
567.85	100.64
568.01	98.30
568.17	117.03
568.34	110.01
568.50	39.79
568.66	77.24
568.83	98.30
568.99	117.03
569.15	128.73
569.32	63.19
569.48	21.06
569.64	110.01
569.81	88.94
569.97	9.36
570.13	84.26
570.30	16.38
570.46	117.03
570.62	138.09
570.78	95.96
570.95	147.45
571.11	98.30
571.27	70.22
571.43	53.83
571.60	102.98
571.76	63.19
571.92	102.98
572.09	95.96
572.25	107.66
572.41	0.00
572.57	25.75
572.74	4.68
572.90	93.62
573.06	112.35
573.22	102.98
573.38	161.50
573.55	51.49
573.71	56.17
573.87	93.62
574.03	110.01
574.20	114.69
574.36	133.41
574.52	35.11
574.68	21.06
574.84	16.38
575.01	0.00
575.17	119.37
575.33	51.49
575.49	46.81
575.65	126.39
575.82	18.72
575.98	42.13
576.14	0.00
576.30	53.83
576.46	35.11
576.62	81.92
576.79	114.69
576.95	147.45
577.11	124.05
577.27	63.19
577.43	114.69
577.59	81.92
577.75	95.96
577.92	93.62
578.08	63.19
578.24	21.06
578.40	81.92
578.56	60.85
578.72	107.66
578.88	63.19
579.04	114.69
579.21	30.43
579.37	42.13
579.53	70.22
579.69	88.94
579.85	102.98
580.01	79.58
580.17	72.56
580.33	58.51
580.49	100.64
580.65	58.51
580.82	58.51
580.98	91.28
581.14	117.03
581.30	142.77
581.46	56.17
581.62	128.73
581.78	72.56
581.94	58.51
582.10	65.54
582.26	74.90
582.42	46.81
582.58	0.00
582.74	133.41
582.90	110.01
583.06	39.79
583.22	39.79
583.38	9.36
583.54	88.94
583.70	112.35
583.86	140.43
584.02	88.94
584.18	65.54
584.34	23.41
584.50	124.05
584.66	0.00
584.82	72.56
584.98	42.13
585.14	84.26
585.30	102.98
585.46	124.05
585.62	65.54
585.78	60.85
585.94	70.22
586.10	53.83
586.26	98.30
586.42	133.41
586.58	119.37
586.74	98.30
586.90	152.13
587.06	91.28
587.22	56.17
587.38	117.03
587.54	105.32
587.70	95.96
587.86	0.00
588.02	140.43
588.18	86.60
588.34	63.19
588.49	105.32
588.65	77.24
588.81	79.58
588.97	58.51
589.13	88.94
589.29	11.70
589.45	81.92
589.61	58.51
589.77	28.09
589.93	60.85
590.08	42.13
590.24	121.71
590.40	25.75
590.56	77.24
590.72	93.62
590.88	0.00
591.04	117.03
591.20	65.54
591.35	46.81
591.51	91.28
591.67	77.24
591.83	70.22
591.99	77.24
592.15	88.94
592.31	84.26
592.46	84.26
592.62	51.49
592.78	23.41
592.94	100.64
593.10	60.85
593.26	95.96
593.41	30.43
593.57	49.15
593.73	35.11
593.89	110.01
594.05	51.49
594.20	121.71
594.36	98.30
594.52	93.62
594.68	0.00
594.84	53.83
594.99	100.64
595.15	117.03
595.31	95.96
595.47	72.56
595.62	105.32
595.78	84.26
595.94	51.49
596.10	28.09
596.25	135.75
596.41	9.36
596.57	49.15
596.73	107.66
596.88	84.26
597.04	131.07
597.20	98.30
597.36	58.51
597.51	32.77
597.67	37.45
597.83	170.86
597.99	67.88
598.14	114.69
598.30	138.09
598.46	93.62
598.61	91.28
598.77	60.85
598.93	39.79
599.09	58.51
599.24	124.05
599.40	4.68
599.56	35.11
599.71	102.98
599.87	72.56
600.03	65.54
600.18	124.05
600.34	147.45
600.50	152.13
600.65	70.22
600.81	135.75
600.97	81.92
601.12	112.35
601.28	95.96
601.44	30.43
601.59	63.19
601.75	0.00
601.91	0.00
602.06	58.51
602.22	114.69
602.37	28.09
602.53	142.77
602.69	114.69
602.84	67.88
603.00	95.96
603.16	67.88
603.31	37.45
603.47	74.90
603.62	51.49
603.78	86.60
603.94	46.81
604.09	35.11
604.25	67.88
604.40	51.49
604.56	102.98
604.71	37.45
604.87	53.83
605.03	25.75
605.18	67.88
605.34	25.75
605.49	32.77
605.65	93.62
605.80	35.11
605.96	18.72
606.12	91.28
606.27	70.22
606.43	4.68
606.58	84.26
606.74	88.94
606.89	0.00
607.05	105.32
607.20	11.70
607.36	84.26
607.51	95.96
607.67	105.32
607.82	60.85
607.98	0.00
608.13	18.72
608.29	63.19
608.44	9.36
608.60	39.79
608.75	37.45
608.91	95.96
609.06	110.01
609.22	37.45
609.37	163.84
609.53	51.49
609.68	60.85
609.84	53.83
609.99	117.03
610.15	46.81
610.30	60.85
610.46	11.70
610.61	23.41
610.76	152.13
610.92	107.66
611.07	30.43
611.23	67.88
611.38	56.17
611.54	72.56
611.69	86.60
611.84	110.01
612.00	126.39
612.15	51.49
612.31	72.56
612.46	49.15
612.62	56.17
612.77	37.45
612.92	60.85
613.08	51.49
613.23	100.64
613.39	25.75
613.54	35.11
613.69	14.04
613.85	44.47
614.00	93.62
614.15	70.22
614.31	58.51
614.46	77.24
614.62	49.15
614.77	0.00
614.92	56.17
615.08	110.01
615.23	51.49
615.38	30.43
615.54	70.22
615.69	16.38
615.84	79.58
616.00	88.94
616.15	67.88
616.30	14.04
616.46	16.38
616.61	79.58
616.76	88.94
616.92	32.77
617.07	145.11
617.22	114.69
617.37	44.47
617.53	93.62
617.68	88.94
617.83	95.96
617.99	147.45
618.14	135.75
618.29	84.26
618.45	28.09
618.60	58.51
618.75	70.22
618.90	100.64
619.06	81.92
619.21	117.03
619.36	107.66
619.51	0.00
619.67	98.30
619.82	86.60
619.97	58.51
620.12	65.54
620.28	112.35
620.43	142.77
620.58	74.90
620.73	70.22
620.89	37.45
621.04	0.00
621.19	105.32
621.34	60.85
621.49	46.81
621.65	79.58
621.80	46.81
621.95	67.88
622.10	46.81
622.25	42.13
622.41	49.15
622.56	42.13
622.71	84.26
622.86	72.56
623.01	49.15
623.16	100.64
623.32	95.96
623.47	91.28
623.62	44.47
623.77	58.51
623.92	0.00
624.07	81.92
624.23	44.47
624.38	112.35
624.53	0.00
624.68	86.60
624.83	98.30
624.98	88.94
625.13	63.19
625.29	46.81
625.44	56.17
625.59	42.13
625.74	67.88
625.89	105.32
626.04	46.81
626.19	77.24
626.34	84.26
626.49	7.02
626.65	93.62
626.80	39.79
626.95	23.41
627.10	72.56
627.25	79.58
627.40	93.62
627.55	58.51
627.70	28.09
627.85	117.03
628.00	39.79
628.15	44.47
628.30	51.49
628.45	70.22
628.60	77.24
628.76	11.70
628.91	0.00
629.06	9.36
629.21	65.54
629.36	28.09
629.51	124.05
629.66	91.28
629.81	70.22
629.96	35.11
630.11	77.24
630.26	16.38
630.41	86.60
630.56	72.56
630.71	102.98
630.86	72.56
631.01	18.72
631.16	91.28
631.31	44.47
631.46	28.09
631.61	81.92
631.76	119.37
631.91	32.77
632.06	0.00
632.21	79.58
632.36	25.75
632.51	46.81
632.66	107.66
632.81	56.17
632.96	18.72
633.10	70.22
633.25	81.92
633.40	135.75
633.55	21.06
633.70	107.66
633.85	39.79
634.00	4.68
634.15	0.00
634.30	70.22
634.45	88.94
634.60	102.98
634.75	173.20
634.90	63.19
635.05	84.26
635.19	18.72
635.34	30.43
635.49	60.85
635.64	0.00
635.79	135.75
635.94	35.11
636.09	79.58
636.24	49.15
636.39	63.19
636.53	23.41
636.68	37.45
636.83	102.98
636.98	23.41
637.13	51.49
637.28	81.92
637.43	30.43
637.57	84.26
637.72	46.81
637.87	39.79
638.02	88.94
638.17	51.49
638.32	53.83
638.46	65.54
638.61	124.05
638.76	81.92
638.91	18.72
639.06	0.00
639.20	0.00
639.35	105.32
639.50	30.43
639.65	131.07
639.80	58.51
639.94	4.68
640.09	145.11
640.24	46.81
640.39	25.75
640.54	74.90
640.68	77.24
640.83	14.04
640.98	42.13
641.13	49.15
641.27	46.81
641.42	77.24
641.57	102.98
641.72	53.83
641.86	21.06
642.01	95.96
642.16	81.92
642.31	84.26
642.45	42.13
642.60	65.54
642.75	32.77
642.90	42.13
643.04	58.51
643.19	4.68
643.34	56.17
643.48	114.69
643.63	93.62
643.78	42.13
643.93	93.62
644.07	65.54
644.22	93.62
644.37	112.35
644.51	138.09
644.66	42.13
644.81	28.09
644.95	7.02
645.10	79.58
645.25	65.54
645.39	140.43
645.54	107.66
645.69	117.03
645.83	35.11
645.98	46.81
646.13	107.66
646.27	32.77
646.42	42.13
646.57	35.11
646.71	98.30
646.86	131.07
647.00	21.06
647.15	86.60
647.30	0.00
647.44	35.11
647.59	105.32
647.74	16.38
647.88	32.77
648.03	16.38
648.17	74.90
648.32	0.00
648.47	44.47
648.61	56.17
648.76	16.38
648.90	11.70
649.05	0.00
649.20	58.51
649.34	39.79
649.49	35.11
649.63	16.38
649.78	46.81
649.92	35.11
650.07	49.15
650.21	60.85
650.36	112.35
650.51	81.92
650.65	16.38
650.80	28.09
650.94	23.41
651.09	32.77
651.23	32.77
651.38	140.43
651.52	21.06
651.67	49.15
651.81	93.62
651.96	105.32
652.10	65.54
652.25	49.15
652.39	23.41
652.54	93.62
652.68	60.85
652.83	51.49
652.97	46.81
653.12	72.56
653.26	42.13
653.41	49.15
653.55	65.54
653.70	81.92
653.84	67.88
653.99	21.06
654.13	49.15
654.27	39.79
654.42	4.68
654.56	39.79
654.71	7.02
654.85	0.00
655.00	35.11
655.14	18.72
655.29	79.58
655.43	25.75
655.57	79.58
655.72	42.13
655.86	56.17
656.01	0.00
656.15	51.49
656.30	70.22
656.44	105.32
656.58	58.51
656.73	63.19
656.87	0.00
657.01	46.81
657.16	131.07
657.30	30.43
657.45	23.41
657.59	18.72
657.73	49.15
657.88	102.98
658.02	105.32
658.16	23.41
658.31	60.85
658.45	16.38
658.60	0.00
658.74	60.85
658.88	105.32
659.03	60.85
659.17	58.51
659.31	18.72
659.46	102.98
659.60	58.51
659.74	42.13
659.89	0.00
660.03	18.72
660.17	9.36
660.32	30.43
660.46	100.64
660.60	51.49
660.74	28.09
660.89	72.56
661.03	0.00
661.17	65.54
661.32	53.83
661.46	16.38
661.60	65.54
661.74	65.54
661.89	95.96
662.03	16.38
662.17	79.58
662.31	95.96
662.46	18.72
662.60	21.06
662.74	56.17
662.88	77.24
663.03	102.98
663.17	84.26
663.31	74.90
663.45	88.94
663.60	58.51
663.74	28.09
663.88	4.68
664.02	65.54
664.17	0.00
664.31	0.00
664.45	53.83
664.59	53.83
664.73	58.51
664.88	81.92
665.02	53.83
665.16	84.26
665.30	72.56
665.44	0.00
665.59	23.41
665.73	91.28
665.87	60.85
666.01	37.45
666.15	35.11
666.29	46.81
666.44	0.00
666.58	53.83
666.72	86.60
666.86	49.15
667.00	84.26
667.14	63.19
667.28	56.17
667.43	51.49
667.57	114.69
667.71	98.30
667.85	53.83
667.99	131.07
668.13	81.92
668.27	100.64
668.41	58.51
668.56	63.19
668.70	42.13
668.84	21.06
668.98	23.41
669.12	21.06
669.26	28.09
669.40	88.94
669.54	9.36
669.68	95.96
669.82	30.43
669.96	72.56
670.10	0.00
670.25	18.72
670.39	0.00
670.53	67.88
670.67	91.28
670.81	117.03
670.95	25.75
671.09	60.85
671.23	72.56
671.37	65.54
671.51	86.60
671.65	53.83
671.79	56.17
671.93	58.51
672.07	74.90
672.21	42.13
672.35	145.11
672.49	44.47
672.63	49.15
672.77	74.90
672.91	51.49
673.05	0.00
673.19	4.68
673.33	102.98
673.47	18.72
673.61	100.64
673.75	21.06
673.89	21.06
674.03	84.26
674.17	42.13
674.31	18.72
674.45	2.34
674.59	74.90
674.73	65.54
674.87	46.81
675.01	23.41
675.15	56.17
675.29	46.81
675.43	72.56
675.56	58.51
675.70	56.17
675.84	105.32
675.98	100.64
676.12	39.79
676.26	44.47
676.40	77.24
676.54	51.49
676.68	65.54
676.82	9.36
676.96	107.66
677.10	39.79
677.23	79.58
677.37	74.90
677.51	49.15
677.65	107.66
677.79	79.58
677.93	42.13
678.07	0.00
678.21	79.58
678.34	70.22
678.48	21.06
678.62	86.60
678.76	72.56
678.90	81.92
679.04	14.04
679.18	86.60
679.31	65.54
679.45	86.60
679.59	56.17
679.73	49.15
679.87	32.77
680.00	14.04
680.14	18.72
680.28	88.94
680.42	16.38
680.56	49.15
680.70	58.51
680.83	16.38
680.97	49.15
681.11	9.36
681.25	11.70
681.39	18.72
681.52	30.43
681.66	35.11
681.80	39.79
681.94	65.54
682.07	42.13
682.21	4.68
682.35	86.60
682.49	49.15
682.62	0.00
682.76	30.43
682.90	100.64
683.04	30.43
683.17	39.79
683.31	70.22
683.45	14.04
683.59	0.00
683.72	0.00
683.86	42.13
684.00	98.30
684.13	77.24
684.27	2.34
684.41	79.58
684.55	32.77
684.68	58.51
684.82	9.36
684.96	72.56
685.09	14.04
685.23	65.54
685.37	56.17
685.50	9.36
685.64	49.15
685.78	51.49
685.91	35.11
686.05	28.09
686.19	67.88
686.32	23.41
686.46	49.15
686.60	44.47
686.73	77.24
686.87	39.79
687.01	2.34
687.14	72.56
687.28	0.00
687.42	28.09
687.55	44.47
687.69	9.36
687.82	0.00
687.96	84.26
688.10	86.60
688.23	7.02
688.37	39.79
688.50	63.19
688.64	53.83
688.78	37.45
688.91	93.62
689.05	42.13
689.18	42.13
689.32	11.70
689.46	14.04
689.59	23.41
689.73	72.56
689.86	16.38
690.00	30.43
690.13	49.15
690.27	25.75
690.41	58.51
690.54	4.68
690.68	60.85
690.81	53.83
690.95	124.05
691.08	0.00
691.22	16.38
691.35	9.36
691.49	58.51
691.62	11.70
691.76	37.45
691.89	25.75
692.03	0.00
692.16	42.13
692.30	35.11
692.43	84.26
692.57	0.00
692.70	42.13
692.84	65.54
692.97	0.00
693.11	124.05
693.24	0.00
693.38	42.13
693.51	23.41
693.65	0.00
693.78	25.75
693.92	21.06
694.05	39.79
694.19	28.09
694.32	0.00
694.45	0.00
694.59	0.00
694.72	0.00
694.86	46.81
694.99	0.00
695.13	37.45
695.26	102.98
695.39	67.88
695.53	0.00
695.66	60.85
695.80	28.09
695.93	0.00
696.07	42.13
696.20	58.51
696.33	114.69
696.47	39.79
696.60	0.00
696.73	84.26
696.87	7.02
697.00	35.11
697.14	65.54
697.27	4.68
697.40	84.26
697.54	65.54
697.67	39.79
697.80	117.03
697.94	2.34
698.07	18.72
698.21	0.00
698.34	9.36
698.47	117.03
698.61	39.79
698.74	23.41
698.87	63.19
699.01	4.68
699.14	4.68
699.27	35.11
699.40	14.04
699.54	121.71
699.67	4.68
699.80	9.36
699.94	11.70
700.07	23.41
700.20	0.00
700.34	28.09
700.47	102.98
700.60	114.69
700.73	30.43
700.87	91.28
701.00	9.36
701.13	42.13
701.26	100.64
701.40	53.83
701.53	28.09
701.66	74.90
701.79	0.00
701.93	16.38
702.06	0.00
702.19	9.36
702.32	44.47
702.46	14.04
702.59	30.43
702.72	84.26
702.85	35.11
702.99	21.06
703.12	32.77
703.25	16.38
703.38	4.68
703.51	63.19
703.65	44.47
703.78	30.43
703.91	67.88
704.04	16.38
704.17	16.38
704.31	37.45
704.44	37.45
704.57	65.54
704.70	9.36
704.83	16.38
704.96	44.47
705.10	11.70
705.23	4.68
>>>>>End Processed Spectral Data<<<<<
