SpectraSuite Data File
++++++++++++++++++++++++++++++++++++
Date: Fri Oct 04 12:13:41 GMT-05:00 2013
User: price-jones
Dark Spectrum Present: No
Reference Spectrum Present: No
Number of Sampled Component Spectra: 1
Spectrometers: USB2+H05261
Integration Time (usec): 10000 (USB2+H05261)
Spectra Averaged: 1 (USB2+H05261)
Boxcar Smoothing: 0 (USB2+H05261)
Correct for Electrical Dark: No (USB2+H05261)
Strobe/Lamp Enabled: No (USB2+H05261)
Correct for Detector Non-linearity: No (USB2+H05261)
Correct for Stray Light: No (USB2+H05261)
Number of Pixels in Processed Spectrum: 2048
>>>>>Begin Processed Spectral Data<<<<<
365.73	0.00
365.92	0.00
366.12	0.00
366.32	0.00
366.52	0.00
366.72	0.00
366.91	0.00
367.11	0.00
367.31	0.00
367.51	0.00
367.70	0.00
367.90	0.00
368.10	0.00
368.30	0.00
368.49	0.00
368.69	0.00
368.89	0.00
369.09	0.00
369.28	0.00
369.48	0.00
369.68	0.00
369.87	0.00
370.07	0.00
370.27	0.00
370.47	0.00
370.66	0.00
370.86	0.00
371.06	0.00
371.25	0.00
371.45	0.00
371.65	0.00
371.84	16.38
372.04	0.00
372.24	32.77
372.44	51.49
372.63	0.00
372.83	0.00
373.03	18.72
373.22	39.79
373.42	0.00
373.62	42.13
373.81	4.68
374.01	0.00
374.21	58.51
374.40	63.19
374.60	21.06
374.79	35.11
374.99	18.72
375.19	86.60
375.38	37.45
375.58	102.98
375.78	32.77
375.97	70.22
376.17	32.77
376.37	0.00
376.56	21.06
376.76	25.75
376.95	18.72
377.15	0.00
377.35	72.56
377.54	0.00
377.74	30.43
377.93	32.77
378.13	0.00
378.33	25.75
378.52	56.17
378.72	74.90
378.91	0.00
379.11	0.00
379.31	46.81
379.50	35.11
379.70	49.15
379.89	30.43
380.09	0.00
380.28	0.00
380.48	0.00
380.68	0.00
380.87	51.49
381.07	72.56
381.26	14.04
381.46	51.49
381.65	65.54
381.85	70.22
382.04	14.04
382.24	0.00
382.43	28.09
382.63	2.34
382.83	117.03
383.02	0.00
383.22	0.00
383.41	0.00
383.61	0.00
383.80	9.36
384.00	46.81
384.19	4.68
384.39	100.64
384.58	0.00
384.78	42.13
384.97	0.00
385.17	0.00
385.36	30.43
385.56	49.15
385.75	0.00
385.95	0.00
386.14	7.02
386.34	0.00
386.53	51.49
386.72	46.81
386.92	0.00
387.11	16.38
387.31	0.00
387.50	14.04
387.70	0.00
387.89	56.17
388.09	65.54
388.28	0.00
388.48	0.00
388.67	18.72
388.86	4.68
389.06	28.09
389.25	0.00
389.45	11.70
389.64	0.00
389.84	23.41
390.03	0.00
390.22	30.43
390.42	0.00
390.61	23.41
390.81	51.49
391.00	63.19
391.19	42.13
391.39	0.00
391.58	91.28
391.78	0.00
391.97	0.00
392.16	2.34
392.36	4.68
392.55	16.38
392.75	53.83
392.94	0.00
393.13	0.00
393.33	32.77
393.52	49.15
393.71	39.79
393.91	0.00
394.10	25.75
394.29	9.36
394.49	39.79
394.68	0.00
394.88	35.11
395.07	46.81
395.26	16.38
395.46	72.56
395.65	67.88
395.84	72.56
396.04	98.30
396.23	70.22
396.42	0.00
396.62	7.02
396.81	0.00
397.00	9.36
397.19	49.15
397.39	44.47
397.58	35.11
397.77	60.85
397.97	0.00
398.16	60.85
398.35	0.00
398.55	0.00
398.74	42.13
398.93	7.02
399.12	70.22
399.32	105.32
399.51	70.22
399.70	42.13
399.90	0.00
400.09	35.11
400.28	42.13
400.47	70.22
400.67	28.09
400.86	0.00
401.05	30.43
401.24	0.00
401.44	39.79
401.63	65.54
401.82	65.54
402.01	0.00
402.21	56.17
402.40	63.19
402.59	28.09
402.78	4.68
402.97	4.68
403.17	18.72
403.36	35.11
403.55	0.00
403.74	25.75
403.93	11.70
404.13	98.30
404.32	37.45
404.51	86.60
404.70	35.11
404.89	0.00
405.09	51.49
405.28	0.00
405.47	16.38
405.66	21.06
405.85	60.85
406.05	100.64
406.24	79.58
406.43	84.26
406.62	39.79
406.81	7.02
407.00	0.00
407.20	56.17
407.39	51.49
407.58	37.45
407.77	53.83
407.96	23.41
408.15	95.96
408.34	0.00
408.54	60.85
408.73	37.45
408.92	65.54
409.11	2.34
409.30	119.37
409.49	11.70
409.68	49.15
409.87	0.00
410.07	72.56
410.26	18.72
410.45	16.38
410.64	0.00
410.83	46.81
411.02	53.83
411.21	56.17
411.40	67.88
411.59	60.85
411.78	0.00
411.98	0.00
412.17	0.00
412.36	91.28
412.55	28.09
412.74	88.94
412.93	23.41
413.12	65.54
413.31	25.75
413.50	0.00
413.69	14.04
413.88	86.60
414.07	32.77
414.26	16.38
414.45	0.00
414.64	51.49
414.83	70.22
415.02	79.58
415.22	63.19
415.41	44.47
415.60	58.51
415.79	58.51
415.98	0.00
416.17	30.43
416.36	44.47
416.55	51.49
416.74	44.47
416.93	51.49
417.12	0.00
417.31	30.43
417.50	63.19
417.69	14.04
417.88	16.38
418.07	37.45
418.26	65.54
418.45	39.79
418.64	42.13
418.83	9.36
419.02	32.77
419.21	37.45
419.39	9.36
419.58	67.88
419.77	58.51
419.96	51.49
420.15	23.41
420.34	105.32
420.53	126.39
420.72	53.83
420.91	32.77
421.10	72.56
421.29	0.00
421.48	39.79
421.67	67.88
421.86	105.32
422.05	37.45
422.24	35.11
422.43	39.79
422.61	16.38
422.80	0.00
422.99	63.19
423.18	0.00
423.37	14.04
423.56	16.38
423.75	86.60
423.94	16.38
424.13	53.83
424.32	18.72
424.50	114.69
424.69	65.54
424.88	56.17
425.07	51.49
425.26	39.79
425.45	56.17
425.64	70.22
425.83	44.47
426.01	44.47
426.20	18.72
426.39	49.15
426.58	2.34
426.77	4.68
426.96	58.51
427.15	91.28
427.33	25.75
427.52	32.77
427.71	63.19
427.90	7.02
428.09	44.47
428.28	18.72
428.46	0.00
428.65	79.58
428.84	0.00
429.03	74.90
429.22	0.00
429.40	16.38
429.59	121.71
429.78	4.68
429.97	11.70
430.16	65.54
430.34	44.47
430.53	77.24
430.72	0.00
430.91	39.79
431.10	77.24
431.28	42.13
431.47	72.56
431.66	110.01
431.85	37.45
432.03	11.70
432.22	67.88
432.41	79.58
432.60	65.54
432.79	4.68
432.97	0.00
433.16	37.45
433.35	16.38
433.54	74.90
433.72	11.70
433.91	110.01
434.10	42.13
434.28	79.58
434.47	44.47
434.66	124.05
434.85	65.54
435.03	86.60
435.22	79.58
435.41	53.83
435.59	81.92
435.78	46.81
435.97	84.26
436.16	88.94
436.34	16.38
436.53	102.98
436.72	0.00
436.90	63.19
437.09	42.13
437.28	14.04
437.46	84.26
437.65	44.47
437.84	72.56
438.02	25.75
438.21	0.00
438.40	84.26
438.58	77.24
438.77	0.00
438.96	79.58
439.14	65.54
439.33	91.28
439.52	11.70
439.70	0.00
439.89	0.00
440.08	0.00
440.26	0.00
440.45	23.41
440.63	46.81
440.82	74.90
441.01	79.58
441.19	2.34
441.38	79.58
441.57	84.26
441.75	65.54
441.94	56.17
442.12	95.96
442.31	65.54
442.50	102.98
442.68	70.22
442.87	11.70
443.05	58.51
443.24	81.92
443.43	74.90
443.61	35.11
443.80	91.28
443.98	44.47
444.17	102.98
444.35	28.09
444.54	67.88
444.73	88.94
444.91	53.83
445.10	42.13
445.28	46.81
445.47	35.11
445.65	44.47
445.84	42.13
446.02	105.32
446.21	60.85
446.39	35.11
446.58	23.41
446.77	63.19
446.95	0.00
447.14	77.24
447.32	98.30
447.51	72.56
447.69	65.54
447.88	74.90
448.06	0.00
448.25	37.45
448.43	84.26
448.62	21.06
448.80	105.32
448.99	49.15
449.17	88.94
449.36	74.90
449.54	110.01
449.73	56.17
449.91	0.00
450.10	23.41
450.28	42.13
450.46	9.36
450.65	154.48
450.83	126.39
451.02	9.36
451.20	0.00
451.39	4.68
451.57	39.79
451.76	0.00
451.94	9.36
452.13	81.92
452.31	63.19
452.49	49.15
452.68	117.03
452.86	25.75
453.05	28.09
453.23	0.00
453.42	9.36
453.60	14.04
453.78	14.04
453.97	0.00
454.15	30.43
454.34	25.75
454.52	42.13
454.70	49.15
454.89	93.62
455.07	4.68
455.26	39.79
455.44	159.16
455.62	32.77
455.81	39.79
455.99	58.51
456.17	32.77
456.36	44.47
456.54	100.64
456.73	51.49
456.91	84.26
457.09	32.77
457.28	88.94
457.46	18.72
457.64	74.90
457.83	0.00
458.01	67.88
458.19	95.96
458.38	95.96
458.56	79.58
458.74	58.51
458.93	35.11
459.11	98.30
459.29	30.43
459.48	37.45
459.66	126.39
459.84	105.32
460.03	46.81
460.21	42.13
460.39	0.00
460.57	79.58
460.76	93.62
460.94	9.36
461.12	35.11
461.31	21.06
461.49	119.37
461.67	79.58
461.85	74.90
462.04	42.13
462.22	72.56
462.40	49.15
462.59	32.77
462.77	35.11
462.95	102.98
463.13	44.47
463.32	16.38
463.50	30.43
463.68	18.72
463.86	58.51
464.05	32.77
464.23	81.92
464.41	65.54
464.59	37.45
464.78	11.70
464.96	58.51
465.14	37.45
465.32	44.47
465.50	74.90
465.69	44.47
465.87	63.19
466.05	0.00
466.23	79.58
466.41	105.32
466.60	18.72
466.78	21.06
466.96	114.69
467.14	35.11
467.32	39.79
467.51	65.54
467.69	88.94
467.87	77.24
468.05	39.79
468.23	49.15
468.41	39.79
468.60	56.17
468.78	81.92
468.96	63.19
469.14	58.51
469.32	65.54
469.50	23.41
469.69	105.32
469.87	32.77
470.05	42.13
470.23	44.47
470.41	84.26
470.59	56.17
470.77	74.90
470.95	30.43
471.14	86.60
471.32	35.11
471.50	51.49
471.68	70.22
471.86	70.22
472.04	0.00
472.22	131.07
472.40	77.24
472.58	18.72
472.77	49.15
472.95	0.00
473.13	46.81
473.31	39.79
473.49	74.90
473.67	0.00
473.85	35.11
474.03	67.88
474.21	21.06
474.39	56.17
474.57	18.72
474.75	37.45
474.93	42.13
475.12	93.62
475.30	14.04
475.48	74.90
475.66	107.66
475.84	98.30
476.02	107.66
476.20	0.00
476.38	53.83
476.56	37.45
476.74	28.09
476.92	102.98
477.10	60.85
477.28	37.45
477.46	65.54
477.64	63.19
477.82	81.92
478.00	16.38
478.18	35.11
478.36	28.09
478.54	81.92
478.72	35.11
478.90	60.85
479.08	32.77
479.26	53.83
479.44	0.00
479.62	72.56
479.80	39.79
479.98	58.51
480.16	25.75
480.34	35.11
480.52	0.00
480.70	140.43
480.88	93.62
481.06	42.13
481.24	95.96
481.41	74.90
481.59	102.98
481.77	23.41
481.95	93.62
482.13	46.81
482.31	170.86
482.49	65.54
482.67	93.62
482.85	60.85
483.03	65.54
483.21	42.13
483.39	79.58
483.57	95.96
483.74	60.85
483.92	93.62
484.10	65.54
484.28	65.54
484.46	30.43
484.64	60.85
484.82	14.04
485.00	0.00
485.18	28.09
485.35	32.77
485.53	49.15
485.71	39.79
485.89	79.58
486.07	53.83
486.25	51.49
486.43	0.00
486.61	142.77
486.78	105.32
486.96	88.94
487.14	65.54
487.32	53.83
487.50	63.19
487.68	63.19
487.85	39.79
488.03	39.79
488.21	95.96
488.39	51.49
488.57	30.43
488.75	77.24
488.92	128.73
489.10	28.09
489.28	39.79
489.46	44.47
489.64	107.66
489.81	65.54
489.99	30.43
490.17	121.71
490.35	81.92
490.53	35.11
490.70	135.75
490.88	72.56
491.06	28.09
491.24	147.45
491.41	72.56
491.59	60.85
491.77	30.43
491.95	46.81
492.13	9.36
492.30	79.58
492.48	65.54
492.66	25.75
492.84	35.11
493.01	86.60
493.19	131.07
493.37	11.70
493.54	105.32
493.72	121.71
493.90	117.03
494.08	4.68
494.25	65.54
494.43	117.03
494.61	121.71
494.79	0.00
494.96	53.83
495.14	105.32
495.32	131.07
495.49	107.66
495.67	131.07
495.85	105.32
496.02	42.13
496.20	60.85
496.38	58.51
496.55	39.79
496.73	105.32
496.91	42.13
497.09	84.26
497.26	63.19
497.44	35.11
497.62	86.60
497.79	100.64
497.97	142.77
498.14	49.15
498.32	39.79
498.50	112.35
498.67	114.69
498.85	135.75
499.03	51.49
499.20	95.96
499.38	182.56
499.56	51.49
499.73	60.85
499.91	18.72
500.08	35.11
500.26	86.60
500.44	25.75
500.61	70.22
500.79	77.24
500.97	53.83
501.14	46.81
501.32	86.60
501.49	98.30
501.67	46.81
501.84	107.66
502.02	135.75
502.20	149.79
502.37	93.62
502.55	95.96
502.72	60.85
502.90	93.62
503.07	9.36
503.25	110.01
503.43	14.04
503.60	11.70
503.78	60.85
503.95	128.73
504.13	25.75
504.30	72.56
504.48	79.58
504.65	21.06
504.83	98.30
505.01	102.98
505.18	128.73
505.36	58.51
505.53	121.71
505.71	51.49
505.88	138.09
506.06	35.11
506.23	91.28
506.41	39.79
506.58	72.56
506.76	65.54
506.93	77.24
507.11	42.13
507.28	142.77
507.46	74.90
507.63	112.35
507.81	86.60
507.98	35.11
508.16	42.13
508.33	100.64
508.50	133.41
508.68	60.85
508.85	131.07
509.03	49.15
509.20	95.96
509.38	95.96
509.55	32.77
509.73	42.13
509.90	126.39
510.08	32.77
510.25	119.37
510.42	107.66
510.60	93.62
510.77	126.39
510.95	117.03
511.12	37.45
511.30	112.35
511.47	140.43
511.64	37.45
511.82	93.62
511.99	53.83
512.17	121.71
512.34	44.47
512.51	84.26
512.69	60.85
512.86	88.94
513.04	79.58
513.21	35.11
513.38	72.56
513.56	39.79
513.73	124.05
513.90	23.41
514.08	79.58
514.25	191.92
514.43	63.19
514.60	32.77
514.77	63.19
514.95	79.58
515.12	114.69
515.29	58.51
515.47	126.39
515.64	35.11
515.81	63.19
515.99	147.45
516.16	37.45
516.33	58.51
516.51	142.77
516.68	46.81
516.85	35.11
517.03	53.83
517.20	46.81
517.37	2.34
517.54	39.79
517.72	42.13
517.89	58.51
518.06	49.15
518.24	51.49
518.41	77.24
518.58	86.60
518.75	16.38
518.93	42.13
519.10	131.07
519.27	56.17
519.45	107.66
519.62	102.98
519.79	86.60
519.96	110.01
520.14	88.94
520.31	11.70
520.48	9.36
520.65	30.43
520.83	72.56
521.00	58.51
521.17	51.49
521.34	98.30
521.52	49.15
521.69	105.32
521.86	51.49
522.03	114.69
522.20	102.98
522.38	117.03
522.55	77.24
522.72	95.96
522.89	91.28
523.07	105.32
523.24	51.49
523.41	79.58
523.58	51.49
523.75	131.07
523.92	79.58
524.10	51.49
524.27	74.90
524.44	35.11
524.61	56.17
524.78	95.96
524.96	42.13
525.13	135.75
525.30	102.98
525.47	14.04
525.64	81.92
525.81	117.03
525.98	56.17
526.16	9.36
526.33	70.22
526.50	32.77
526.67	110.01
526.84	88.94
527.01	67.88
527.18	88.94
527.36	67.88
527.53	84.26
527.70	77.24
527.87	159.16
528.04	114.69
528.21	65.54
528.38	65.54
528.55	14.04
528.72	63.19
528.89	112.35
529.07	100.64
529.24	32.77
529.41	7.02
529.58	86.60
529.75	67.88
529.92	63.19
530.09	86.60
530.26	81.92
530.43	58.51
530.60	60.85
530.77	124.05
530.94	114.69
531.11	91.28
531.28	107.66
531.46	86.60
531.63	65.54
531.80	70.22
531.97	95.96
532.14	84.26
532.31	117.03
532.48	98.30
532.65	0.00
532.82	49.15
532.99	168.52
533.16	86.60
533.33	7.02
533.50	42.13
533.67	142.77
533.84	102.98
534.01	154.48
534.18	30.43
534.35	14.04
534.52	140.43
534.69	126.39
534.86	102.98
535.03	39.79
535.20	149.79
535.37	128.73
535.54	30.43
535.71	70.22
535.88	135.75
536.05	201.29
536.22	84.26
536.38	95.96
536.55	140.43
536.72	60.85
536.89	135.75
537.06	86.60
537.23	145.11
537.40	39.79
537.57	28.09
537.74	110.01
537.91	124.05
538.08	16.38
538.25	98.30
538.42	88.94
538.59	74.90
538.75	128.73
538.92	117.03
539.09	154.48
539.26	53.83
539.43	119.37
539.60	53.83
539.77	117.03
539.94	74.90
540.11	140.43
540.28	117.03
540.44	138.09
540.61	121.71
540.78	128.73
540.95	79.58
541.12	102.98
541.29	67.88
541.46	107.66
541.62	110.01
541.79	51.49
541.96	98.30
542.13	86.60
542.30	51.49
542.47	124.05
542.63	58.51
542.80	110.01
542.97	72.56
543.14	84.26
543.31	23.41
543.48	70.22
543.64	95.96
543.81	70.22
543.98	56.17
544.15	32.77
544.32	74.90
544.48	63.19
544.65	117.03
544.82	72.56
544.99	100.64
545.16	72.56
545.32	49.15
545.49	65.54
545.66	100.64
545.83	133.41
546.00	77.24
546.16	81.92
546.33	84.26
546.50	98.30
546.67	107.66
546.83	140.43
547.00	149.79
547.17	39.79
547.34	107.66
547.50	32.77
547.67	84.26
547.84	63.19
548.00	119.37
548.17	79.58
548.34	63.19
548.51	117.03
548.67	114.69
548.84	56.17
549.01	88.94
549.18	46.81
549.34	98.30
549.51	135.75
549.68	88.94
549.84	86.60
550.01	51.49
550.18	32.77
550.34	135.75
550.51	135.75
550.68	149.79
550.84	142.77
551.01	49.15
551.18	46.81
551.34	51.49
551.51	140.43
551.68	72.56
551.84	58.51
552.01	74.90
552.18	138.09
552.34	135.75
552.51	81.92
552.68	121.71
552.84	77.24
553.01	70.22
553.18	88.94
553.34	0.00
553.51	128.73
553.67	49.15
553.84	145.11
554.01	102.98
554.17	121.71
554.34	18.72
554.51	102.98
554.67	91.28
554.84	35.11
555.00	7.02
555.17	135.75
555.33	81.92
555.50	128.73
555.67	67.88
555.83	39.79
556.00	91.28
556.16	140.43
556.33	39.79
556.50	67.88
556.66	147.45
556.83	63.19
556.99	74.90
557.16	65.54
557.32	60.85
557.49	53.83
557.65	72.56
557.82	152.13
557.98	84.26
558.15	0.00
558.32	100.64
558.48	93.62
558.65	53.83
558.81	7.02
558.98	42.13
559.14	53.83
559.31	49.15
559.47	28.09
559.64	58.51
559.80	112.35
559.97	100.64
560.13	93.62
560.30	53.83
560.46	110.01
560.63	58.51
560.79	184.90
560.96	93.62
561.12	131.07
561.29	131.07
561.45	119.37
561.61	124.05
561.78	131.07
561.94	44.47
562.11	77.24
562.27	98.30
562.44	124.05
562.60	56.17
562.77	147.45
562.93	88.94
563.10	128.73
563.26	37.45
563.42	58.51
563.59	140.43
563.75	67.88
563.92	86.60
564.08	53.83
564.24	114.69
564.41	79.58
564.57	121.71
564.74	39.79
564.90	70.22
565.07	88.94
565.23	91.28
565.39	140.43
565.56	147.45
565.72	117.03
565.88	126.39
566.05	11.70
566.21	53.83
566.38	67.88
566.54	67.88
566.70	44.47
566.87	81.92
567.03	126.39
567.19	117.03
567.36	51.49
567.52	81.92
567.68	72.56
567.85	117.03
568.01	56.17
568.17	117.03
568.34	112.35
568.50	86.60
568.66	49.15
568.83	67.88
568.99	53.83
569.15	53.83
569.32	107.66
569.48	53.83
569.64	42.13
569.81	91.28
569.97	100.64
570.13	145.11
570.30	53.83
570.46	93.62
570.62	126.39
570.78	152.13
570.95	63.19
571.11	67.88
571.27	60.85
571.43	72.56
571.60	121.71
571.76	93.62
571.92	42.13
572.09	11.70
572.25	37.45
572.41	72.56
572.57	58.51
572.74	81.92
572.90	42.13
573.06	93.62
573.22	100.64
573.38	56.17
573.55	46.81
573.71	35.11
573.87	112.35
574.03	44.47
574.20	37.45
574.36	49.15
574.52	58.51
574.68	70.22
574.84	100.64
575.01	72.56
575.17	93.62
575.33	4.68
575.49	117.03
575.65	72.56
575.82	112.35
575.98	60.85
576.14	102.98
576.30	44.47
576.46	53.83
576.62	0.00
576.79	77.24
576.95	133.41
577.11	58.51
577.27	58.51
577.43	95.96
577.59	84.26
577.75	63.19
577.92	77.24
578.08	107.66
578.24	79.58
578.40	46.81
578.56	86.60
578.72	9.36
578.88	77.24
579.04	65.54
579.21	18.72
579.37	32.77
579.53	51.49
579.69	124.05
579.85	39.79
580.01	95.96
580.17	107.66
580.33	53.83
580.49	65.54
580.65	60.85
580.82	46.81
580.98	138.09
581.14	70.22
581.30	58.51
581.46	60.85
581.62	86.60
581.78	35.11
581.94	81.92
582.10	105.32
582.26	32.77
582.42	114.69
582.58	79.58
582.74	65.54
582.90	88.94
583.06	44.47
583.22	70.22
583.38	95.96
583.54	86.60
583.70	110.01
583.86	25.75
584.02	126.39
584.18	65.54
584.34	35.11
584.50	46.81
584.66	126.39
584.82	84.26
584.98	100.64
585.14	35.11
585.30	72.56
585.46	79.58
585.62	51.49
585.78	4.68
585.94	88.94
586.10	77.24
586.26	44.47
586.42	72.56
586.58	100.64
586.74	95.96
586.90	79.58
587.06	37.45
587.22	37.45
587.38	135.75
587.54	121.71
587.70	135.75
587.86	58.51
588.02	145.11
588.18	51.49
588.34	4.68
588.49	117.03
588.65	81.92
588.81	60.85
588.97	60.85
589.13	39.79
589.29	44.47
589.45	77.24
589.61	37.45
589.77	18.72
589.93	107.66
590.08	91.28
590.24	105.32
590.40	86.60
590.56	49.15
590.72	28.09
590.88	63.19
591.04	21.06
591.20	4.68
591.35	84.26
591.51	51.49
591.67	84.26
591.83	35.11
591.99	67.88
592.15	95.96
592.31	42.13
592.46	74.90
592.62	121.71
592.78	60.85
592.94	56.17
593.10	102.98
593.26	112.35
593.41	58.51
593.57	112.35
593.73	72.56
593.89	70.22
594.05	0.00
594.20	112.35
594.36	32.77
594.52	21.06
594.68	0.00
594.84	65.54
594.99	53.83
595.15	28.09
595.31	0.00
595.47	107.66
595.62	37.45
595.78	107.66
595.94	32.77
596.10	0.00
596.25	110.01
596.41	72.56
596.57	70.22
596.73	53.83
596.88	168.52
597.04	126.39
597.20	49.15
597.36	63.19
597.51	67.88
597.67	60.85
597.83	72.56
597.99	70.22
598.14	63.19
598.30	79.58
598.46	100.64
598.61	135.75
598.77	74.90
598.93	37.45
599.09	88.94
599.24	37.45
599.40	93.62
599.56	39.79
599.71	65.54
599.87	37.45
600.03	154.48
600.18	121.71
600.34	91.28
600.50	105.32
600.65	70.22
600.81	114.69
600.97	161.50
601.12	58.51
601.28	107.66
601.44	124.05
601.59	14.04
601.75	23.41
601.91	91.28
602.06	91.28
602.22	14.04
602.37	58.51
602.53	91.28
602.69	114.69
602.84	98.30
603.00	11.70
603.16	51.49
603.31	74.90
603.47	39.79
603.62	2.34
603.78	28.09
603.94	98.30
604.09	74.90
604.25	145.11
604.40	102.98
604.56	77.24
604.71	58.51
604.87	51.49
605.03	135.75
605.18	51.49
605.34	4.68
605.49	37.45
605.65	65.54
605.80	81.92
605.96	88.94
606.12	18.72
606.27	56.17
606.43	16.38
606.58	77.24
606.74	46.81
606.89	93.62
607.05	107.66
607.20	107.66
607.36	77.24
607.51	81.92
607.67	72.56
607.82	46.81
607.98	110.01
608.13	46.81
608.29	98.30
608.44	74.90
608.60	32.77
608.75	112.35
608.91	84.26
609.06	67.88
609.22	63.19
609.37	39.79
609.53	86.60
609.68	35.11
609.84	74.90
609.99	81.92
610.15	51.49
610.30	117.03
610.46	60.85
610.61	91.28
610.76	70.22
610.92	30.43
611.07	98.30
611.23	133.41
611.38	107.66
611.54	79.58
611.69	53.83
611.84	25.75
612.00	58.51
612.15	79.58
612.31	70.22
612.46	58.51
612.62	18.72
612.77	51.49
612.92	126.39
613.08	46.81
613.23	124.05
613.39	70.22
613.54	93.62
613.69	100.64
613.85	112.35
614.00	39.79
614.15	9.36
614.31	23.41
614.46	74.90
614.62	119.37
614.77	39.79
614.92	49.15
615.08	114.69
615.23	91.28
615.38	117.03
615.54	30.43
615.69	142.77
615.84	98.30
616.00	74.90
616.15	105.32
616.30	91.28
616.46	74.90
616.61	84.26
616.76	30.43
616.92	91.28
617.07	88.94
617.22	105.32
617.37	53.83
617.53	95.96
617.68	72.56
617.83	42.13
617.99	100.64
618.14	105.32
618.29	9.36
618.45	67.88
618.60	102.98
618.75	70.22
618.90	79.58
619.06	42.13
619.21	70.22
619.36	42.13
619.51	56.17
619.67	53.83
619.82	91.28
619.97	142.77
620.12	107.66
620.28	51.49
620.43	70.22
620.58	117.03
620.73	74.90
620.89	63.19
621.04	65.54
621.19	77.24
621.34	14.04
621.49	42.13
621.65	37.45
621.80	28.09
621.95	21.06
622.10	42.13
622.25	49.15
622.41	44.47
622.56	142.77
622.71	53.83
622.86	91.28
623.01	74.90
623.16	42.13
623.32	0.00
623.47	142.77
623.62	86.60
623.77	42.13
623.92	102.98
624.07	86.60
624.23	110.01
624.38	126.39
624.53	39.79
624.68	9.36
624.83	117.03
624.98	86.60
625.13	16.38
625.29	121.71
625.44	65.54
625.59	21.06
625.74	88.94
625.89	51.49
626.04	51.49
626.19	42.13
626.34	39.79
626.49	49.15
626.65	0.00
626.80	16.38
626.95	72.56
627.10	86.60
627.25	65.54
627.40	53.83
627.55	67.88
627.70	79.58
627.85	74.90
628.00	30.43
628.15	7.02
628.30	126.39
628.45	126.39
628.60	23.41
628.76	0.00
628.91	105.32
629.06	16.38
629.21	30.43
629.36	72.56
629.51	9.36
629.66	114.69
629.81	53.83
629.96	100.64
630.11	86.60
630.26	107.66
630.41	65.54
630.56	53.83
630.71	28.09
630.86	23.41
631.01	49.15
631.16	32.77
631.31	0.00
631.46	88.94
631.61	65.54
631.76	42.13
631.91	72.56
632.06	65.54
632.21	28.09
632.36	65.54
632.51	51.49
632.66	51.49
632.81	30.43
632.96	42.13
633.10	14.04
633.25	91.28
633.40	53.83
633.55	7.02
633.70	142.77
633.85	0.00
634.00	32.77
634.15	105.32
634.30	18.72
634.45	4.68
634.60	28.09
634.75	0.00
634.90	32.77
635.05	16.38
635.19	121.71
635.34	105.32
635.49	81.92
635.64	95.96
635.79	98.30
635.94	86.60
636.09	98.30
636.24	93.62
636.39	63.19
636.53	0.00
636.68	21.06
636.83	56.17
636.98	58.51
637.13	81.92
637.28	53.83
637.43	107.66
637.57	49.15
637.72	114.69
637.87	11.70
638.02	46.81
638.17	81.92
638.32	0.00
638.46	86.60
638.61	105.32
638.76	60.85
638.91	110.01
639.06	58.51
639.20	100.64
639.35	107.66
639.50	9.36
639.65	49.15
639.80	88.94
639.94	91.28
640.09	95.96
640.24	84.26
640.39	112.35
640.54	58.51
640.68	0.00
640.83	86.60
640.98	72.56
641.13	98.30
641.27	46.81
641.42	56.17
641.57	0.00
641.72	70.22
641.86	46.81
642.01	93.62
642.16	84.26
642.31	84.26
642.45	100.64
642.60	81.92
642.75	88.94
642.90	56.17
643.04	98.30
643.19	21.06
643.34	121.71
643.48	56.17
643.63	44.47
643.78	46.81
643.93	42.13
644.07	58.51
644.22	72.56
644.37	44.47
644.51	63.19
644.66	77.24
644.81	7.02
644.95	23.41
645.10	56.17
645.25	124.05
645.39	117.03
645.54	93.62
645.69	60.85
645.83	35.11
645.98	112.35
646.13	117.03
646.27	0.00
646.42	67.88
646.57	56.17
646.71	32.77
646.86	18.72
647.00	0.00
647.15	23.41
647.30	25.75
647.44	4.68
647.59	102.98
647.74	0.00
647.88	42.13
648.03	18.72
648.17	0.00
648.32	95.96
648.47	28.09
648.61	67.88
648.76	100.64
648.90	23.41
649.05	53.83
649.20	58.51
649.34	51.49
649.49	11.70
649.63	72.56
649.78	51.49
649.92	32.77
650.07	23.41
650.21	86.60
650.36	56.17
650.51	25.75
650.65	86.60
650.80	9.36
650.94	49.15
651.09	95.96
651.23	51.49
651.38	37.45
651.52	0.00
651.67	46.81
651.81	37.45
651.96	37.45
652.10	67.88
652.25	72.56
652.39	32.77
652.54	46.81
652.68	74.90
652.83	7.02
652.97	107.66
653.12	79.58
653.26	86.60
653.41	112.35
653.55	23.41
653.70	79.58
653.84	63.19
653.99	60.85
654.13	81.92
654.27	0.00
654.42	4.68
654.56	70.22
654.71	126.39
654.85	67.88
655.00	81.92
655.14	16.38
655.29	70.22
655.43	28.09
655.57	9.36
655.72	39.79
655.86	14.04
656.01	70.22
656.15	39.79
656.30	60.85
656.44	28.09
656.58	46.81
656.73	56.17
656.87	0.00
657.01	21.06
657.16	30.43
657.30	51.49
657.45	65.54
657.59	53.83
657.73	88.94
657.88	28.09
658.02	35.11
658.16	46.81
658.31	159.16
658.45	70.22
658.60	65.54
658.74	9.36
658.88	79.58
659.03	63.19
659.17	23.41
659.31	56.17
659.46	60.85
659.60	58.51
659.74	0.00
659.89	70.22
660.03	42.13
660.17	53.83
660.32	32.77
660.46	77.24
660.60	0.00
660.74	114.69
660.89	72.56
661.03	124.05
661.17	117.03
661.32	77.24
661.46	0.00
661.60	7.02
661.74	35.11
661.89	100.64
662.03	63.19
662.17	77.24
662.31	77.24
662.46	67.88
662.60	88.94
662.74	70.22
662.88	18.72
663.03	67.88
663.17	39.79
663.31	51.49
663.45	60.85
663.60	28.09
663.74	9.36
663.88	0.00
664.02	32.77
664.17	65.54
664.31	58.51
664.45	67.88
664.59	56.17
664.73	126.39
664.88	39.79
665.02	70.22
665.16	56.17
665.30	100.64
665.44	14.04
665.59	56.17
665.73	30.43
665.87	93.62
666.01	53.83
666.15	72.56
666.29	77.24
666.44	77.24
666.58	0.00
666.72	42.13
666.86	67.88
667.00	53.83
667.14	86.60
667.28	79.58
667.43	63.19
667.57	16.38
667.71	46.81
667.85	35.11
667.99	98.30
668.13	0.00
668.27	0.00
668.41	0.00
668.56	23.41
668.70	105.32
668.84	91.28
668.98	0.00
669.12	11.70
669.26	28.09
669.40	0.00
669.54	44.47
669.68	39.79
669.82	7.02
669.96	70.22
670.10	0.00
670.25	58.51
670.39	56.17
670.53	60.85
670.67	0.00
670.81	79.58
670.95	79.58
671.09	79.58
671.23	58.51
671.37	63.19
671.51	0.00
671.65	84.26
671.79	77.24
671.93	100.64
672.07	49.15
672.21	58.51
672.35	16.38
672.49	16.38
672.63	149.79
672.77	56.17
672.91	56.17
673.05	77.24
673.19	100.64
673.33	23.41
673.47	88.94
673.61	0.00
673.75	65.54
673.89	23.41
674.03	0.00
674.17	63.19
674.31	14.04
674.45	56.17
674.59	49.15
674.73	100.64
674.87	84.26
675.01	46.81
675.15	81.92
675.29	0.00
675.43	51.49
675.56	77.24
675.70	119.37
675.84	30.43
675.98	37.45
676.12	65.54
676.26	170.86
676.40	93.62
676.54	63.19
676.68	56.17
676.82	18.72
676.96	21.06
677.10	81.92
677.23	100.64
677.37	112.35
677.51	53.83
677.65	28.09
677.79	39.79
677.93	86.60
678.07	63.19
678.21	23.41
678.34	28.09
678.48	51.49
678.62	44.47
678.76	65.54
678.90	35.11
679.04	32.77
679.18	14.04
679.31	37.45
679.45	37.45
679.59	105.32
679.73	25.75
679.87	9.36
680.00	93.62
680.14	46.81
680.28	0.00
680.42	56.17
680.56	95.96
680.70	0.00
680.83	46.81
680.97	0.00
681.11	18.72
681.25	37.45
681.39	35.11
681.52	74.90
681.66	14.04
681.80	18.72
681.94	0.00
682.07	128.73
682.21	2.34
682.35	60.85
682.49	84.26
682.62	32.77
682.76	79.58
682.90	60.85
683.04	91.28
683.17	42.13
683.31	0.00
683.45	88.94
683.59	67.88
683.72	67.88
683.86	72.56
684.00	121.71
684.13	25.75
684.27	110.01
684.41	18.72
684.55	142.77
684.68	84.26
684.82	0.00
684.96	88.94
685.09	126.39
685.23	18.72
685.37	91.28
685.50	51.49
685.64	81.92
685.78	0.00
685.91	37.45
686.05	67.88
686.19	0.00
686.32	35.11
686.46	51.49
686.60	46.81
686.73	51.49
686.87	86.60
687.01	30.43
687.14	51.49
687.28	77.24
687.42	53.83
687.55	46.81
687.69	0.00
687.82	39.79
687.96	0.00
688.10	0.00
688.23	95.96
688.37	37.45
688.50	81.92
688.64	77.24
688.78	25.75
688.91	0.00
689.05	32.77
689.18	51.49
689.32	39.79
689.46	72.56
689.59	30.43
689.73	95.96
689.86	9.36
690.00	100.64
690.13	56.17
690.27	35.11
690.41	72.56
690.54	21.06
690.68	74.90
690.81	56.17
690.95	128.73
691.08	74.90
691.22	0.00
691.35	42.13
691.49	65.54
691.62	60.85
691.76	35.11
691.89	42.13
692.03	32.77
692.16	56.17
692.30	37.45
692.43	4.68
692.57	0.00
692.70	0.00
692.84	30.43
692.97	53.83
693.11	63.19
693.24	0.00
693.38	39.79
693.51	46.81
693.65	21.06
693.78	46.81
693.92	14.04
694.05	2.34
694.19	60.85
694.32	46.81
694.45	11.70
694.59	30.43
694.72	42.13
694.86	44.47
694.99	44.47
695.13	74.90
695.26	21.06
695.39	39.79
695.53	63.19
695.66	98.30
695.80	0.00
695.93	86.60
696.07	37.45
696.20	37.45
696.33	77.24
696.47	46.81
696.60	77.24
696.73	30.43
696.87	58.51
697.00	23.41
697.14	4.68
697.27	39.79
697.40	56.17
697.54	0.00
697.67	4.68
697.80	65.54
697.94	60.85
698.07	2.34
698.21	117.03
698.34	0.00
698.47	23.41
698.61	81.92
698.74	70.22
698.87	35.11
699.01	37.45
699.14	0.00
699.27	67.88
699.40	74.90
699.54	0.00
699.67	4.68
699.80	0.00
699.94	16.38
700.07	74.90
700.20	35.11
700.34	46.81
700.47	0.00
700.60	70.22
700.73	100.64
700.87	63.19
701.00	0.00
701.13	0.00
701.26	39.79
701.40	25.75
701.53	65.54
701.66	9.36
701.79	56.17
701.93	53.83
702.06	53.83
702.19	0.00
702.32	16.38
702.46	23.41
702.59	0.00
702.72	44.47
702.85	0.00
702.99	0.00
703.12	58.51
703.25	102.98
703.38	79.58
703.51	25.75
703.65	21.06
703.78	32.77
703.91	11.70
704.04	0.00
704.17	0.00
704.31	0.00
704.44	0.00
704.57	49.15
704.70	49.15
704.83	58.51
704.96	11.70
705.10	0.00
705.23	100.64
>>>>>End Processed Spectral Data<<<<<
