SpectraSuite Data File
++++++++++++++++++++++++++++++++++++
Date: Fri Oct 04 12:13:38 GMT-05:00 2013
User: price-jones
Dark Spectrum Present: No
Reference Spectrum Present: No
Number of Sampled Component Spectra: 1
Spectrometers: USB2+H05261
Integration Time (usec): 10000 (USB2+H05261)
Spectra Averaged: 1 (USB2+H05261)
Boxcar Smoothing: 0 (USB2+H05261)
Correct for Electrical Dark: No (USB2+H05261)
Strobe/Lamp Enabled: No (USB2+H05261)
Correct for Detector Non-linearity: No (USB2+H05261)
Correct for Stray Light: No (USB2+H05261)
Number of Pixels in Processed Spectrum: 2048
>>>>>Begin Processed Spectral Data<<<<<
365.73	39.79
365.92	39.79
366.12	39.79
366.32	0.00
366.52	0.00
366.72	0.00
366.91	0.00
367.11	0.00
367.31	0.00
367.51	0.00
367.70	0.00
367.90	0.00
368.10	0.00
368.30	0.00
368.49	0.00
368.69	0.00
368.89	0.00
369.09	0.00
369.28	0.00
369.48	0.00
369.68	0.00
369.87	0.00
370.07	0.00
370.27	0.00
370.47	0.00
370.66	0.00
370.86	0.00
371.06	0.00
371.25	0.00
371.45	0.00
371.65	16.38
371.84	0.00
372.04	81.92
372.24	0.00
372.44	32.77
372.63	42.13
372.83	30.43
373.03	42.13
373.22	28.09
373.42	39.79
373.62	9.36
373.81	46.81
374.01	0.00
374.21	7.02
374.40	63.19
374.60	39.79
374.79	0.00
374.99	25.75
375.19	0.00
375.38	7.02
375.58	0.00
375.78	7.02
375.97	9.36
376.17	0.00
376.37	9.36
376.56	74.90
376.76	7.02
376.95	72.56
377.15	30.43
377.35	0.00
377.54	11.70
377.74	2.34
377.93	65.54
378.13	67.88
378.33	28.09
378.52	91.28
378.72	25.75
378.91	0.00
379.11	0.00
379.31	35.11
379.50	0.00
379.70	63.19
379.89	0.00
380.09	21.06
380.28	21.06
380.48	60.85
380.68	44.47
380.87	0.00
381.07	39.79
381.26	0.00
381.46	9.36
381.65	18.72
381.85	32.77
382.04	100.64
382.24	0.00
382.43	0.00
382.63	16.38
382.83	4.68
383.02	0.00
383.22	0.00
383.41	0.00
383.61	0.00
383.80	16.38
384.00	23.41
384.19	0.00
384.39	39.79
384.58	35.11
384.78	0.00
384.97	0.00
385.17	11.70
385.36	0.00
385.56	14.04
385.75	16.38
385.95	28.09
386.14	46.81
386.34	21.06
386.53	0.00
386.72	39.79
386.92	0.00
387.11	0.00
387.31	56.17
387.50	37.45
387.70	91.28
387.89	4.68
388.09	39.79
388.28	81.92
388.48	18.72
388.67	0.00
388.86	0.00
389.06	53.83
389.25	11.70
389.45	21.06
389.64	60.85
389.84	25.75
390.03	77.24
390.22	42.13
390.42	23.41
390.61	28.09
390.81	0.00
391.00	46.81
391.19	0.00
391.39	30.43
391.58	49.15
391.78	70.22
391.97	42.13
392.16	9.36
392.36	16.38
392.55	0.00
392.75	35.11
392.94	4.68
393.13	63.19
393.33	39.79
393.52	23.41
393.71	93.62
393.91	128.73
394.10	84.26
394.29	0.00
394.49	88.94
394.68	107.66
394.88	70.22
395.07	28.09
395.26	56.17
395.46	44.47
395.65	9.36
395.84	70.22
396.04	14.04
396.23	32.77
396.42	0.00
396.62	46.81
396.81	25.75
397.00	84.26
397.19	44.47
397.39	4.68
397.58	30.43
397.77	32.77
397.97	21.06
398.16	23.41
398.35	0.00
398.55	32.77
398.74	39.79
398.93	70.22
399.12	0.00
399.32	0.00
399.51	70.22
399.70	42.13
399.90	9.36
400.09	72.56
400.28	0.00
400.47	37.45
400.67	37.45
400.86	44.47
401.05	72.56
401.24	2.34
401.44	77.24
401.63	37.45
401.82	105.32
402.01	37.45
402.21	30.43
402.40	44.47
402.59	16.38
402.78	16.38
402.97	0.00
403.17	0.00
403.36	35.11
403.55	23.41
403.74	35.11
403.93	30.43
404.13	23.41
404.32	30.43
404.51	65.54
404.70	58.51
404.89	0.00
405.09	67.88
405.28	30.43
405.47	0.00
405.66	0.00
405.85	7.02
406.05	67.88
406.24	0.00
406.43	42.13
406.62	16.38
406.81	49.15
407.00	30.43
407.20	56.17
407.39	79.58
407.58	60.85
407.77	84.26
407.96	4.68
408.15	46.81
408.34	72.56
408.54	32.77
408.73	7.02
408.92	0.00
409.11	60.85
409.30	0.00
409.49	14.04
409.68	60.85
409.87	28.09
410.07	98.30
410.26	86.60
410.45	70.22
410.64	32.77
410.83	0.00
411.02	30.43
411.21	42.13
411.40	46.81
411.59	53.83
411.78	81.92
411.98	25.75
412.17	18.72
412.36	32.77
412.55	131.07
412.74	23.41
412.93	32.77
413.12	0.00
413.31	86.60
413.50	0.00
413.69	37.45
413.88	25.75
414.07	42.13
414.26	77.24
414.45	4.68
414.64	51.49
414.83	65.54
415.02	9.36
415.22	16.38
415.41	0.00
415.60	67.88
415.79	23.41
415.98	63.19
416.17	28.09
416.36	105.32
416.55	14.04
416.74	53.83
416.93	65.54
417.12	11.70
417.31	44.47
417.50	53.83
417.69	72.56
417.88	0.00
418.07	32.77
418.26	18.72
418.45	51.49
418.64	77.24
418.83	2.34
419.02	100.64
419.21	79.58
419.39	0.00
419.58	37.45
419.77	86.60
419.96	70.22
420.15	42.13
420.34	51.49
420.53	14.04
420.72	0.00
420.91	0.00
421.10	2.34
421.29	67.88
421.48	91.28
421.67	21.06
421.86	88.94
422.05	23.41
422.24	14.04
422.43	102.98
422.61	44.47
422.80	49.15
422.99	84.26
423.18	114.69
423.37	23.41
423.56	0.00
423.75	23.41
423.94	70.22
424.13	53.83
424.32	37.45
424.50	107.66
424.69	30.43
424.88	74.90
425.07	4.68
425.26	11.70
425.45	42.13
425.64	42.13
425.83	60.85
426.01	67.88
426.20	0.00
426.39	11.70
426.58	49.15
426.77	23.41
426.96	42.13
427.15	0.00
427.33	35.11
427.52	23.41
427.71	37.45
427.90	86.60
428.09	51.49
428.28	28.09
428.46	63.19
428.65	28.09
428.84	60.85
429.03	65.54
429.22	11.70
429.40	4.68
429.59	9.36
429.78	51.49
429.97	60.85
430.16	98.30
430.34	74.90
430.53	0.00
430.72	7.02
430.91	32.77
431.10	117.03
431.28	70.22
431.47	37.45
431.66	84.26
431.85	67.88
432.03	56.17
432.22	56.17
432.41	42.13
432.60	56.17
432.79	72.56
432.97	56.17
433.16	11.70
433.35	84.26
433.54	70.22
433.72	37.45
433.91	86.60
434.10	56.17
434.28	79.58
434.47	93.62
434.66	35.11
434.85	91.28
435.03	98.30
435.22	56.17
435.41	56.17
435.59	25.75
435.78	39.79
435.97	88.94
436.16	102.98
436.34	60.85
436.53	0.00
436.72	100.64
436.90	28.09
437.09	56.17
437.28	65.54
437.46	49.15
437.65	0.00
437.84	117.03
438.02	0.00
438.21	67.88
438.40	23.41
438.58	35.11
438.77	84.26
438.96	77.24
439.14	67.88
439.33	74.90
439.52	25.75
439.70	117.03
439.89	67.88
440.08	21.06
440.26	9.36
440.45	44.47
440.63	44.47
440.82	11.70
441.01	0.00
441.19	49.15
441.38	0.00
441.57	51.49
441.75	105.32
441.94	0.00
442.12	11.70
442.31	53.83
442.50	91.28
442.68	72.56
442.87	28.09
443.05	72.56
443.24	42.13
443.43	67.88
443.61	44.47
443.80	44.47
443.98	0.00
444.17	0.00
444.35	11.70
444.54	77.24
444.73	72.56
444.91	53.83
445.10	128.73
445.28	51.49
445.47	30.43
445.65	53.83
445.84	77.24
446.02	53.83
446.21	88.94
446.39	74.90
446.58	56.17
446.77	135.75
446.95	74.90
447.14	46.81
447.32	72.56
447.51	30.43
447.69	28.09
447.88	72.56
448.06	42.13
448.25	9.36
448.43	63.19
448.62	51.49
448.80	95.96
448.99	42.13
449.17	133.41
449.36	98.30
449.54	28.09
449.73	95.96
449.91	72.56
450.10	100.64
450.28	30.43
450.46	74.90
450.65	56.17
450.83	37.45
451.02	14.04
451.20	86.60
451.39	4.68
451.57	44.47
451.76	0.00
451.94	35.11
452.13	30.43
452.31	63.19
452.49	98.30
452.68	117.03
452.86	100.64
453.05	0.00
453.23	42.13
453.42	119.37
453.60	63.19
453.78	67.88
453.97	156.82
454.15	18.72
454.34	95.96
454.52	16.38
454.70	60.85
454.89	37.45
455.07	30.43
455.26	39.79
455.44	56.17
455.62	4.68
455.81	0.00
455.99	44.47
456.17	124.05
456.36	58.51
456.54	2.34
456.73	63.19
456.91	4.68
457.09	4.68
457.28	37.45
457.46	49.15
457.64	72.56
457.83	114.69
458.01	67.88
458.19	4.68
458.38	56.17
458.56	39.79
458.74	39.79
458.93	95.96
459.11	2.34
459.29	124.05
459.48	105.32
459.66	51.49
459.84	70.22
460.03	70.22
460.21	28.09
460.39	95.96
460.57	67.88
460.76	112.35
460.94	91.28
461.12	60.85
461.31	58.51
461.49	60.85
461.67	18.72
461.85	35.11
462.04	72.56
462.22	124.05
462.40	0.00
462.59	86.60
462.77	63.19
462.95	98.30
463.13	177.88
463.32	4.68
463.50	35.11
463.68	51.49
463.86	72.56
464.05	28.09
464.23	124.05
464.41	152.13
464.59	117.03
464.78	44.47
464.96	84.26
465.14	79.58
465.32	67.88
465.50	23.41
465.69	14.04
465.87	0.00
466.05	35.11
466.23	126.39
466.41	0.00
466.60	44.47
466.78	32.77
466.96	84.26
467.14	74.90
467.32	86.60
467.51	30.43
467.69	0.00
467.87	11.70
468.05	42.13
468.23	46.81
468.41	21.06
468.60	102.98
468.78	0.00
468.96	21.06
469.14	32.77
469.32	25.75
469.50	56.17
469.69	81.92
469.87	25.75
470.05	0.00
470.23	84.26
470.41	74.90
470.59	32.77
470.77	44.47
470.95	88.94
471.14	53.83
471.32	72.56
471.50	25.75
471.68	100.64
471.86	32.77
472.04	81.92
472.22	11.70
472.40	86.60
472.58	51.49
472.77	7.02
472.95	58.51
473.13	30.43
473.31	21.06
473.49	0.00
473.67	16.38
473.85	39.79
474.03	42.13
474.21	67.88
474.39	0.00
474.57	4.68
474.75	18.72
474.93	16.38
475.12	63.19
475.30	2.34
475.48	30.43
475.66	65.54
475.84	72.56
476.02	74.90
476.20	65.54
476.38	14.04
476.56	23.41
476.74	42.13
476.92	25.75
477.10	60.85
477.28	7.02
477.46	28.09
477.64	88.94
477.82	46.81
478.00	35.11
478.18	93.62
478.36	0.00
478.54	112.35
478.72	51.49
478.90	81.92
479.08	121.71
479.26	81.92
479.44	72.56
479.62	53.83
479.80	79.58
479.98	60.85
480.16	46.81
480.34	86.60
480.52	46.81
480.70	49.15
480.88	0.00
481.06	72.56
481.24	67.88
481.41	105.32
481.59	18.72
481.77	30.43
481.95	95.96
482.13	112.35
482.31	81.92
482.49	16.38
482.67	86.60
482.85	79.58
483.03	128.73
483.21	39.79
483.39	60.85
483.57	121.71
483.74	91.28
483.92	0.00
484.10	133.41
484.28	74.90
484.46	159.16
484.64	112.35
484.82	138.09
485.00	124.05
485.18	72.56
485.35	63.19
485.53	117.03
485.71	60.85
485.89	65.54
486.07	72.56
486.25	100.64
486.43	95.96
486.61	28.09
486.78	67.88
486.96	98.30
487.14	72.56
487.32	23.41
487.50	124.05
487.68	32.77
487.85	42.13
488.03	7.02
488.21	65.54
488.39	56.17
488.57	105.32
488.75	42.13
488.92	124.05
489.10	46.81
489.28	67.88
489.46	42.13
489.64	65.54
489.81	74.90
489.99	72.56
490.17	79.58
490.35	46.81
490.53	112.35
490.70	102.98
490.88	56.17
491.06	42.13
491.24	74.90
491.41	60.85
491.59	74.90
491.77	53.83
491.95	88.94
492.13	67.88
492.30	9.36
492.48	84.26
492.66	74.90
492.84	100.64
493.01	23.41
493.19	67.88
493.37	81.92
493.54	112.35
493.72	42.13
493.90	46.81
494.08	16.38
494.25	44.47
494.43	53.83
494.61	49.15
494.79	114.69
494.96	23.41
495.14	86.60
495.32	107.66
495.49	7.02
495.67	53.83
495.85	39.79
496.02	79.58
496.20	49.15
496.38	98.30
496.55	58.51
496.73	107.66
496.91	53.83
497.09	77.24
497.26	70.22
497.44	84.26
497.62	84.26
497.79	74.90
497.97	16.38
498.14	67.88
498.32	14.04
498.50	23.41
498.67	100.64
498.85	140.43
499.03	63.19
499.20	74.90
499.38	74.90
499.56	93.62
499.73	126.39
499.91	86.60
500.08	53.83
500.26	74.90
500.44	81.92
500.61	25.75
500.79	56.17
500.97	149.79
501.14	119.37
501.32	88.94
501.49	114.69
501.67	138.09
501.84	72.56
502.02	159.16
502.20	72.56
502.37	138.09
502.55	81.92
502.72	95.96
502.90	60.85
503.07	131.07
503.25	70.22
503.43	112.35
503.60	11.70
503.78	128.73
503.95	91.28
504.13	63.19
504.30	102.98
504.48	25.75
504.65	35.11
504.83	0.00
505.01	100.64
505.18	53.83
505.36	79.58
505.53	107.66
505.71	121.71
505.88	63.19
506.06	70.22
506.23	21.06
506.41	0.00
506.58	49.15
506.76	39.79
506.93	67.88
507.11	51.49
507.28	53.83
507.46	105.32
507.63	74.90
507.81	16.38
507.98	100.64
508.16	112.35
508.33	7.02
508.50	79.58
508.68	114.69
508.85	86.60
509.03	60.85
509.20	72.56
509.38	84.26
509.55	46.81
509.73	131.07
509.90	110.01
510.08	65.54
510.25	110.01
510.42	32.77
510.60	0.00
510.77	81.92
510.95	70.22
511.12	91.28
511.30	74.90
511.47	42.13
511.64	88.94
511.82	100.64
511.99	70.22
512.17	91.28
512.34	21.06
512.51	35.11
512.69	53.83
512.86	110.01
513.04	88.94
513.21	56.17
513.38	149.79
513.56	79.58
513.73	51.49
513.90	72.56
514.08	74.90
514.25	77.24
514.43	32.77
514.60	67.88
514.77	110.01
514.95	84.26
515.12	100.64
515.29	126.39
515.47	81.92
515.64	131.07
515.81	84.26
515.99	32.77
516.16	86.60
516.33	119.37
516.51	37.45
516.68	51.49
516.85	93.62
517.03	138.09
517.20	32.77
517.37	42.13
517.54	74.90
517.72	88.94
517.89	138.09
518.06	107.66
518.24	44.47
518.41	133.41
518.58	70.22
518.75	67.88
518.93	100.64
519.10	84.26
519.27	9.36
519.45	102.98
519.62	86.60
519.79	119.37
519.96	128.73
520.14	88.94
520.31	81.92
520.48	56.17
520.65	81.92
520.83	46.81
521.00	49.15
521.17	67.88
521.34	67.88
521.52	168.52
521.69	65.54
521.86	86.60
522.03	74.90
522.20	46.81
522.38	88.94
522.55	77.24
522.72	39.79
522.89	65.54
523.07	58.51
523.24	14.04
523.41	44.47
523.58	105.32
523.75	98.30
523.92	84.26
524.10	91.28
524.27	0.00
524.44	49.15
524.61	72.56
524.78	110.01
524.96	88.94
525.13	60.85
525.30	131.07
525.47	100.64
525.64	58.51
525.81	49.15
525.98	121.71
526.16	56.17
526.33	86.60
526.50	7.02
526.67	56.17
526.84	105.32
527.01	135.75
527.18	110.01
527.36	56.17
527.53	46.81
527.70	81.92
527.87	39.79
528.04	16.38
528.21	63.19
528.38	126.39
528.55	74.90
528.72	49.15
528.89	72.56
529.07	79.58
529.24	98.30
529.41	110.01
529.58	35.11
529.75	98.30
529.92	53.83
530.09	79.58
530.26	107.66
530.43	138.09
530.60	56.17
530.77	60.85
530.94	74.90
531.11	81.92
531.28	37.45
531.46	74.90
531.63	56.17
531.80	112.35
531.97	25.75
532.14	95.96
532.31	121.71
532.48	95.96
532.65	114.69
532.82	91.28
532.99	95.96
533.16	126.39
533.33	51.49
533.50	65.54
533.67	100.64
533.84	117.03
534.01	117.03
534.18	114.69
534.35	126.39
534.52	77.24
534.69	72.56
534.86	67.88
535.03	86.60
535.20	21.06
535.37	65.54
535.54	67.88
535.71	124.05
535.88	72.56
536.05	100.64
536.22	142.77
536.38	49.15
536.55	67.88
536.72	112.35
536.89	72.56
537.06	126.39
537.23	77.24
537.40	46.81
537.57	100.64
537.74	84.26
537.91	84.26
538.08	44.47
538.25	124.05
538.42	110.01
538.59	166.18
538.75	46.81
538.92	107.66
539.09	81.92
539.26	37.45
539.43	81.92
539.60	93.62
539.77	91.28
539.94	49.15
540.11	128.73
540.28	44.47
540.44	119.37
540.61	131.07
540.78	145.11
540.95	98.30
541.12	70.22
541.29	65.54
541.46	88.94
541.62	46.81
541.79	49.15
541.96	93.62
542.13	91.28
542.30	112.35
542.47	121.71
542.63	156.82
542.80	107.66
542.97	70.22
543.14	25.75
543.31	86.60
543.48	77.24
543.64	145.11
543.81	60.85
543.98	74.90
544.15	72.56
544.32	168.52
544.48	107.66
544.65	28.09
544.82	74.90
544.99	152.13
545.16	110.01
545.32	149.79
545.49	39.79
545.66	194.26
545.83	114.69
546.00	88.94
546.16	32.77
546.33	88.94
546.50	154.48
546.67	131.07
546.83	65.54
547.00	102.98
547.17	98.30
547.34	95.96
547.50	42.13
547.67	98.30
547.84	84.26
548.00	222.35
548.17	126.39
548.34	133.41
548.51	140.43
548.67	79.58
548.84	65.54
549.01	49.15
549.18	74.90
549.34	65.54
549.51	126.39
549.68	44.47
549.84	128.73
550.01	56.17
550.18	81.92
550.34	133.41
550.51	135.75
550.68	46.81
550.84	42.13
551.01	100.64
551.18	117.03
551.34	35.11
551.51	105.32
551.68	81.92
551.84	46.81
552.01	100.64
552.18	133.41
552.34	42.13
552.51	121.71
552.68	11.70
552.84	0.00
553.01	121.71
553.18	49.15
553.34	138.09
553.51	58.51
553.67	16.38
553.84	51.49
554.01	51.49
554.17	121.71
554.34	98.30
554.51	93.62
554.67	145.11
554.84	100.64
555.00	65.54
555.17	32.77
555.33	88.94
555.50	35.11
555.67	51.49
555.83	145.11
556.00	42.13
556.16	44.47
556.33	161.50
556.50	56.17
556.66	72.56
556.83	117.03
556.99	102.98
557.16	28.09
557.32	0.00
557.49	35.11
557.65	86.60
557.82	86.60
557.98	49.15
558.15	65.54
558.32	110.01
558.48	166.18
558.65	121.71
558.81	11.70
558.98	79.58
559.14	77.24
559.31	60.85
559.47	58.51
559.64	0.00
559.80	74.90
559.97	84.26
560.13	63.19
560.30	30.43
560.46	81.92
560.63	98.30
560.79	98.30
560.96	28.09
561.12	49.15
561.29	88.94
561.45	100.64
561.61	28.09
561.78	58.51
561.94	105.32
562.11	112.35
562.27	131.07
562.44	74.90
562.60	86.60
562.77	105.32
562.93	112.35
563.10	121.71
563.26	177.88
563.42	42.13
563.59	149.79
563.75	81.92
563.92	121.71
564.08	58.51
564.24	81.92
564.41	44.47
564.57	65.54
564.74	63.19
564.90	121.71
565.07	79.58
565.23	135.75
565.39	42.13
565.56	147.45
565.72	182.56
565.88	56.17
566.05	84.26
566.21	102.98
566.38	18.72
566.54	74.90
566.70	98.30
566.87	81.92
567.03	112.35
567.19	112.35
567.36	67.88
567.52	67.88
567.68	7.02
567.85	51.49
568.01	95.96
568.17	51.49
568.34	46.81
568.50	39.79
568.66	30.43
568.83	124.05
568.99	67.88
569.15	86.60
569.32	110.01
569.48	98.30
569.64	79.58
569.81	117.03
569.97	44.47
570.13	100.64
570.30	124.05
570.46	156.82
570.62	37.45
570.78	42.13
570.95	72.56
571.11	58.51
571.27	32.77
571.43	46.81
571.60	79.58
571.76	72.56
571.92	86.60
572.09	114.69
572.25	77.24
572.41	67.88
572.57	18.72
572.74	135.75
572.90	102.98
573.06	30.43
573.22	124.05
573.38	112.35
573.55	74.90
573.71	95.96
573.87	86.60
574.03	44.47
574.20	84.26
574.36	0.00
574.52	28.09
574.68	60.85
574.84	84.26
575.01	58.51
575.17	70.22
575.33	84.26
575.49	16.38
575.65	51.49
575.82	100.64
575.98	133.41
576.14	105.32
576.30	128.73
576.46	124.05
576.62	53.83
576.79	86.60
576.95	88.94
577.11	173.20
577.27	42.13
577.43	133.41
577.59	63.19
577.75	95.96
577.92	133.41
578.08	51.49
578.24	58.51
578.40	131.07
578.56	28.09
578.72	67.88
578.88	74.90
579.04	95.96
579.21	7.02
579.37	72.56
579.53	84.26
579.69	88.94
579.85	0.00
580.01	98.30
580.17	7.02
580.33	49.15
580.49	39.79
580.65	49.15
580.82	102.98
580.98	0.00
581.14	37.45
581.30	67.88
581.46	63.19
581.62	51.49
581.78	28.09
581.94	142.77
582.10	107.66
582.26	74.90
582.42	70.22
582.58	39.79
582.74	37.45
582.90	67.88
583.06	30.43
583.22	49.15
583.38	53.83
583.54	58.51
583.70	126.39
583.86	117.03
584.02	60.85
584.18	105.32
584.34	91.28
584.50	100.64
584.66	100.64
584.82	124.05
584.98	46.81
585.14	81.92
585.30	67.88
585.46	77.24
585.62	11.70
585.78	21.06
585.94	88.94
586.10	60.85
586.26	88.94
586.42	74.90
586.58	58.51
586.74	110.01
586.90	70.22
587.06	74.90
587.22	84.26
587.38	77.24
587.54	93.62
587.70	46.81
587.86	161.50
588.02	49.15
588.18	4.68
588.34	0.00
588.49	74.90
588.65	56.17
588.81	81.92
588.97	65.54
589.13	100.64
589.29	72.56
589.45	53.83
589.61	9.36
589.77	112.35
589.93	72.56
590.08	149.79
590.24	88.94
590.40	58.51
590.56	53.83
590.72	86.60
590.88	98.30
591.04	102.98
591.20	84.26
591.35	70.22
591.51	37.45
591.67	51.49
591.83	88.94
591.99	163.84
592.15	35.11
592.31	114.69
592.46	102.98
592.62	23.41
592.78	74.90
592.94	30.43
593.10	28.09
593.26	81.92
593.41	81.92
593.57	70.22
593.73	81.92
593.89	156.82
594.05	39.79
594.20	39.79
594.36	56.17
594.52	65.54
594.68	39.79
594.84	86.60
594.99	81.92
595.15	79.58
595.31	79.58
595.47	74.90
595.62	18.72
595.78	39.79
595.94	63.19
596.10	102.98
596.25	49.15
596.41	117.03
596.57	14.04
596.73	49.15
596.88	65.54
597.04	37.45
597.20	102.98
597.36	81.92
597.51	25.75
597.67	30.43
597.83	100.64
597.99	121.71
598.14	44.47
598.30	63.19
598.46	58.51
598.61	16.38
598.77	18.72
598.93	58.51
599.09	81.92
599.24	21.06
599.40	56.17
599.56	53.83
599.71	117.03
599.87	37.45
600.03	58.51
600.18	145.11
600.34	121.71
600.50	114.69
600.65	65.54
600.81	67.88
600.97	107.66
601.12	58.51
601.28	74.90
601.44	21.06
601.59	121.71
601.75	60.85
601.91	51.49
602.06	51.49
602.22	67.88
602.37	102.98
602.53	102.98
602.69	86.60
602.84	77.24
603.00	53.83
603.16	30.43
603.31	77.24
603.47	56.17
603.62	88.94
603.78	63.19
603.94	39.79
604.09	95.96
604.25	102.98
604.40	107.66
604.56	42.13
604.71	74.90
604.87	88.94
605.03	74.90
605.18	72.56
605.34	95.96
605.49	25.75
605.65	60.85
605.80	35.11
605.96	44.47
606.12	88.94
606.27	21.06
606.43	131.07
606.58	114.69
606.74	46.81
606.89	79.58
607.05	51.49
607.20	74.90
607.36	53.83
607.51	102.98
607.67	18.72
607.82	65.54
607.98	100.64
608.13	39.79
608.29	95.96
608.44	102.98
608.60	56.17
608.75	110.01
608.91	11.70
609.06	56.17
609.22	37.45
609.37	35.11
609.53	53.83
609.68	14.04
609.84	7.02
609.99	0.00
610.15	95.96
610.30	44.47
610.46	65.54
610.61	119.37
610.76	39.79
610.92	86.60
611.07	121.71
611.23	37.45
611.38	72.56
611.54	67.88
611.69	56.17
611.84	63.19
612.00	117.03
612.15	42.13
612.31	93.62
612.46	93.62
612.62	53.83
612.77	46.81
612.92	63.19
613.08	0.00
613.23	77.24
613.39	21.06
613.54	74.90
613.69	77.24
613.85	37.45
614.00	11.70
614.15	37.45
614.31	93.62
614.46	60.85
614.62	67.88
614.77	46.81
614.92	60.85
615.08	121.71
615.23	42.13
615.38	63.19
615.54	30.43
615.69	67.88
615.84	0.00
616.00	53.83
616.15	88.94
616.30	72.56
616.46	112.35
616.61	131.07
616.76	7.02
616.92	65.54
617.07	35.11
617.22	86.60
617.37	91.28
617.53	107.66
617.68	70.22
617.83	58.51
617.99	23.41
618.14	44.47
618.29	81.92
618.45	84.26
618.60	32.77
618.75	28.09
618.90	86.60
619.06	0.00
619.21	105.32
619.36	81.92
619.51	81.92
619.67	0.00
619.82	65.54
619.97	4.68
620.12	60.85
620.28	93.62
620.43	39.79
620.58	25.75
620.73	72.56
620.89	32.77
621.04	133.41
621.19	60.85
621.34	93.62
621.49	49.15
621.65	65.54
621.80	102.98
621.95	53.83
622.10	67.88
622.25	74.90
622.41	95.96
622.56	124.05
622.71	117.03
622.86	60.85
623.01	145.11
623.16	95.96
623.32	42.13
623.47	126.39
623.62	46.81
623.77	84.26
623.92	18.72
624.07	81.92
624.23	79.58
624.38	37.45
624.53	107.66
624.68	9.36
624.83	11.70
624.98	102.98
625.13	81.92
625.29	86.60
625.44	35.11
625.59	74.90
625.74	79.58
625.89	86.60
626.04	42.13
626.19	23.41
626.34	131.07
626.49	53.83
626.65	51.49
626.80	58.51
626.95	84.26
627.10	100.64
627.25	149.79
627.40	60.85
627.55	60.85
627.70	14.04
627.85	86.60
628.00	42.13
628.15	105.32
628.30	28.09
628.45	72.56
628.60	32.77
628.76	9.36
628.91	131.07
629.06	37.45
629.21	49.15
629.36	67.88
629.51	107.66
629.66	91.28
629.81	74.90
629.96	58.51
630.11	46.81
630.26	37.45
630.41	84.26
630.56	4.68
630.71	86.60
630.86	74.90
631.01	72.56
631.16	88.94
631.31	28.09
631.46	46.81
631.61	42.13
631.76	7.02
631.91	42.13
632.06	88.94
632.21	56.17
632.36	100.64
632.51	53.83
632.66	0.00
632.81	0.00
632.96	51.49
633.10	51.49
633.25	112.35
633.40	51.49
633.55	2.34
633.70	28.09
633.85	0.00
634.00	93.62
634.15	60.85
634.30	4.68
634.45	14.04
634.60	0.00
634.75	14.04
634.90	28.09
635.05	60.85
635.19	42.13
635.34	0.00
635.49	9.36
635.64	21.06
635.79	16.38
635.94	88.94
636.09	105.32
636.24	86.60
636.39	25.75
636.53	65.54
636.68	18.72
636.83	95.96
636.98	35.11
637.13	79.58
637.28	14.04
637.43	117.03
637.57	21.06
637.72	86.60
637.87	46.81
638.02	98.30
638.17	21.06
638.32	107.66
638.46	70.22
638.61	74.90
638.76	84.26
638.91	21.06
639.06	105.32
639.20	81.92
639.35	119.37
639.50	63.19
639.65	53.83
639.80	37.45
639.94	124.05
640.09	46.81
640.24	0.00
640.39	79.58
640.54	70.22
640.68	44.47
640.83	37.45
640.98	37.45
641.13	79.58
641.27	35.11
641.42	39.79
641.57	39.79
641.72	37.45
641.86	46.81
642.01	88.94
642.16	9.36
642.31	170.86
642.45	110.01
642.60	105.32
642.75	30.43
642.90	35.11
643.04	51.49
643.19	0.00
643.34	0.00
643.48	56.17
643.63	100.64
643.78	79.58
643.93	18.72
644.07	126.39
644.22	56.17
644.37	0.00
644.51	32.77
644.66	35.11
644.81	4.68
644.95	81.92
645.10	49.15
645.25	16.38
645.39	49.15
645.54	58.51
645.69	49.15
645.83	65.54
645.98	142.77
646.13	21.06
646.27	21.06
646.42	28.09
646.57	53.83
646.71	14.04
646.86	56.17
647.00	49.15
647.15	49.15
647.30	49.15
647.44	166.18
647.59	98.30
647.74	0.00
647.88	112.35
648.03	32.77
648.17	79.58
648.32	32.77
648.47	0.00
648.61	23.41
648.76	145.11
648.90	72.56
649.05	51.49
649.20	98.30
649.34	0.00
649.49	56.17
649.63	58.51
649.78	0.00
649.92	51.49
650.07	70.22
650.21	25.75
650.36	56.17
650.51	35.11
650.65	67.88
650.80	35.11
650.94	42.13
651.09	112.35
651.23	58.51
651.38	21.06
651.52	35.11
651.67	46.81
651.81	21.06
651.96	25.75
652.10	65.54
652.25	18.72
652.39	72.56
652.54	56.17
652.68	21.06
652.83	93.62
652.97	65.54
653.12	42.13
653.26	58.51
653.41	98.30
653.55	100.64
653.70	9.36
653.84	63.19
653.99	32.77
654.13	42.13
654.27	84.26
654.42	58.51
654.56	70.22
654.71	14.04
654.85	0.00
655.00	0.00
655.14	72.56
655.29	102.98
655.43	56.17
655.57	91.28
655.72	121.71
655.86	81.92
656.01	77.24
656.15	72.56
656.30	4.68
656.44	72.56
656.58	0.00
656.73	0.00
656.87	91.28
657.01	46.81
657.16	131.07
657.30	53.83
657.45	65.54
657.59	88.94
657.73	42.13
657.88	126.39
658.02	65.54
658.16	0.00
658.31	88.94
658.45	110.01
658.60	4.68
658.74	35.11
658.88	51.49
659.03	84.26
659.17	107.66
659.31	23.41
659.46	44.47
659.60	32.77
659.74	60.85
659.89	114.69
660.03	88.94
660.17	102.98
660.32	0.00
660.46	35.11
660.60	23.41
660.74	11.70
660.89	11.70
661.03	79.58
661.17	25.75
661.32	14.04
661.46	72.56
661.60	60.85
661.74	58.51
661.89	51.49
662.03	91.28
662.17	112.35
662.31	23.41
662.46	65.54
662.60	56.17
662.74	79.58
662.88	28.09
663.03	23.41
663.17	44.47
663.31	70.22
663.45	58.51
663.60	56.17
663.74	70.22
663.88	51.49
664.02	72.56
664.17	63.19
664.31	77.24
664.45	0.00
664.59	117.03
664.73	70.22
664.88	65.54
665.02	56.17
665.16	60.85
665.30	77.24
665.44	56.17
665.59	39.79
665.73	93.62
665.87	42.13
666.01	53.83
666.15	51.49
666.29	56.17
666.44	70.22
666.58	51.49
666.72	53.83
666.86	93.62
667.00	46.81
667.14	28.09
667.28	0.00
667.43	16.38
667.57	30.43
667.71	74.90
667.85	39.79
667.99	9.36
668.13	56.17
668.27	70.22
668.41	44.47
668.56	42.13
668.70	32.77
668.84	32.77
668.98	32.77
669.12	114.69
669.26	133.41
669.40	37.45
669.54	53.83
669.68	11.70
669.82	0.00
669.96	67.88
670.10	77.24
670.25	84.26
670.39	60.85
670.53	63.19
670.67	74.90
670.81	58.51
670.95	7.02
671.09	18.72
671.23	77.24
671.37	72.56
671.51	53.83
671.65	21.06
671.79	7.02
671.93	77.24
672.07	70.22
672.21	37.45
672.35	30.43
672.49	42.13
672.63	117.03
672.77	79.58
672.91	81.92
673.05	88.94
673.19	46.81
673.33	39.79
673.47	56.17
673.61	35.11
673.75	32.77
673.89	102.98
674.03	91.28
674.17	49.15
674.31	18.72
674.45	37.45
674.59	72.56
674.73	16.38
674.87	18.72
675.01	42.13
675.15	56.17
675.29	7.02
675.43	79.58
675.56	0.00
675.70	28.09
675.84	2.34
675.98	156.82
676.12	42.13
676.26	63.19
676.40	63.19
676.54	117.03
676.68	70.22
676.82	0.00
676.96	58.51
677.10	93.62
677.23	58.51
677.37	37.45
677.51	14.04
677.65	39.79
677.79	53.83
677.93	21.06
678.07	72.56
678.21	117.03
678.34	39.79
678.48	81.92
678.62	0.00
678.76	30.43
678.90	51.49
679.04	63.19
679.18	30.43
679.31	2.34
679.45	18.72
679.59	105.32
679.73	46.81
679.87	65.54
680.00	28.09
680.14	30.43
680.28	51.49
680.42	35.11
680.56	88.94
680.70	65.54
680.83	0.00
680.97	67.88
681.11	95.96
681.25	154.48
681.39	16.38
681.52	51.49
681.66	0.00
681.80	81.92
681.94	14.04
682.07	28.09
682.21	16.38
682.35	0.00
682.49	84.26
682.62	0.00
682.76	39.79
682.90	0.00
683.04	7.02
683.17	32.77
683.31	56.17
683.45	9.36
683.59	72.56
683.72	51.49
683.86	100.64
684.00	102.98
684.13	0.00
684.27	79.58
684.41	4.68
684.55	46.81
684.68	18.72
684.82	28.09
684.96	0.00
685.09	4.68
685.23	81.92
685.37	86.60
685.50	60.85
685.64	117.03
685.78	18.72
685.91	65.54
686.05	63.19
686.19	88.94
686.32	16.38
686.46	0.00
686.60	28.09
686.73	39.79
686.87	44.47
687.01	2.34
687.14	53.83
687.28	46.81
687.42	53.83
687.55	0.00
687.69	112.35
687.82	44.47
687.96	14.04
688.10	49.15
688.23	142.77
688.37	86.60
688.50	67.88
688.64	0.00
688.78	0.00
688.91	16.38
689.05	25.75
689.18	72.56
689.32	32.77
689.46	98.30
689.59	56.17
689.73	72.56
689.86	63.19
690.00	105.32
690.13	58.51
690.27	25.75
690.41	46.81
690.54	128.73
690.68	63.19
690.81	79.58
690.95	0.00
691.08	86.60
691.22	105.32
691.35	30.43
691.49	0.00
691.62	42.13
691.76	121.71
691.89	63.19
692.03	18.72
692.16	53.83
692.30	39.79
692.43	44.47
692.57	51.49
692.70	0.00
692.84	7.02
692.97	0.00
693.11	63.19
693.24	21.06
693.38	32.77
693.51	42.13
693.65	0.00
693.78	63.19
693.92	11.70
694.05	25.75
694.19	28.09
694.32	65.54
694.45	0.00
694.59	88.94
694.72	86.60
694.86	30.43
694.99	49.15
695.13	0.00
695.26	51.49
695.39	35.11
695.53	42.13
695.66	42.13
695.80	121.71
695.93	28.09
696.07	95.96
696.20	51.49
696.33	18.72
696.47	0.00
696.60	4.68
696.73	42.13
696.87	11.70
697.00	56.17
697.14	32.77
697.27	23.41
697.40	77.24
697.54	42.13
697.67	32.77
697.80	65.54
697.94	28.09
698.07	14.04
698.21	70.22
698.34	58.51
698.47	9.36
698.61	42.13
698.74	32.77
698.87	37.45
699.01	93.62
699.14	11.70
699.27	32.77
699.40	56.17
699.54	9.36
699.67	37.45
699.80	23.41
699.94	35.11
700.07	14.04
700.20	0.00
700.34	0.00
700.47	28.09
700.60	0.00
700.73	56.17
700.87	65.54
701.00	25.75
701.13	51.49
701.26	74.90
701.40	30.43
701.53	46.81
701.66	93.62
701.79	95.96
701.93	0.00
702.06	81.92
702.19	35.11
702.32	0.00
702.46	93.62
702.59	79.58
702.72	28.09
702.85	49.15
702.99	77.24
703.12	53.83
703.25	37.45
703.38	18.72
703.51	0.00
703.65	14.04
703.78	81.92
703.91	0.00
704.04	77.24
704.17	32.77
704.31	37.45
704.44	35.11
704.57	32.77
704.70	81.92
704.83	35.11
704.96	49.15
705.10	23.41
705.23	0.00
>>>>>End Processed Spectral Data<<<<<
