SpectraSuite Data File
++++++++++++++++++++++++++++++++++++
Date: Fri Oct 04 12:13:37 GMT-05:00 2013
User: price-jones
Dark Spectrum Present: No
Reference Spectrum Present: No
Number of Sampled Component Spectra: 1
Spectrometers: USB2+H05261
Integration Time (usec): 10000 (USB2+H05261)
Spectra Averaged: 1 (USB2+H05261)
Boxcar Smoothing: 0 (USB2+H05261)
Correct for Electrical Dark: No (USB2+H05261)
Strobe/Lamp Enabled: No (USB2+H05261)
Correct for Detector Non-linearity: No (USB2+H05261)
Correct for Stray Light: No (USB2+H05261)
Number of Pixels in Processed Spectrum: 2048
>>>>>Begin Processed Spectral Data<<<<<
365.73	0.00
365.92	0.00
366.12	0.00
366.32	0.00
366.52	0.00
366.72	0.00
366.91	0.00
367.11	0.00
367.31	0.00
367.51	0.00
367.70	0.00
367.90	0.00
368.10	0.00
368.30	0.00
368.49	0.00
368.69	0.00
368.89	0.00
369.09	0.00
369.28	0.00
369.48	0.00
369.68	0.00
369.87	0.00
370.07	0.00
370.27	0.00
370.47	0.00
370.66	0.00
370.86	0.00
371.06	0.00
371.25	0.00
371.45	28.09
371.65	0.00
371.84	0.00
372.04	0.00
372.24	0.00
372.44	7.02
372.63	11.70
372.83	0.00
373.03	37.45
373.22	0.00
373.42	37.45
373.62	51.49
373.81	58.51
374.01	0.00
374.21	25.75
374.40	16.38
374.60	95.96
374.79	2.34
374.99	2.34
375.19	23.41
375.38	67.88
375.58	0.00
375.78	28.09
375.97	37.45
376.17	28.09
376.37	53.83
376.56	18.72
376.76	37.45
376.95	58.51
377.15	28.09
377.35	0.00
377.54	44.47
377.74	32.77
377.93	0.00
378.13	23.41
378.33	0.00
378.52	14.04
378.72	18.72
378.91	53.83
379.11	49.15
379.31	88.94
379.50	56.17
379.70	49.15
379.89	35.11
380.09	30.43
380.28	0.00
380.48	0.00
380.68	0.00
380.87	86.60
381.07	23.41
381.26	51.49
381.46	23.41
381.65	0.00
381.85	0.00
382.04	0.00
382.24	0.00
382.43	0.00
382.63	37.45
382.83	0.00
383.02	42.13
383.22	0.00
383.41	21.06
383.61	9.36
383.80	63.19
384.00	39.79
384.19	84.26
384.39	32.77
384.58	0.00
384.78	32.77
384.97	0.00
385.17	0.00
385.36	60.85
385.56	0.00
385.75	4.68
385.95	0.00
386.14	98.30
386.34	2.34
386.53	0.00
386.72	65.54
386.92	42.13
387.11	4.68
387.31	32.77
387.50	67.88
387.70	32.77
387.89	91.28
388.09	46.81
388.28	18.72
388.48	72.56
388.67	42.13
388.86	0.00
389.06	79.58
389.25	60.85
389.45	35.11
389.64	28.09
389.84	53.83
390.03	0.00
390.22	21.06
390.42	46.81
390.61	44.47
390.81	4.68
391.00	51.49
391.19	0.00
391.39	44.47
391.58	44.47
391.78	0.00
391.97	0.00
392.16	70.22
392.36	0.00
392.55	0.00
392.75	0.00
392.94	23.41
393.13	0.00
393.33	84.26
393.52	0.00
393.71	49.15
393.91	42.13
394.10	86.60
394.29	2.34
394.49	0.00
394.68	65.54
394.88	119.37
395.07	0.00
395.26	25.75
395.46	9.36
395.65	0.00
395.84	37.45
396.04	79.58
396.23	0.00
396.42	79.58
396.62	67.88
396.81	37.45
397.00	0.00
397.19	14.04
397.39	77.24
397.58	0.00
397.77	0.00
397.97	37.45
398.16	14.04
398.35	65.54
398.55	14.04
398.74	21.06
398.93	37.45
399.12	39.79
399.32	65.54
399.51	58.51
399.70	14.04
399.90	74.90
400.09	46.81
400.28	39.79
400.47	0.00
400.67	32.77
400.86	30.43
401.05	72.56
401.24	42.13
401.44	0.00
401.63	25.75
401.82	18.72
402.01	37.45
402.21	0.00
402.40	0.00
402.59	28.09
402.78	58.51
402.97	0.00
403.17	65.54
403.36	14.04
403.55	25.75
403.74	23.41
403.93	9.36
404.13	16.38
404.32	63.19
404.51	53.83
404.70	30.43
404.89	39.79
405.09	30.43
405.28	32.77
405.47	35.11
405.66	0.00
405.85	0.00
406.05	28.09
406.24	23.41
406.43	114.69
406.62	14.04
406.81	51.49
407.00	70.22
407.20	4.68
407.39	2.34
407.58	56.17
407.77	49.15
407.96	79.58
408.15	35.11
408.34	86.60
408.54	93.62
408.73	0.00
408.92	63.19
409.11	56.17
409.30	39.79
409.49	14.04
409.68	23.41
409.87	23.41
410.07	25.75
410.26	0.00
410.45	0.00
410.64	81.92
410.83	58.51
411.02	30.43
411.21	18.72
411.40	74.90
411.59	25.75
411.78	42.13
411.98	35.11
412.17	4.68
412.36	16.38
412.55	88.94
412.74	0.00
412.93	0.00
413.12	4.68
413.31	25.75
413.50	91.28
413.69	84.26
413.88	14.04
414.07	42.13
414.26	93.62
414.45	77.24
414.64	81.92
414.83	56.17
415.02	70.22
415.22	67.88
415.41	56.17
415.60	11.70
415.79	14.04
415.98	46.81
416.17	56.17
416.36	81.92
416.55	49.15
416.74	4.68
416.93	105.32
417.12	53.83
417.31	0.00
417.50	86.60
417.69	105.32
417.88	63.19
418.07	25.75
418.26	18.72
418.45	46.81
418.64	51.49
418.83	30.43
419.02	0.00
419.21	117.03
419.39	119.37
419.58	9.36
419.77	32.77
419.96	25.75
420.15	32.77
420.34	60.85
420.53	53.83
420.72	93.62
420.91	53.83
421.10	67.88
421.29	18.72
421.48	93.62
421.67	30.43
421.86	105.32
422.05	4.68
422.24	51.49
422.43	28.09
422.61	72.56
422.80	84.26
422.99	58.51
423.18	46.81
423.37	81.92
423.56	4.68
423.75	37.45
423.94	44.47
424.13	74.90
424.32	49.15
424.50	11.70
424.69	0.00
424.88	65.54
425.07	42.13
425.26	28.09
425.45	63.19
425.64	0.00
425.83	58.51
426.01	11.70
426.20	16.38
426.39	0.00
426.58	58.51
426.77	42.13
426.96	28.09
427.15	58.51
427.33	65.54
427.52	114.69
427.71	0.00
427.90	0.00
428.09	0.00
428.28	0.00
428.46	46.81
428.65	16.38
428.84	58.51
429.03	114.69
429.22	117.03
429.40	93.62
429.59	0.00
429.78	51.49
429.97	93.62
430.16	84.26
430.34	56.17
430.53	4.68
430.72	46.81
430.91	46.81
431.10	21.06
431.28	51.49
431.47	32.77
431.66	77.24
431.85	53.83
432.03	121.71
432.22	14.04
432.41	112.35
432.60	60.85
432.79	77.24
432.97	84.26
433.16	14.04
433.35	79.58
433.54	42.13
433.72	86.60
433.91	11.70
434.10	37.45
434.28	28.09
434.47	140.43
434.66	65.54
434.85	0.00
435.03	98.30
435.22	110.01
435.41	98.30
435.59	4.68
435.78	39.79
435.97	53.83
436.16	23.41
436.34	28.09
436.53	49.15
436.72	74.90
436.90	114.69
437.09	35.11
437.28	81.92
437.46	77.24
437.65	11.70
437.84	32.77
438.02	102.98
438.21	51.49
438.40	42.13
438.58	30.43
438.77	25.75
438.96	14.04
439.14	28.09
439.33	25.75
439.52	0.00
439.70	51.49
439.89	37.45
440.08	23.41
440.26	18.72
440.45	119.37
440.63	51.49
440.82	74.90
441.01	16.38
441.19	0.00
441.38	18.72
441.57	42.13
441.75	4.68
441.94	56.17
442.12	39.79
442.31	67.88
442.50	63.19
442.68	28.09
442.87	23.41
443.05	30.43
443.24	42.13
443.43	0.00
443.61	84.26
443.80	28.09
443.98	32.77
444.17	65.54
444.35	98.30
444.54	28.09
444.73	53.83
444.91	25.75
445.10	37.45
445.28	77.24
445.47	25.75
445.65	117.03
445.84	51.49
446.02	16.38
446.21	102.98
446.39	60.85
446.58	74.90
446.77	0.00
446.95	21.06
447.14	88.94
447.32	46.81
447.51	25.75
447.69	30.43
447.88	0.00
448.06	0.00
448.25	28.09
448.43	95.96
448.62	56.17
448.80	0.00
448.99	44.47
449.17	102.98
449.36	65.54
449.54	102.98
449.73	39.79
449.91	30.43
450.10	105.32
450.28	60.85
450.46	84.26
450.65	0.00
450.83	60.85
451.02	70.22
451.20	86.60
451.39	74.90
451.57	49.15
451.76	98.30
451.94	51.49
452.13	63.19
452.31	79.58
452.49	46.81
452.68	58.51
452.86	91.28
453.05	105.32
453.23	18.72
453.42	9.36
453.60	95.96
453.78	42.13
453.97	86.60
454.15	4.68
454.34	53.83
454.52	67.88
454.70	77.24
454.89	72.56
455.07	60.85
455.26	67.88
455.44	131.07
455.62	9.36
455.81	0.00
455.99	67.88
456.17	102.98
456.36	0.00
456.54	74.90
456.73	0.00
456.91	0.00
457.09	18.72
457.28	0.00
457.46	30.43
457.64	46.81
457.83	2.34
458.01	16.38
458.19	58.51
458.38	152.13
458.56	86.60
458.74	63.19
458.93	63.19
459.11	42.13
459.29	84.26
459.48	140.43
459.66	56.17
459.84	30.43
460.03	93.62
460.21	74.90
460.39	21.06
460.57	112.35
460.76	126.39
460.94	56.17
461.12	58.51
461.31	21.06
461.49	21.06
461.67	79.58
461.85	28.09
462.04	30.43
462.22	138.09
462.40	49.15
462.59	0.00
462.77	110.01
462.95	28.09
463.13	30.43
463.32	28.09
463.50	95.96
463.68	21.06
463.86	100.64
464.05	37.45
464.23	42.13
464.41	28.09
464.59	0.00
464.78	39.79
464.96	58.51
465.14	14.04
465.32	28.09
465.50	25.75
465.69	138.09
465.87	67.88
466.05	107.66
466.23	53.83
466.41	7.02
466.60	63.19
466.78	58.51
466.96	28.09
467.14	77.24
467.32	98.30
467.51	0.00
467.69	67.88
467.87	70.22
468.05	16.38
468.23	112.35
468.41	44.47
468.60	35.11
468.78	84.26
468.96	30.43
469.14	95.96
469.32	35.11
469.50	11.70
469.69	98.30
469.87	58.51
470.05	25.75
470.23	126.39
470.41	112.35
470.59	39.79
470.77	28.09
470.95	93.62
471.14	81.92
471.32	35.11
471.50	0.00
471.68	44.47
471.86	56.17
472.04	77.24
472.22	95.96
472.40	84.26
472.58	37.45
472.77	2.34
472.95	46.81
473.13	67.88
473.31	88.94
473.49	30.43
473.67	58.51
473.85	72.56
474.03	51.49
474.21	56.17
474.39	81.92
474.57	133.41
474.75	72.56
474.93	0.00
475.12	117.03
475.30	42.13
475.48	70.22
475.66	114.69
475.84	63.19
476.02	70.22
476.20	7.02
476.38	93.62
476.56	77.24
476.74	100.64
476.92	46.81
477.10	9.36
477.28	35.11
477.46	102.98
477.64	49.15
477.82	37.45
478.00	30.43
478.18	0.00
478.36	0.00
478.54	0.00
478.72	49.15
478.90	42.13
479.08	114.69
479.26	32.77
479.44	79.58
479.62	14.04
479.80	53.83
479.98	42.13
480.16	11.70
480.34	32.77
480.52	42.13
480.70	14.04
480.88	32.77
481.06	0.00
481.24	32.77
481.41	16.38
481.59	67.88
481.77	21.06
481.95	56.17
482.13	100.64
482.31	112.35
482.49	49.15
482.67	117.03
482.85	72.56
483.03	18.72
483.21	93.62
483.39	74.90
483.57	53.83
483.74	81.92
483.92	72.56
484.10	58.51
484.28	79.58
484.46	100.64
484.64	100.64
484.82	70.22
485.00	28.09
485.18	49.15
485.35	77.24
485.53	70.22
485.71	121.71
485.89	58.51
486.07	119.37
486.25	67.88
486.43	28.09
486.61	0.00
486.78	77.24
486.96	2.34
487.14	49.15
487.32	56.17
487.50	25.75
487.68	81.92
487.85	142.77
488.03	100.64
488.21	107.66
488.39	126.39
488.57	56.17
488.75	102.98
488.92	98.30
489.10	100.64
489.28	67.88
489.46	95.96
489.64	81.92
489.81	74.90
489.99	67.88
490.17	98.30
490.35	2.34
490.53	46.81
490.70	112.35
490.88	142.77
491.06	60.85
491.24	112.35
491.41	91.28
491.59	65.54
491.77	131.07
491.95	56.17
492.13	11.70
492.30	0.00
492.48	63.19
492.66	25.75
492.84	63.19
493.01	79.58
493.19	60.85
493.37	81.92
493.54	67.88
493.72	173.20
493.90	79.58
494.08	60.85
494.25	84.26
494.43	58.51
494.61	51.49
494.79	49.15
494.96	49.15
495.14	37.45
495.32	49.15
495.49	81.92
495.67	79.58
495.85	39.79
496.02	56.17
496.20	177.88
496.38	95.96
496.55	60.85
496.73	60.85
496.91	14.04
497.09	35.11
497.26	53.83
497.44	67.88
497.62	154.48
497.79	21.06
497.97	14.04
498.14	67.88
498.32	91.28
498.50	63.19
498.67	86.60
498.85	67.88
499.03	67.88
499.20	9.36
499.38	126.39
499.56	9.36
499.73	93.62
499.91	72.56
500.08	51.49
500.26	124.05
500.44	60.85
500.61	65.54
500.79	53.83
500.97	117.03
501.14	74.90
501.32	60.85
501.49	51.49
501.67	81.92
501.84	124.05
502.02	49.15
502.20	51.49
502.37	70.22
502.55	65.54
502.72	100.64
502.90	72.56
503.07	138.09
503.25	131.07
503.43	44.47
503.60	88.94
503.78	39.79
503.95	117.03
504.13	60.85
504.30	56.17
504.48	58.51
504.65	23.41
504.83	44.47
505.01	124.05
505.18	107.66
505.36	35.11
505.53	46.81
505.71	88.94
505.88	105.32
506.06	77.24
506.23	128.73
506.41	84.26
506.58	44.47
506.76	91.28
506.93	35.11
507.11	102.98
507.28	46.81
507.46	86.60
507.63	93.62
507.81	30.43
507.98	98.30
508.16	126.39
508.33	58.51
508.50	65.54
508.68	58.51
508.85	65.54
509.03	79.58
509.20	32.77
509.38	79.58
509.55	65.54
509.73	163.84
509.90	163.84
510.08	79.58
510.25	112.35
510.42	84.26
510.60	18.72
510.77	91.28
510.95	88.94
511.12	161.50
511.30	86.60
511.47	105.32
511.64	107.66
511.82	112.35
511.99	110.01
512.17	121.71
512.34	60.85
512.51	60.85
512.69	25.75
512.86	124.05
513.04	119.37
513.21	77.24
513.38	56.17
513.56	46.81
513.73	51.49
513.90	70.22
514.08	72.56
514.25	16.38
514.43	63.19
514.60	28.09
514.77	42.13
514.95	91.28
515.12	88.94
515.29	91.28
515.47	117.03
515.64	152.13
515.81	91.28
515.99	126.39
516.16	88.94
516.33	131.07
516.51	102.98
516.68	70.22
516.85	77.24
517.03	142.77
517.20	51.49
517.37	74.90
517.54	114.69
517.72	39.79
517.89	98.30
518.06	39.79
518.24	91.28
518.41	107.66
518.58	107.66
518.75	4.68
518.93	67.88
519.10	11.70
519.27	110.01
519.45	93.62
519.62	39.79
519.79	30.43
519.96	86.60
520.14	91.28
520.31	105.32
520.48	49.15
520.65	88.94
520.83	100.64
521.00	56.17
521.17	117.03
521.34	63.19
521.52	77.24
521.69	2.34
521.86	117.03
522.03	51.49
522.20	7.02
522.38	79.58
522.55	105.32
522.72	74.90
522.89	35.11
523.07	91.28
523.24	23.41
523.41	107.66
523.58	72.56
523.75	140.43
523.92	145.11
524.10	81.92
524.27	67.88
524.44	93.62
524.61	49.15
524.78	16.38
524.96	110.01
525.13	95.96
525.30	74.90
525.47	23.41
525.64	124.05
525.81	107.66
525.98	46.81
526.16	67.88
526.33	72.56
526.50	39.79
526.67	0.00
526.84	65.54
527.01	30.43
527.18	60.85
527.36	107.66
527.53	128.73
527.70	100.64
527.87	25.75
528.04	42.13
528.21	114.69
528.38	100.64
528.55	28.09
528.72	86.60
528.89	128.73
529.07	131.07
529.24	81.92
529.41	49.15
529.58	53.83
529.75	72.56
529.92	70.22
530.09	114.69
530.26	133.41
530.43	98.30
530.60	110.01
530.77	79.58
530.94	23.41
531.11	77.24
531.28	102.98
531.46	88.94
531.63	98.30
531.80	32.77
531.97	98.30
532.14	88.94
532.31	93.62
532.48	121.71
532.65	56.17
532.82	51.49
532.99	56.17
533.16	0.00
533.33	0.00
533.50	74.90
533.67	93.62
533.84	102.98
534.01	91.28
534.18	114.69
534.35	67.88
534.52	56.17
534.69	121.71
534.86	30.43
535.03	72.56
535.20	67.88
535.37	77.24
535.54	79.58
535.71	128.73
535.88	81.92
536.05	53.83
536.22	81.92
536.38	102.98
536.55	11.70
536.72	128.73
536.89	126.39
537.06	107.66
537.23	112.35
537.40	60.85
537.57	60.85
537.74	60.85
537.91	79.58
538.08	161.50
538.25	79.58
538.42	107.66
538.59	86.60
538.75	98.30
538.92	112.35
539.09	21.06
539.26	39.79
539.43	72.56
539.60	53.83
539.77	159.16
539.94	51.49
540.11	100.64
540.28	77.24
540.44	30.43
540.61	14.04
540.78	23.41
540.95	67.88
541.12	65.54
541.29	138.09
541.46	168.52
541.62	0.00
541.79	30.43
541.96	91.28
542.13	117.03
542.30	119.37
542.47	112.35
542.63	72.56
542.80	84.26
542.97	67.88
543.14	114.69
543.31	56.17
543.48	140.43
543.64	32.77
543.81	131.07
543.98	65.54
544.15	72.56
544.32	119.37
544.48	98.30
544.65	86.60
544.82	65.54
544.99	117.03
545.16	133.41
545.32	112.35
545.49	117.03
545.66	121.71
545.83	67.88
546.00	166.18
546.16	51.49
546.33	72.56
546.50	114.69
546.67	28.09
546.83	77.24
547.00	91.28
547.17	81.92
547.34	88.94
547.50	79.58
547.67	63.19
547.84	63.19
548.00	161.50
548.17	177.88
548.34	152.13
548.51	91.28
548.67	175.54
548.84	102.98
549.01	98.30
549.18	138.09
549.34	65.54
549.51	58.51
549.68	100.64
549.84	86.60
550.01	25.75
550.18	102.98
550.34	121.71
550.51	163.84
550.68	121.71
550.84	70.22
551.01	67.88
551.18	110.01
551.34	105.32
551.51	107.66
551.68	98.30
551.84	154.48
552.01	93.62
552.18	114.69
552.34	140.43
552.51	81.92
552.68	84.26
552.84	84.26
553.01	131.07
553.18	51.49
553.34	81.92
553.51	39.79
553.67	128.73
553.84	32.77
554.01	60.85
554.17	0.00
554.34	154.48
554.51	88.94
554.67	79.58
554.84	0.00
555.00	124.05
555.17	86.60
555.33	86.60
555.50	112.35
555.67	63.19
555.83	42.13
556.00	121.71
556.16	84.26
556.33	91.28
556.50	65.54
556.66	46.81
556.83	77.24
556.99	93.62
557.16	126.39
557.32	98.30
557.49	65.54
557.65	100.64
557.82	11.70
557.98	79.58
558.15	91.28
558.32	131.07
558.48	110.01
558.65	105.32
558.81	30.43
558.98	56.17
559.14	46.81
559.31	114.69
559.47	21.06
559.64	51.49
559.80	88.94
559.97	49.15
560.13	42.13
560.30	39.79
560.46	126.39
560.63	91.28
560.79	93.62
560.96	100.64
561.12	4.68
561.29	25.75
561.45	77.24
561.61	107.66
561.78	56.17
561.94	91.28
562.11	107.66
562.27	42.13
562.44	56.17
562.60	56.17
562.77	84.26
562.93	119.37
563.10	86.60
563.26	60.85
563.42	35.11
563.59	9.36
563.75	128.73
563.92	72.56
564.08	140.43
564.24	117.03
564.41	9.36
564.57	39.79
564.74	72.56
564.90	88.94
565.07	46.81
565.23	117.03
565.39	72.56
565.56	74.90
565.72	70.22
565.88	81.92
566.05	117.03
566.21	84.26
566.38	100.64
566.54	95.96
566.70	65.54
566.87	72.56
567.03	86.60
567.19	81.92
567.36	72.56
567.52	86.60
567.68	49.15
567.85	173.20
568.01	46.81
568.17	107.66
568.34	117.03
568.50	65.54
568.66	51.49
568.83	91.28
568.99	56.17
569.15	95.96
569.32	95.96
569.48	124.05
569.64	110.01
569.81	93.62
569.97	42.13
570.13	60.85
570.30	74.90
570.46	79.58
570.62	18.72
570.78	32.77
570.95	32.77
571.11	84.26
571.27	65.54
571.43	119.37
571.60	140.43
571.76	100.64
571.92	42.13
572.09	77.24
572.25	98.30
572.41	105.32
572.57	49.15
572.74	121.71
572.90	72.56
573.06	63.19
573.22	105.32
573.38	72.56
573.55	84.26
573.71	79.58
573.87	145.11
574.03	93.62
574.20	100.64
574.36	44.47
574.52	84.26
574.68	161.50
574.84	138.09
575.01	121.71
575.17	84.26
575.33	35.11
575.49	56.17
575.65	140.43
575.82	74.90
575.98	142.77
576.14	0.00
576.30	28.09
576.46	95.96
576.62	102.98
576.79	53.83
576.95	11.70
577.11	67.88
577.27	49.15
577.43	86.60
577.59	58.51
577.75	128.73
577.92	112.35
578.08	105.32
578.24	98.30
578.40	32.77
578.56	102.98
578.72	102.98
578.88	35.11
579.04	93.62
579.21	70.22
579.37	35.11
579.53	126.39
579.69	65.54
579.85	93.62
580.01	119.37
580.17	65.54
580.33	105.32
580.49	81.92
580.65	65.54
580.82	140.43
580.98	72.56
581.14	67.88
581.30	67.88
581.46	72.56
581.62	105.32
581.78	84.26
581.94	91.28
582.10	46.81
582.26	98.30
582.42	4.68
582.58	42.13
582.74	86.60
582.90	88.94
583.06	51.49
583.22	37.45
583.38	65.54
583.54	42.13
583.70	98.30
583.86	70.22
584.02	70.22
584.18	23.41
584.34	42.13
584.50	63.19
584.66	67.88
584.82	16.38
584.98	21.06
585.14	81.92
585.30	81.92
585.46	46.81
585.62	37.45
585.78	114.69
585.94	72.56
586.10	67.88
586.26	65.54
586.42	95.96
586.58	21.06
586.74	67.88
586.90	117.03
587.06	51.49
587.22	105.32
587.38	32.77
587.54	72.56
587.70	114.69
587.86	79.58
588.02	81.92
588.18	53.83
588.34	7.02
588.49	32.77
588.65	9.36
588.81	74.90
588.97	44.47
589.13	95.96
589.29	44.47
589.45	56.17
589.61	7.02
589.77	18.72
589.93	121.71
590.08	98.30
590.24	25.75
590.40	79.58
590.56	49.15
590.72	131.07
590.88	77.24
591.04	53.83
591.20	30.43
591.35	98.30
591.51	88.94
591.67	126.39
591.83	16.38
591.99	28.09
592.15	124.05
592.31	86.60
592.46	67.88
592.62	163.84
592.78	21.06
592.94	60.85
593.10	156.82
593.26	147.45
593.41	28.09
593.57	18.72
593.73	35.11
593.89	74.90
594.05	124.05
594.20	93.62
594.36	49.15
594.52	91.28
594.68	93.62
594.84	37.45
594.99	95.96
595.15	32.77
595.31	11.70
595.47	65.54
595.62	56.17
595.78	25.75
595.94	0.00
596.10	23.41
596.25	30.43
596.41	65.54
596.57	105.32
596.73	84.26
596.88	133.41
597.04	88.94
597.20	65.54
597.36	91.28
597.51	30.43
597.67	119.37
597.83	98.30
597.99	23.41
598.14	14.04
598.30	159.16
598.46	9.36
598.61	98.30
598.77	30.43
598.93	121.71
599.09	102.98
599.24	107.66
599.40	39.79
599.56	124.05
599.71	91.28
599.87	110.01
600.03	56.17
600.18	98.30
600.34	39.79
600.50	100.64
600.65	0.00
600.81	46.81
600.97	70.22
601.12	23.41
601.28	35.11
601.44	70.22
601.59	88.94
601.75	74.90
601.91	100.64
602.06	65.54
602.22	110.01
602.37	112.35
602.53	35.11
602.69	70.22
602.84	112.35
603.00	0.00
603.16	88.94
603.31	84.26
603.47	100.64
603.62	49.15
603.78	84.26
603.94	91.28
604.09	91.28
604.25	126.39
604.40	91.28
604.56	77.24
604.71	42.13
604.87	18.72
605.03	86.60
605.18	114.69
605.34	74.90
605.49	44.47
605.65	98.30
605.80	60.85
605.96	25.75
606.12	98.30
606.27	65.54
606.43	70.22
606.58	105.32
606.74	74.90
606.89	56.17
607.05	147.45
607.20	51.49
607.36	88.94
607.51	84.26
607.67	37.45
607.82	91.28
607.98	0.00
608.13	91.28
608.29	56.17
608.44	112.35
608.60	95.96
608.75	110.01
608.91	42.13
609.06	0.00
609.22	91.28
609.37	81.92
609.53	30.43
609.68	0.00
609.84	149.79
609.99	37.45
610.15	105.32
610.30	102.98
610.46	81.92
610.61	98.30
610.76	67.88
610.92	63.19
611.07	51.49
611.23	67.88
611.38	35.11
611.54	74.90
611.69	72.56
611.84	0.00
612.00	100.64
612.15	79.58
612.31	93.62
612.46	124.05
612.62	110.01
612.77	28.09
612.92	105.32
613.08	0.00
613.23	60.85
613.39	51.49
613.54	28.09
613.69	56.17
613.85	14.04
614.00	95.96
614.15	105.32
614.31	37.45
614.46	74.90
614.62	100.64
614.77	107.66
614.92	95.96
615.08	30.43
615.23	95.96
615.38	56.17
615.54	70.22
615.69	95.96
615.84	65.54
616.00	32.77
616.15	0.00
616.30	0.00
616.46	42.13
616.61	44.47
616.76	131.07
616.92	49.15
617.07	91.28
617.22	81.92
617.37	79.58
617.53	77.24
617.68	142.77
617.83	32.77
617.99	107.66
618.14	60.85
618.29	35.11
618.45	112.35
618.60	32.77
618.75	37.45
618.90	77.24
619.06	86.60
619.21	53.83
619.36	65.54
619.51	58.51
619.67	114.69
619.82	110.01
619.97	81.92
620.12	49.15
620.28	77.24
620.43	51.49
620.58	81.92
620.73	39.79
620.89	88.94
621.04	46.81
621.19	16.38
621.34	100.64
621.49	32.77
621.65	105.32
621.80	124.05
621.95	53.83
622.10	131.07
622.25	70.22
622.41	42.13
622.56	0.00
622.71	37.45
622.86	107.66
623.01	70.22
623.16	0.00
623.32	51.49
623.47	42.13
623.62	21.06
623.77	56.17
623.92	42.13
624.07	2.34
624.23	133.41
624.38	4.68
624.53	44.47
624.68	53.83
624.83	32.77
624.98	77.24
625.13	65.54
625.29	58.51
625.44	84.26
625.59	102.98
625.74	70.22
625.89	56.17
626.04	58.51
626.19	58.51
626.34	67.88
626.49	53.83
626.65	107.66
626.80	72.56
626.95	58.51
627.10	0.00
627.25	70.22
627.40	88.94
627.55	74.90
627.70	0.00
627.85	93.62
628.00	30.43
628.15	53.83
628.30	28.09
628.45	70.22
628.60	74.90
628.76	51.49
628.91	42.13
629.06	30.43
629.21	77.24
629.36	105.32
629.51	49.15
629.66	51.49
629.81	42.13
629.96	126.39
630.11	14.04
630.26	81.92
630.41	65.54
630.56	58.51
630.71	74.90
630.86	114.69
631.01	58.51
631.16	21.06
631.31	23.41
631.46	16.38
631.61	0.00
631.76	56.17
631.91	35.11
632.06	67.88
632.21	28.09
632.36	37.45
632.51	86.60
632.66	135.75
632.81	72.56
632.96	49.15
633.10	79.58
633.25	77.24
633.40	11.70
633.55	60.85
633.70	21.06
633.85	91.28
634.00	119.37
634.15	79.58
634.30	138.09
634.45	74.90
634.60	98.30
634.75	37.45
634.90	105.32
635.05	110.01
635.19	23.41
635.34	21.06
635.49	44.47
635.64	49.15
635.79	84.26
635.94	0.00
636.09	35.11
636.24	84.26
636.39	49.15
636.53	70.22
636.68	81.92
636.83	60.85
636.98	32.77
637.13	72.56
637.28	23.41
637.43	81.92
637.57	121.71
637.72	81.92
637.87	23.41
638.02	44.47
638.17	88.94
638.32	105.32
638.46	74.90
638.61	23.41
638.76	49.15
638.91	42.13
639.06	84.26
639.20	46.81
639.35	35.11
639.50	79.58
639.65	126.39
639.80	0.00
639.94	135.75
640.09	110.01
640.24	0.00
640.39	93.62
640.54	28.09
640.68	93.62
640.83	23.41
640.98	93.62
641.13	11.70
641.27	51.49
641.42	70.22
641.57	70.22
641.72	37.45
641.86	16.38
642.01	32.77
642.16	93.62
642.31	42.13
642.45	25.75
642.60	126.39
642.75	93.62
642.90	0.00
643.04	56.17
643.19	56.17
643.34	23.41
643.48	0.00
643.63	46.81
643.78	51.49
643.93	110.01
644.07	86.60
644.22	0.00
644.37	14.04
644.51	88.94
644.66	117.03
644.81	14.04
644.95	56.17
645.10	28.09
645.25	21.06
645.39	39.79
645.54	114.69
645.69	9.36
645.83	53.83
645.98	42.13
646.13	42.13
646.27	44.47
646.42	51.49
646.57	65.54
646.71	37.45
646.86	74.90
647.00	105.32
647.15	117.03
647.30	112.35
647.44	88.94
647.59	23.41
647.74	49.15
647.88	88.94
648.03	102.98
648.17	0.00
648.32	81.92
648.47	32.77
648.61	42.13
648.76	9.36
648.90	23.41
649.05	86.60
649.20	133.41
649.34	0.00
649.49	0.00
649.63	42.13
649.78	11.70
649.92	39.79
650.07	42.13
650.21	0.00
650.36	128.73
650.51	72.56
650.65	74.90
650.80	25.75
650.94	102.98
651.09	46.81
651.23	9.36
651.38	70.22
651.52	49.15
651.67	0.00
651.81	35.11
651.96	42.13
652.10	49.15
652.25	65.54
652.39	32.77
652.54	77.24
652.68	56.17
652.83	119.37
652.97	86.60
653.12	161.50
653.26	53.83
653.41	117.03
653.55	107.66
653.70	35.11
653.84	72.56
653.99	23.41
654.13	91.28
654.27	0.00
654.42	63.19
654.56	39.79
654.71	4.68
654.85	91.28
655.00	102.98
655.14	7.02
655.29	100.64
655.43	70.22
655.57	86.60
655.72	56.17
655.86	88.94
656.01	77.24
656.15	60.85
656.30	11.70
656.44	95.96
656.58	72.56
656.73	30.43
656.87	58.51
657.01	70.22
657.16	37.45
657.30	30.43
657.45	135.75
657.59	21.06
657.73	46.81
657.88	72.56
658.02	39.79
658.16	63.19
658.31	107.66
658.45	46.81
658.60	49.15
658.74	84.26
658.88	28.09
659.03	42.13
659.17	21.06
659.31	37.45
659.46	67.88
659.60	25.75
659.74	25.75
659.89	0.00
660.03	84.26
660.17	35.11
660.32	72.56
660.46	32.77
660.60	58.51
660.74	95.96
660.89	30.43
661.03	88.94
661.17	63.19
661.32	9.36
661.46	91.28
661.60	77.24
661.74	30.43
661.89	37.45
662.03	32.77
662.17	32.77
662.31	23.41
662.46	25.75
662.60	67.88
662.74	39.79
662.88	42.13
663.03	65.54
663.17	42.13
663.31	32.77
663.45	140.43
663.60	110.01
663.74	14.04
663.88	44.47
664.02	133.41
664.17	28.09
664.31	70.22
664.45	16.38
664.59	98.30
664.73	114.69
664.88	32.77
665.02	0.00
665.16	16.38
665.30	102.98
665.44	98.30
665.59	9.36
665.73	7.02
665.87	60.85
666.01	112.35
666.15	70.22
666.29	0.00
666.44	51.49
666.58	72.56
666.72	84.26
666.86	0.00
667.00	46.81
667.14	23.41
667.28	86.60
667.43	81.92
667.57	23.41
667.71	60.85
667.85	28.09
667.99	56.17
668.13	60.85
668.27	42.13
668.41	88.94
668.56	51.49
668.70	70.22
668.84	81.92
668.98	63.19
669.12	14.04
669.26	28.09
669.40	128.73
669.54	51.49
669.68	63.19
669.82	98.30
669.96	49.15
670.10	0.00
670.25	86.60
670.39	84.26
670.53	81.92
670.67	110.01
670.81	67.88
670.95	23.41
671.09	77.24
671.23	70.22
671.37	56.17
671.51	49.15
671.65	35.11
671.79	16.38
671.93	42.13
672.07	70.22
672.21	21.06
672.35	86.60
672.49	51.49
672.63	72.56
672.77	114.69
672.91	4.68
673.05	60.85
673.19	100.64
673.33	18.72
673.47	2.34
673.61	88.94
673.75	142.77
673.89	35.11
674.03	21.06
674.17	77.24
674.31	39.79
674.45	11.70
674.59	28.09
674.73	9.36
674.87	46.81
675.01	2.34
675.15	102.98
675.29	93.62
675.43	46.81
675.56	70.22
675.70	25.75
675.84	60.85
675.98	39.79
676.12	39.79
676.26	74.90
676.40	63.19
676.54	77.24
676.68	2.34
676.82	98.30
676.96	70.22
677.10	72.56
677.23	74.90
677.37	0.00
677.51	60.85
677.65	49.15
677.79	60.85
677.93	51.49
678.07	93.62
678.21	28.09
678.34	93.62
678.48	67.88
678.62	79.58
678.76	30.43
678.90	65.54
679.04	11.70
679.18	98.30
679.31	42.13
679.45	53.83
679.59	63.19
679.73	42.13
679.87	67.88
680.00	16.38
680.14	91.28
680.28	77.24
680.42	37.45
680.56	35.11
680.70	0.00
680.83	4.68
680.97	14.04
681.11	58.51
681.25	0.00
681.39	58.51
681.52	0.00
681.66	49.15
681.80	35.11
681.94	42.13
682.07	51.49
682.21	58.51
682.35	37.45
682.49	60.85
682.62	0.00
682.76	65.54
682.90	93.62
683.04	0.00
683.17	25.75
683.31	84.26
683.45	44.47
683.59	28.09
683.72	37.45
683.86	46.81
684.00	32.77
684.13	16.38
684.27	81.92
684.41	35.11
684.55	42.13
684.68	95.96
684.82	2.34
684.96	42.13
685.09	44.47
685.23	30.43
685.37	65.54
685.50	0.00
685.64	0.00
685.78	39.79
685.91	70.22
686.05	39.79
686.19	0.00
686.32	37.45
686.46	42.13
686.60	2.34
686.73	0.00
686.87	60.85
687.01	51.49
687.14	56.17
687.28	114.69
687.42	53.83
687.55	0.00
687.69	39.79
687.82	81.92
687.96	37.45
688.10	93.62
688.23	105.32
688.37	56.17
688.50	42.13
688.64	65.54
688.78	63.19
688.91	65.54
689.05	4.68
689.18	44.47
689.32	25.75
689.46	105.32
689.59	91.28
689.73	49.15
689.86	14.04
690.00	56.17
690.13	18.72
690.27	0.00
690.41	42.13
690.54	65.54
690.68	74.90
690.81	37.45
690.95	11.70
691.08	56.17
691.22	74.90
691.35	0.00
691.49	58.51
691.62	79.58
691.76	28.09
691.89	70.22
692.03	67.88
692.16	44.47
692.30	0.00
692.43	65.54
692.57	18.72
692.70	0.00
692.84	7.02
692.97	28.09
693.11	25.75
693.24	88.94
693.38	46.81
693.51	0.00
693.65	9.36
693.78	28.09
693.92	23.41
694.05	25.75
694.19	0.00
694.32	39.79
694.45	67.88
694.59	7.02
694.72	39.79
694.86	32.77
694.99	56.17
695.13	46.81
695.26	32.77
695.39	49.15
695.53	16.38
695.66	23.41
695.80	7.02
695.93	2.34
696.07	37.45
696.20	7.02
696.33	67.88
696.47	63.19
696.60	23.41
696.73	42.13
696.87	44.47
697.00	16.38
697.14	28.09
697.27	23.41
697.40	39.79
697.54	70.22
697.67	81.92
697.80	42.13
697.94	81.92
698.07	77.24
698.21	128.73
698.34	67.88
698.47	35.11
698.61	77.24
698.74	72.56
698.87	0.00
699.01	53.83
699.14	49.15
699.27	30.43
699.40	30.43
699.54	95.96
699.67	60.85
699.80	9.36
699.94	42.13
700.07	16.38
700.20	86.60
700.34	37.45
700.47	105.32
700.60	72.56
700.73	119.37
700.87	84.26
701.00	11.70
701.13	0.00
701.26	65.54
701.40	18.72
701.53	18.72
701.66	84.26
701.79	0.00
701.93	0.00
702.06	0.00
702.19	0.00
702.32	65.54
702.46	2.34
702.59	0.00
702.72	67.88
702.85	0.00
702.99	70.22
703.12	49.15
703.25	42.13
703.38	0.00
703.51	81.92
703.65	0.00
703.78	72.56
703.91	63.19
704.04	86.60
704.17	0.00
704.31	30.43
704.44	7.02
704.57	25.75
704.70	37.45
704.83	23.41
704.96	0.00
705.10	21.06
705.23	60.85
>>>>>End Processed Spectral Data<<<<<
