SpectraSuite Data File
++++++++++++++++++++++++++++++++++++
Date: Fri Oct 04 12:13:31 GMT-05:00 2013
User: price-jones
Dark Spectrum Present: No
Reference Spectrum Present: No
Number of Sampled Component Spectra: 1
Spectrometers: USB2+H05261
Integration Time (usec): 10000 (USB2+H05261)
Spectra Averaged: 1 (USB2+H05261)
Boxcar Smoothing: 0 (USB2+H05261)
Correct for Electrical Dark: No (USB2+H05261)
Strobe/Lamp Enabled: No (USB2+H05261)
Correct for Detector Non-linearity: No (USB2+H05261)
Correct for Stray Light: No (USB2+H05261)
Number of Pixels in Processed Spectrum: 2048
>>>>>Begin Processed Spectral Data<<<<<
365.73	0.00
365.92	0.00
366.12	0.00
366.32	0.00
366.52	0.00
366.72	0.00
366.91	0.00
367.11	0.00
367.31	0.00
367.51	0.00
367.70	0.00
367.90	0.00
368.10	0.00
368.30	0.00
368.49	0.00
368.69	0.00
368.89	0.00
369.09	0.00
369.28	0.00
369.48	0.00
369.68	0.00
369.87	0.00
370.07	0.00
370.27	0.00
370.47	0.00
370.66	0.00
370.86	0.00
371.06	0.00
371.25	4.68
371.45	39.79
371.65	0.00
371.84	0.00
372.04	0.00
372.24	4.68
372.44	7.02
372.63	18.72
372.83	39.79
373.03	70.22
373.22	0.00
373.42	0.00
373.62	0.00
373.81	2.34
374.01	21.06
374.21	0.00
374.40	63.19
374.60	63.19
374.79	39.79
374.99	11.70
375.19	65.54
375.38	46.81
375.58	58.51
375.78	67.88
375.97	44.47
376.17	42.13
376.37	23.41
376.56	9.36
376.76	7.02
376.95	70.22
377.15	28.09
377.35	32.77
377.54	60.85
377.74	0.00
377.93	56.17
378.13	16.38
378.33	0.00
378.52	93.62
378.72	84.26
378.91	0.00
379.11	0.00
379.31	4.68
379.50	30.43
379.70	16.38
379.89	0.00
380.09	9.36
380.28	121.71
380.48	42.13
380.68	56.17
380.87	16.38
381.07	58.51
381.26	32.77
381.46	4.68
381.65	0.00
381.85	74.90
382.04	35.11
382.24	0.00
382.43	25.75
382.63	44.47
382.83	25.75
383.02	0.00
383.22	2.34
383.41	30.43
383.61	0.00
383.80	0.00
384.00	0.00
384.19	44.47
384.39	4.68
384.58	16.38
384.78	30.43
384.97	18.72
385.17	58.51
385.36	0.00
385.56	32.77
385.75	0.00
385.95	35.11
386.14	14.04
386.34	9.36
386.53	0.00
386.72	0.00
386.92	84.26
387.11	46.81
387.31	56.17
387.50	84.26
387.70	0.00
387.89	0.00
388.09	0.00
388.28	9.36
388.48	18.72
388.67	0.00
388.86	53.83
389.06	9.36
389.25	14.04
389.45	91.28
389.64	0.00
389.84	16.38
390.03	0.00
390.22	0.00
390.42	30.43
390.61	70.22
390.81	72.56
391.00	0.00
391.19	28.09
391.39	9.36
391.58	11.70
391.78	18.72
391.97	23.41
392.16	23.41
392.36	0.00
392.55	21.06
392.75	74.90
392.94	25.75
393.13	98.30
393.33	7.02
393.52	0.00
393.71	44.47
393.91	0.00
394.10	9.36
394.29	4.68
394.49	74.90
394.68	0.00
394.88	4.68
395.07	0.00
395.26	44.47
395.46	70.22
395.65	9.36
395.84	21.06
396.04	18.72
396.23	88.94
396.42	16.38
396.62	0.00
396.81	0.00
397.00	32.77
397.19	44.47
397.39	65.54
397.58	53.83
397.77	65.54
397.97	32.77
398.16	65.54
398.35	51.49
398.55	18.72
398.74	100.64
398.93	28.09
399.12	7.02
399.32	65.54
399.51	46.81
399.70	28.09
399.90	91.28
400.09	42.13
400.28	70.22
400.47	46.81
400.67	37.45
400.86	0.00
401.05	74.90
401.24	9.36
401.44	0.00
401.63	0.00
401.82	18.72
402.01	65.54
402.21	42.13
402.40	44.47
402.59	0.00
402.78	100.64
402.97	16.38
403.17	44.47
403.36	88.94
403.55	67.88
403.74	28.09
403.93	44.47
404.13	30.43
404.32	35.11
404.51	46.81
404.70	102.98
404.89	14.04
405.09	49.15
405.28	74.90
405.47	0.00
405.66	0.00
405.85	60.85
406.05	65.54
406.24	25.75
406.43	32.77
406.62	58.51
406.81	14.04
407.00	79.58
407.20	18.72
407.39	25.75
407.58	32.77
407.77	58.51
407.96	0.00
408.15	9.36
408.34	37.45
408.54	81.92
408.73	37.45
408.92	14.04
409.11	72.56
409.30	32.77
409.49	21.06
409.68	18.72
409.87	28.09
410.07	67.88
410.26	23.41
410.45	46.81
410.64	0.00
410.83	0.00
411.02	11.70
411.21	84.26
411.40	0.00
411.59	84.26
411.78	16.38
411.98	72.56
412.17	65.54
412.36	25.75
412.55	0.00
412.74	14.04
412.93	21.06
413.12	0.00
413.31	44.47
413.50	0.00
413.69	0.00
413.88	9.36
414.07	0.00
414.26	46.81
414.45	9.36
414.64	105.32
414.83	14.04
415.02	0.00
415.22	49.15
415.41	84.26
415.60	93.62
415.79	7.02
415.98	102.98
416.17	39.79
416.36	0.00
416.55	28.09
416.74	0.00
416.93	51.49
417.12	95.96
417.31	114.69
417.50	37.45
417.69	35.11
417.88	58.51
418.07	0.00
418.26	39.79
418.45	53.83
418.64	16.38
418.83	0.00
419.02	49.15
419.21	21.06
419.39	0.00
419.58	2.34
419.77	25.75
419.96	0.00
420.15	28.09
420.34	42.13
420.53	39.79
420.72	9.36
420.91	4.68
421.10	0.00
421.29	39.79
421.48	46.81
421.67	42.13
421.86	159.16
422.05	102.98
422.24	91.28
422.43	65.54
422.61	44.47
422.80	2.34
422.99	0.00
423.18	18.72
423.37	30.43
423.56	74.90
423.75	25.75
423.94	60.85
424.13	30.43
424.32	0.00
424.50	0.00
424.69	30.43
424.88	0.00
425.07	46.81
425.26	28.09
425.45	74.90
425.64	23.41
425.83	0.00
426.01	102.98
426.20	39.79
426.39	37.45
426.58	9.36
426.77	23.41
426.96	44.47
427.15	0.00
427.33	25.75
427.52	46.81
427.71	0.00
427.90	30.43
428.09	42.13
428.28	53.83
428.46	32.77
428.65	42.13
428.84	32.77
429.03	14.04
429.22	56.17
429.40	18.72
429.59	30.43
429.78	74.90
429.97	46.81
430.16	37.45
430.34	23.41
430.53	9.36
430.72	23.41
430.91	46.81
431.10	11.70
431.28	58.51
431.47	0.00
431.66	65.54
431.85	46.81
432.03	44.47
432.22	0.00
432.41	79.58
432.60	77.24
432.79	18.72
432.97	0.00
433.16	0.00
433.35	53.83
433.54	56.17
433.72	21.06
433.91	9.36
434.10	0.00
434.28	77.24
434.47	65.54
434.66	0.00
434.85	79.58
435.03	77.24
435.22	72.56
435.41	53.83
435.59	51.49
435.78	37.45
435.97	32.77
436.16	0.00
436.34	37.45
436.53	4.68
436.72	44.47
436.90	30.43
437.09	16.38
437.28	51.49
437.46	39.79
437.65	46.81
437.84	32.77
438.02	46.81
438.21	4.68
438.40	14.04
438.58	0.00
438.77	0.00
438.96	18.72
439.14	56.17
439.33	42.13
439.52	32.77
439.70	0.00
439.89	0.00
440.08	2.34
440.26	60.85
440.45	16.38
440.63	49.15
440.82	42.13
441.01	63.19
441.19	63.19
441.38	0.00
441.57	53.83
441.75	72.56
441.94	25.75
442.12	72.56
442.31	28.09
442.50	30.43
442.68	14.04
442.87	63.19
443.05	58.51
443.24	18.72
443.43	51.49
443.61	39.79
443.80	44.47
443.98	65.54
444.17	93.62
444.35	0.00
444.54	23.41
444.73	84.26
444.91	77.24
445.10	53.83
445.28	7.02
445.47	16.38
445.65	0.00
445.84	16.38
446.02	0.00
446.21	0.00
446.39	0.00
446.58	46.81
446.77	0.00
446.95	25.75
447.14	74.90
447.32	0.00
447.51	37.45
447.69	49.15
447.88	14.04
448.06	28.09
448.25	0.00
448.43	0.00
448.62	0.00
448.80	100.64
448.99	49.15
449.17	72.56
449.36	0.00
449.54	0.00
449.73	35.11
449.91	21.06
450.10	0.00
450.28	0.00
450.46	0.00
450.65	84.26
450.83	4.68
451.02	0.00
451.20	46.81
451.39	4.68
451.57	42.13
451.76	0.00
451.94	86.60
452.13	0.00
452.31	0.00
452.49	53.83
452.68	0.00
452.86	63.19
453.05	35.11
453.23	32.77
453.42	98.30
453.60	28.09
453.78	35.11
453.97	0.00
454.15	77.24
454.34	86.60
454.52	63.19
454.70	32.77
454.89	9.36
455.07	44.47
455.26	0.00
455.44	42.13
455.62	0.00
455.81	25.75
455.99	35.11
456.17	28.09
456.36	7.02
456.54	56.17
456.73	67.88
456.91	0.00
457.09	0.00
457.28	14.04
457.46	0.00
457.64	0.00
457.83	4.68
458.01	14.04
458.19	60.85
458.38	0.00
458.56	14.04
458.74	16.38
458.93	74.90
459.11	0.00
459.29	159.16
459.48	79.58
459.66	100.64
459.84	35.11
460.03	37.45
460.21	9.36
460.39	21.06
460.57	77.24
460.76	65.54
460.94	42.13
461.12	70.22
461.31	60.85
461.49	37.45
461.67	84.26
461.85	28.09
462.04	18.72
462.22	135.75
462.40	91.28
462.59	37.45
462.77	58.51
462.95	28.09
463.13	56.17
463.32	46.81
463.50	0.00
463.68	37.45
463.86	7.02
464.05	14.04
464.23	14.04
464.41	0.00
464.59	16.38
464.78	77.24
464.96	21.06
465.14	74.90
465.32	18.72
465.50	30.43
465.69	0.00
465.87	44.47
466.05	63.19
466.23	0.00
466.41	58.51
466.60	0.00
466.78	32.77
466.96	14.04
467.14	7.02
467.32	51.49
467.51	79.58
467.69	70.22
467.87	0.00
468.05	51.49
468.23	121.71
468.41	35.11
468.60	56.17
468.78	30.43
468.96	60.85
469.14	23.41
469.32	18.72
469.50	25.75
469.69	56.17
469.87	23.41
470.05	0.00
470.23	91.28
470.41	46.81
470.59	32.77
470.77	42.13
470.95	25.75
471.14	0.00
471.32	70.22
471.50	37.45
471.68	65.54
471.86	114.69
472.04	53.83
472.22	7.02
472.40	95.96
472.58	102.98
472.77	30.43
472.95	4.68
473.13	70.22
473.31	46.81
473.49	58.51
473.67	53.83
473.85	74.90
474.03	11.70
474.21	32.77
474.39	0.00
474.57	9.36
474.75	37.45
474.93	0.00
475.12	23.41
475.30	0.00
475.48	37.45
475.66	25.75
475.84	44.47
476.02	79.58
476.20	77.24
476.38	37.45
476.56	51.49
476.74	32.77
476.92	25.75
477.10	11.70
477.28	0.00
477.46	39.79
477.64	79.58
477.82	84.26
478.00	72.56
478.18	42.13
478.36	39.79
478.54	30.43
478.72	49.15
478.90	102.98
479.08	4.68
479.26	72.56
479.44	23.41
479.62	23.41
479.80	21.06
479.98	39.79
480.16	32.77
480.34	37.45
480.52	0.00
480.70	63.19
480.88	39.79
481.06	0.00
481.24	114.69
481.41	23.41
481.59	18.72
481.77	0.00
481.95	0.00
482.13	70.22
482.31	32.77
482.49	21.06
482.67	49.15
482.85	0.00
483.03	46.81
483.21	100.64
483.39	74.90
483.57	65.54
483.74	67.88
483.92	16.38
484.10	9.36
484.28	114.69
484.46	25.75
484.64	46.81
484.82	28.09
485.00	63.19
485.18	0.00
485.35	4.68
485.53	16.38
485.71	53.83
485.89	67.88
486.07	30.43
486.25	16.38
486.43	14.04
486.61	46.81
486.78	79.58
486.96	72.56
487.14	88.94
487.32	56.17
487.50	16.38
487.68	88.94
487.85	98.30
488.03	35.11
488.21	51.49
488.39	0.00
488.57	0.00
488.75	74.90
488.92	72.56
489.10	98.30
489.28	65.54
489.46	2.34
489.64	53.83
489.81	28.09
489.99	79.58
490.17	35.11
490.35	28.09
490.53	9.36
490.70	23.41
490.88	4.68
491.06	37.45
491.24	70.22
491.41	65.54
491.59	58.51
491.77	72.56
491.95	65.54
492.13	4.68
492.30	58.51
492.48	91.28
492.66	16.38
492.84	0.00
493.01	0.00
493.19	39.79
493.37	60.85
493.54	46.81
493.72	0.00
493.90	0.00
494.08	53.83
494.25	46.81
494.43	86.60
494.61	46.81
494.79	4.68
494.96	0.00
495.14	81.92
495.32	58.51
495.49	60.85
495.67	32.77
495.85	0.00
496.02	0.00
496.20	74.90
496.38	86.60
496.55	14.04
496.73	60.85
496.91	35.11
497.09	23.41
497.26	0.00
497.44	0.00
497.62	30.43
497.79	16.38
497.97	23.41
498.14	32.77
498.32	81.92
498.50	56.17
498.67	0.00
498.85	0.00
499.03	0.00
499.20	53.83
499.38	56.17
499.56	46.81
499.73	14.04
499.91	35.11
500.08	42.13
500.26	9.36
500.44	51.49
500.61	0.00
500.79	39.79
500.97	79.58
501.14	79.58
501.32	107.66
501.49	25.75
501.67	35.11
501.84	0.00
502.02	23.41
502.20	0.00
502.37	25.75
502.55	0.00
502.72	32.77
502.90	63.19
503.07	79.58
503.25	0.00
503.43	0.00
503.60	14.04
503.78	56.17
503.95	42.13
504.13	95.96
504.30	102.98
504.48	51.49
504.65	39.79
504.83	56.17
505.01	63.19
505.18	30.43
505.36	0.00
505.53	58.51
505.71	0.00
505.88	56.17
506.06	0.00
506.23	0.00
506.41	46.81
506.58	84.26
506.76	32.77
506.93	30.43
507.11	4.68
507.28	14.04
507.46	53.83
507.63	32.77
507.81	95.96
507.98	16.38
508.16	32.77
508.33	0.00
508.50	81.92
508.68	37.45
508.85	23.41
509.03	35.11
509.20	98.30
509.38	0.00
509.55	58.51
509.73	49.15
509.90	7.02
510.08	25.75
510.25	25.75
510.42	51.49
510.60	46.81
510.77	79.58
510.95	0.00
511.12	32.77
511.30	58.51
511.47	42.13
511.64	60.85
511.82	28.09
511.99	0.00
512.17	37.45
512.34	42.13
512.51	32.77
512.69	0.00
512.86	58.51
513.04	0.00
513.21	72.56
513.38	35.11
513.56	18.72
513.73	81.92
513.90	25.75
514.08	0.00
514.25	46.81
514.43	32.77
514.60	149.79
514.77	0.00
514.95	44.47
515.12	88.94
515.29	32.77
515.47	0.00
515.64	7.02
515.81	18.72
515.99	56.17
516.16	49.15
516.33	65.54
516.51	0.00
516.68	53.83
516.85	0.00
517.03	0.00
517.20	14.04
517.37	39.79
517.54	49.15
517.72	70.22
517.89	81.92
518.06	28.09
518.24	14.04
518.41	74.90
518.58	67.88
518.75	124.05
518.93	88.94
519.10	25.75
519.27	51.49
519.45	114.69
519.62	37.45
519.79	0.00
519.96	53.83
520.14	18.72
520.31	32.77
520.48	0.00
520.65	28.09
520.83	18.72
521.00	86.60
521.17	16.38
521.34	74.90
521.52	35.11
521.69	2.34
521.86	0.00
522.03	98.30
522.20	117.03
522.38	7.02
522.55	7.02
522.72	18.72
522.89	9.36
523.07	28.09
523.24	0.00
523.41	0.00
523.58	2.34
523.75	93.62
523.92	56.17
524.10	88.94
524.27	53.83
524.44	65.54
524.61	58.51
524.78	0.00
524.96	63.19
525.13	81.92
525.30	0.00
525.47	42.13
525.64	93.62
525.81	51.49
525.98	23.41
526.16	25.75
526.33	0.00
526.50	53.83
526.67	49.15
526.84	35.11
527.01	42.13
527.18	0.00
527.36	9.36
527.53	70.22
527.70	65.54
527.87	44.47
528.04	0.00
528.21	0.00
528.38	72.56
528.55	14.04
528.72	9.36
528.89	18.72
529.07	46.81
529.24	42.13
529.41	2.34
529.58	9.36
529.75	30.43
529.92	98.30
530.09	65.54
530.26	35.11
530.43	58.51
530.60	142.77
530.77	49.15
530.94	74.90
531.11	53.83
531.28	16.38
531.46	7.02
531.63	72.56
531.80	0.00
531.97	0.00
532.14	0.00
532.31	0.00
532.48	63.19
532.65	0.00
532.82	51.49
532.99	44.47
533.16	84.26
533.33	0.00
533.50	81.92
533.67	35.11
533.84	16.38
534.01	23.41
534.18	0.00
534.35	39.79
534.52	37.45
534.69	105.32
534.86	60.85
535.03	7.02
535.20	23.41
535.37	2.34
535.54	56.17
535.71	44.47
535.88	60.85
536.05	81.92
536.22	102.98
536.38	42.13
536.55	53.83
536.72	21.06
536.89	53.83
537.06	21.06
537.23	35.11
537.40	53.83
537.57	0.00
537.74	98.30
537.91	53.83
538.08	65.54
538.25	56.17
538.42	9.36
538.59	110.01
538.75	35.11
538.92	28.09
539.09	65.54
539.26	102.98
539.43	63.19
539.60	84.26
539.77	168.52
539.94	191.92
540.11	32.77
540.28	16.38
540.44	42.13
540.61	0.00
540.78	44.47
540.95	56.17
541.12	67.88
541.29	7.02
541.46	65.54
541.62	63.19
541.79	9.36
541.96	23.41
542.13	35.11
542.30	53.83
542.47	77.24
542.63	39.79
542.80	0.00
542.97	4.68
543.14	18.72
543.31	39.79
543.48	0.00
543.64	42.13
543.81	21.06
543.98	14.04
544.15	7.02
544.32	0.00
544.48	72.56
544.65	2.34
544.82	46.81
544.99	49.15
545.16	4.68
545.32	0.00
545.49	46.81
545.66	67.88
545.83	84.26
546.00	95.96
546.16	16.38
546.33	28.09
546.50	51.49
546.67	98.30
546.83	0.00
547.00	81.92
547.17	0.00
547.34	56.17
547.50	49.15
547.67	14.04
547.84	0.00
548.00	49.15
548.17	25.75
548.34	35.11
548.51	25.75
548.67	0.00
548.84	23.41
549.01	16.38
549.18	11.70
549.34	60.85
549.51	30.43
549.68	18.72
549.84	35.11
550.01	21.06
550.18	28.09
550.34	49.15
550.51	53.83
550.68	93.62
550.84	105.32
551.01	37.45
551.18	67.88
551.34	21.06
551.51	0.00
551.68	14.04
551.84	32.77
552.01	0.00
552.18	11.70
552.34	93.62
552.51	42.13
552.68	88.94
552.84	81.92
553.01	30.43
553.18	0.00
553.34	51.49
553.51	0.00
553.67	81.92
553.84	16.38
554.01	0.00
554.17	77.24
554.34	51.49
554.51	28.09
554.67	23.41
554.84	135.75
555.00	72.56
555.17	35.11
555.33	107.66
555.50	7.02
555.67	28.09
555.83	53.83
556.00	79.58
556.16	11.70
556.33	9.36
556.50	95.96
556.66	98.30
556.83	16.38
556.99	39.79
557.16	124.05
557.32	56.17
557.49	67.88
557.65	74.90
557.82	32.77
557.98	35.11
558.15	42.13
558.32	0.00
558.48	0.00
558.65	65.54
558.81	39.79
558.98	67.88
559.14	32.77
559.31	77.24
559.47	65.54
559.64	0.00
559.80	16.38
559.97	93.62
560.13	0.00
560.30	65.54
560.46	18.72
560.63	67.88
560.79	42.13
560.96	25.75
561.12	56.17
561.29	81.92
561.45	9.36
561.61	37.45
561.78	9.36
561.94	95.96
562.11	105.32
562.27	0.00
562.44	4.68
562.60	11.70
562.77	63.19
562.93	42.13
563.10	0.00
563.26	35.11
563.42	63.19
563.59	21.06
563.75	44.47
563.92	70.22
564.08	63.19
564.24	93.62
564.41	2.34
564.57	77.24
564.74	74.90
564.90	46.81
565.07	56.17
565.23	60.85
565.39	77.24
565.56	18.72
565.72	0.00
565.88	49.15
566.05	25.75
566.21	81.92
566.38	70.22
566.54	16.38
566.70	149.79
566.87	0.00
567.03	46.81
567.19	72.56
567.36	114.69
567.52	30.43
567.68	46.81
567.85	91.28
568.01	23.41
568.17	53.83
568.34	25.75
568.50	58.51
568.66	14.04
568.83	0.00
568.99	67.88
569.15	42.13
569.32	7.02
569.48	44.47
569.64	133.41
569.81	58.51
569.97	37.45
570.13	0.00
570.30	42.13
570.46	0.00
570.62	0.00
570.78	30.43
570.95	11.70
571.11	107.66
571.27	95.96
571.43	42.13
571.60	114.69
571.76	7.02
571.92	2.34
572.09	32.77
572.25	18.72
572.41	53.83
572.57	44.47
572.74	4.68
572.90	2.34
573.06	9.36
573.22	37.45
573.38	32.77
573.55	51.49
573.71	39.79
573.87	60.85
574.03	16.38
574.20	56.17
574.36	18.72
574.52	37.45
574.68	44.47
574.84	21.06
575.01	138.09
575.17	39.79
575.33	91.28
575.49	119.37
575.65	32.77
575.82	58.51
575.98	91.28
576.14	114.69
576.30	100.64
576.46	74.90
576.62	121.71
576.79	0.00
576.95	18.72
577.11	95.96
577.27	0.00
577.43	77.24
577.59	32.77
577.75	30.43
577.92	30.43
578.08	23.41
578.24	23.41
578.40	14.04
578.56	95.96
578.72	110.01
578.88	126.39
579.04	51.49
579.21	16.38
579.37	37.45
579.53	0.00
579.69	84.26
579.85	42.13
580.01	16.38
580.17	110.01
580.33	37.45
580.49	93.62
580.65	25.75
580.82	0.00
580.98	7.02
581.14	44.47
581.30	25.75
581.46	28.09
581.62	72.56
581.78	81.92
581.94	30.43
582.10	42.13
582.26	58.51
582.42	30.43
582.58	77.24
582.74	23.41
582.90	88.94
583.06	77.24
583.22	70.22
583.38	49.15
583.54	86.60
583.70	49.15
583.86	100.64
584.02	105.32
584.18	100.64
584.34	196.60
584.50	393.21
584.66	2436.50
584.82	5923.90
584.98	8496.14
585.14	7803.35
585.30	4966.62
585.46	2972.48
585.62	1860.73
585.78	861.32
585.94	311.29
586.10	177.88
586.26	168.52
586.42	177.88
586.58	91.28
586.74	63.19
586.90	81.92
587.06	18.72
587.22	46.81
587.38	74.90
587.54	152.13
587.70	372.15
587.86	578.11
588.02	671.73
588.18	491.51
588.34	271.50
588.49	201.29
588.65	107.66
588.81	0.00
588.97	39.79
589.13	14.04
589.29	49.15
589.45	86.60
589.61	84.26
589.77	28.09
589.93	53.83
590.08	56.17
590.24	112.35
590.40	0.00
590.56	58.51
590.72	42.13
590.88	49.15
591.04	46.81
591.20	28.09
591.35	51.49
591.51	23.41
591.67	32.77
591.83	91.28
591.99	86.60
592.15	16.38
592.31	72.56
592.46	0.00
592.62	74.90
592.78	37.45
592.94	107.66
593.10	63.19
593.26	63.19
593.41	0.00
593.57	79.58
593.73	53.83
593.89	381.51
594.05	692.80
594.20	1163.25
594.36	1062.60
594.52	681.10
594.68	482.15
594.84	283.20
594.99	170.86
595.15	107.66
595.31	21.06
595.47	11.70
595.62	37.45
595.78	42.13
595.94	7.02
596.10	67.88
596.25	121.71
596.41	46.81
596.57	0.00
596.73	49.15
596.88	105.32
597.04	196.60
597.20	250.44
597.36	264.48
597.51	180.22
597.67	100.64
597.83	126.39
597.99	65.54
598.14	11.70
598.30	63.19
598.46	79.58
598.61	67.88
598.77	88.94
598.93	25.75
599.09	9.36
599.24	9.36
599.40	0.00
599.56	39.79
599.71	88.94
599.87	9.36
600.03	14.04
600.18	42.13
600.34	72.56
600.50	7.02
600.65	16.38
600.81	128.73
600.97	70.22
601.12	53.83
601.28	14.04
601.44	100.64
601.59	74.90
601.75	56.17
601.91	4.68
602.06	18.72
602.22	79.58
602.37	18.72
602.53	147.45
602.69	313.63
602.84	311.29
603.00	217.67
603.16	191.92
603.31	72.56
603.47	100.64
603.62	119.37
603.78	30.43
603.94	102.98
604.09	58.51
604.25	58.51
604.40	81.92
604.56	18.72
604.71	16.38
604.87	0.00
605.03	0.00
605.18	91.28
605.34	0.00
605.49	0.00
605.65	28.09
605.80	114.69
605.96	63.19
606.12	42.13
606.27	67.88
606.43	25.75
606.58	32.77
606.74	128.73
606.89	433.00
607.05	727.91
607.20	961.96
607.36	765.36
607.51	554.71
607.67	301.93
607.82	182.56
607.98	149.79
608.13	39.79
608.29	42.13
608.44	37.45
608.60	65.54
608.75	42.13
608.91	170.86
609.06	554.71
609.22	1277.93
609.37	1617.31
609.53	1373.89
609.68	856.64
609.84	596.84
609.99	421.30
610.15	250.44
610.30	117.03
610.46	81.92
610.61	37.45
610.76	63.19
610.92	53.83
611.07	35.11
611.23	65.54
611.38	56.17
611.54	32.77
611.69	0.00
611.84	93.62
612.00	0.00
612.15	166.18
612.31	81.92
612.46	32.77
612.62	56.17
612.77	105.32
612.92	102.98
613.08	107.66
613.23	84.26
613.39	44.47
613.54	128.73
613.69	552.37
613.85	1371.55
614.00	2403.73
614.15	2518.42
614.31	1856.04
614.46	1228.78
614.62	894.08
614.77	479.81
614.92	227.03
615.08	149.79
615.23	72.56
615.38	0.00
615.54	114.69
615.69	128.73
615.84	327.68
616.00	587.47
616.15	667.05
616.30	550.03
616.46	404.91
616.61	374.49
616.76	191.92
616.92	86.60
617.07	131.07
617.22	65.54
617.37	37.45
617.53	53.83
617.68	37.45
617.83	42.13
617.99	46.81
618.14	23.41
618.29	56.17
618.45	79.58
618.60	0.00
618.75	72.56
618.90	28.09
619.06	53.83
619.21	46.81
619.36	67.88
619.51	60.85
619.67	25.75
619.82	77.24
619.97	0.00
620.12	23.41
620.28	0.00
620.43	28.09
620.58	25.75
620.73	79.58
620.89	74.90
621.04	102.98
621.19	194.26
621.34	327.68
621.49	414.27
621.65	383.85
621.80	252.78
621.95	175.54
622.10	180.22
622.25	72.56
622.41	37.45
622.56	25.75
622.71	7.02
622.86	42.13
623.01	25.75
623.16	42.13
623.32	23.41
623.47	51.49
623.62	35.11
623.77	0.00
623.92	72.56
624.07	67.88
624.23	95.96
624.38	65.54
624.53	28.09
624.68	56.17
624.83	0.00
624.98	18.72
625.13	105.32
625.29	77.24
625.44	11.70
625.59	16.38
625.74	16.38
625.89	95.96
626.04	248.10
626.19	765.36
626.34	1165.59
626.49	1350.49
626.65	1060.26
626.80	631.94
626.95	491.51
627.10	294.91
627.25	126.39
627.40	86.60
627.55	77.24
627.70	9.36
627.85	11.70
628.00	42.13
628.15	70.22
628.30	28.09
628.45	28.09
628.60	42.13
628.76	16.38
628.91	0.00
629.06	39.79
629.21	0.00
629.36	60.85
629.51	32.77
629.66	58.51
629.81	112.35
629.96	112.35
630.11	280.86
630.26	386.19
630.41	355.76
630.56	229.37
630.71	189.58
630.86	121.71
631.01	131.07
631.16	63.19
631.31	74.90
631.46	58.51
631.61	32.77
631.76	2.34
631.91	44.47
632.06	14.04
632.21	105.32
632.36	86.60
632.51	39.79
632.66	2.34
632.81	234.05
632.96	393.21
633.10	849.61
633.25	908.13
633.40	685.78
633.55	587.47
633.70	339.38
633.85	243.42
634.00	138.09
634.15	74.90
634.30	0.00
634.45	42.13
634.60	53.83
634.75	44.47
634.90	81.92
635.05	74.90
635.19	37.45
635.34	119.37
635.49	2.34
635.64	58.51
635.79	95.96
635.94	37.45
636.09	32.77
636.24	98.30
636.39	46.81
636.53	51.49
636.68	77.24
636.83	145.11
636.98	70.22
637.13	23.41
637.28	49.15
637.43	95.96
637.57	91.28
637.72	367.46
637.87	884.72
638.02	1549.43
638.17	1692.21
638.32	1394.96
638.46	868.34
638.61	592.16
638.76	381.51
638.91	145.11
639.06	102.98
639.20	65.54
639.35	135.75
639.50	95.96
639.65	545.34
639.80	1483.90
639.94	2335.85
640.09	2665.87
640.24	2125.21
640.39	1303.68
640.54	896.43
640.68	636.63
640.83	311.29
640.98	135.75
641.13	95.96
641.27	51.49
641.42	86.60
641.57	95.96
641.72	77.24
641.86	95.96
642.01	49.15
642.16	79.58
642.31	72.56
642.45	77.24
642.60	37.45
642.75	0.00
642.90	56.17
643.04	58.51
643.19	56.17
643.34	51.49
643.48	65.54
643.63	128.73
643.78	39.79
643.93	65.54
644.07	35.11
644.22	4.68
644.37	35.11
644.51	32.77
644.66	88.94
644.81	84.26
644.95	39.79
645.10	11.70
645.25	37.45
645.39	58.51
645.54	51.49
645.69	0.00
645.83	9.36
645.98	102.98
646.13	0.00
646.27	58.51
646.42	0.00
646.57	56.17
646.71	0.00
646.86	42.13
647.00	60.85
647.15	79.58
647.30	72.56
647.44	7.02
647.59	65.54
647.74	63.19
647.88	9.36
648.03	117.03
648.17	28.09
648.32	25.75
648.47	140.43
648.61	53.83
648.76	56.17
648.90	53.83
649.05	70.22
649.20	28.09
649.34	98.30
649.49	0.00
649.63	98.30
649.78	11.70
649.92	93.62
650.07	177.88
650.21	692.80
650.36	1196.01
650.51	1359.85
650.65	1207.72
650.80	798.12
650.94	564.07
651.09	322.99
651.23	250.44
651.38	70.22
651.52	86.60
651.67	72.56
651.81	53.83
651.96	11.70
652.10	18.72
652.25	0.00
652.39	18.72
652.54	60.85
652.68	60.85
652.83	266.82
652.97	381.51
653.12	517.26
653.26	461.09
653.41	327.68
653.55	220.01
653.70	152.13
653.84	149.79
653.99	11.70
654.13	86.60
654.27	44.47
654.42	72.56
654.56	110.01
654.71	124.05
654.85	35.11
655.00	95.96
655.14	46.81
655.29	0.00
655.43	25.75
655.57	32.77
655.72	53.83
655.86	14.04
656.01	60.85
656.15	16.38
656.30	30.43
656.44	112.35
656.58	14.04
656.73	23.41
656.87	4.68
657.01	58.51
657.16	9.36
657.30	0.00
657.45	79.58
657.59	93.62
657.73	51.49
657.88	77.24
658.02	28.09
658.16	49.15
658.31	2.34
658.45	16.38
658.60	16.38
658.74	0.00
658.88	60.85
659.03	102.98
659.17	53.83
659.31	138.09
659.46	315.97
659.60	603.86
659.74	777.06
659.89	627.26
660.03	360.44
660.17	297.25
660.32	133.41
660.46	194.26
660.60	39.79
660.74	95.96
660.89	56.17
661.03	30.43
661.17	0.00
661.32	0.00
661.46	0.00
661.60	63.19
661.74	23.41
661.89	16.38
662.03	9.36
662.17	70.22
662.31	74.90
662.46	28.09
662.60	0.00
662.74	56.17
662.88	0.00
663.03	46.81
663.17	0.00
663.31	21.06
663.45	18.72
663.60	37.45
663.74	30.43
663.88	77.24
664.02	117.03
664.17	7.02
664.31	140.43
664.45	4.68
664.59	0.00
664.73	0.00
664.88	46.81
665.02	46.81
665.16	100.64
665.30	0.00
665.44	7.02
665.59	21.06
665.73	32.77
665.87	11.70
666.01	37.45
666.15	84.26
666.29	91.28
666.44	65.54
666.58	18.72
666.72	0.00
666.86	84.26
667.00	25.75
667.14	39.79
667.28	128.73
667.43	465.77
667.57	929.19
667.71	1226.44
667.85	1121.12
667.99	812.17
668.13	519.60
668.27	257.46
668.41	191.92
668.56	145.11
668.70	46.81
668.84	30.43
668.98	51.49
669.12	70.22
669.26	35.11
669.40	39.79
669.54	49.15
669.68	114.69
669.82	0.00
669.96	46.81
670.10	79.58
670.25	35.11
670.39	100.64
670.53	30.43
670.67	7.02
670.81	46.81
670.95	0.00
671.09	42.13
671.23	280.86
671.37	493.85
671.51	683.44
671.65	858.98
671.79	545.34
671.93	505.56
672.07	276.18
672.21	229.37
672.35	149.79
672.49	93.62
672.63	42.13
672.77	98.30
672.91	32.77
673.05	9.36
673.19	102.98
673.33	9.36
673.47	42.13
673.61	0.00
673.75	39.79
673.89	0.00
674.03	28.09
674.17	72.56
674.31	0.00
674.45	49.15
674.59	0.00
674.73	51.49
674.87	84.26
675.01	25.75
675.15	42.13
675.29	39.79
675.43	30.43
675.56	0.00
675.70	44.47
675.84	53.83
675.98	56.17
676.12	65.54
676.26	0.00
676.40	74.90
676.54	18.72
676.68	79.58
676.82	44.47
676.96	37.45
677.10	0.00
677.23	0.00
677.37	58.51
677.51	79.58
677.65	70.22
677.79	18.72
677.93	88.94
678.07	0.00
678.21	30.43
678.34	0.00
678.48	32.77
678.62	35.11
678.76	65.54
678.90	18.72
679.04	11.70
679.18	51.49
679.31	0.00
679.45	16.38
679.59	9.36
679.73	0.00
679.87	28.09
680.00	0.00
680.14	11.70
680.28	21.06
680.42	35.11
680.56	46.81
680.70	0.00
680.83	51.49
680.97	46.81
681.11	84.26
681.25	35.11
681.39	81.92
681.52	30.43
681.66	117.03
681.80	51.49
681.94	0.00
682.07	58.51
682.21	84.26
682.35	0.00
682.49	0.00
682.62	35.11
682.76	11.70
682.90	46.81
683.04	28.09
683.17	16.38
683.31	32.77
683.45	0.00
683.59	37.45
683.72	14.04
683.86	0.00
684.00	0.00
684.13	53.83
684.27	39.79
684.41	4.68
684.55	58.51
684.68	105.32
684.82	9.36
684.96	60.85
685.09	88.94
685.23	77.24
685.37	51.49
685.50	60.85
685.64	30.43
685.78	0.00
685.91	56.17
686.05	42.13
686.19	42.13
686.32	25.75
686.46	16.38
686.60	53.83
686.73	25.75
686.87	23.41
687.01	53.83
687.14	49.15
687.28	79.58
687.42	21.06
687.55	39.79
687.69	72.56
687.82	7.02
687.96	58.51
688.10	14.04
688.23	79.58
688.37	46.81
688.50	95.96
688.64	14.04
688.78	14.04
688.91	0.00
689.05	28.09
689.18	30.43
689.32	44.47
689.46	37.45
689.59	42.13
689.73	30.43
689.86	56.17
690.00	0.00
690.13	53.83
690.27	25.75
690.41	14.04
690.54	65.54
690.68	79.58
690.81	65.54
690.95	51.49
691.08	0.00
691.22	18.72
691.35	0.00
691.49	32.77
691.62	21.06
691.76	7.02
691.89	4.68
692.03	0.00
692.16	0.00
692.30	107.66
692.43	72.56
692.57	271.50
692.70	472.79
692.84	564.07
692.97	512.58
693.11	369.80
693.24	346.40
693.38	140.43
693.51	128.73
693.65	131.07
693.78	107.66
693.92	16.38
694.05	65.54
694.19	88.94
694.32	9.36
694.45	44.47
694.59	7.02
694.72	74.90
694.86	0.00
694.99	9.36
695.13	131.07
695.26	0.00
695.39	65.54
695.53	102.98
695.66	4.68
695.80	0.00
695.93	44.47
696.07	2.34
696.20	46.81
696.33	39.79
696.47	105.32
696.60	88.94
696.73	53.83
696.87	35.11
697.00	60.85
697.14	0.00
697.27	121.71
697.40	28.09
697.54	35.11
697.67	0.00
697.80	32.77
697.94	53.83
698.07	46.81
698.21	37.45
698.34	37.45
698.47	23.41
698.61	0.00
698.74	7.02
698.87	86.60
699.01	39.79
699.14	23.41
699.27	56.17
699.40	65.54
699.54	42.13
699.67	84.26
699.80	16.38
699.94	79.58
700.07	65.54
700.20	105.32
700.34	93.62
700.47	11.70
700.60	37.45
700.73	23.41
700.87	30.43
701.00	11.70
701.13	21.06
701.26	60.85
701.40	28.09
701.53	32.77
701.66	0.00
701.79	0.00
701.93	39.79
702.06	49.15
702.19	0.00
702.32	21.06
702.46	102.98
702.59	110.01
702.72	72.56
702.85	341.72
702.99	645.99
703.12	903.45
703.25	947.92
703.38	873.02
703.51	770.04
703.65	580.45
703.78	393.21
703.91	187.24
704.04	168.52
704.17	131.07
704.31	91.28
704.44	91.28
704.57	112.35
704.70	0.00
704.83	74.90
704.96	0.00
705.10	0.00
705.23	0.00
>>>>>End Processed Spectral Data<<<<<
