SpectraSuite Data File
++++++++++++++++++++++++++++++++++++
Date: Fri Oct 04 12:13:38 GMT-05:00 2013
User: price-jones
Dark Spectrum Present: No
Reference Spectrum Present: No
Number of Sampled Component Spectra: 1
Spectrometers: USB2+H05261
Integration Time (usec): 10000 (USB2+H05261)
Spectra Averaged: 1 (USB2+H05261)
Boxcar Smoothing: 0 (USB2+H05261)
Correct for Electrical Dark: No (USB2+H05261)
Strobe/Lamp Enabled: No (USB2+H05261)
Correct for Detector Non-linearity: No (USB2+H05261)
Correct for Stray Light: No (USB2+H05261)
Number of Pixels in Processed Spectrum: 2048
>>>>>Begin Processed Spectral Data<<<<<
365.73	0.00
365.92	0.00
366.12	0.00
366.32	0.00
366.52	0.00
366.72	0.00
366.91	0.00
367.11	0.00
367.31	0.00
367.51	0.00
367.70	0.00
367.90	0.00
368.10	0.00
368.30	0.00
368.49	0.00
368.69	0.00
368.89	0.00
369.09	0.00
369.28	0.00
369.48	0.00
369.68	0.00
369.87	0.00
370.07	0.00
370.27	0.00
370.47	0.00
370.66	0.00
370.86	0.00
371.06	0.00
371.25	11.70
371.45	0.00
371.65	2.34
371.84	28.09
372.04	7.02
372.24	0.00
372.44	0.00
372.63	46.81
372.83	16.38
373.03	44.47
373.22	4.68
373.42	39.79
373.62	30.43
373.81	46.81
374.01	0.00
374.21	51.49
374.40	2.34
374.60	39.79
374.79	23.41
374.99	9.36
375.19	0.00
375.38	4.68
375.58	39.79
375.78	30.43
375.97	7.02
376.17	28.09
376.37	0.00
376.56	7.02
376.76	51.49
376.95	4.68
377.15	32.77
377.35	53.83
377.54	51.49
377.74	28.09
377.93	35.11
378.13	21.06
378.33	14.04
378.52	46.81
378.72	0.00
378.91	60.85
379.11	0.00
379.31	42.13
379.50	63.19
379.70	0.00
379.89	65.54
380.09	0.00
380.28	67.88
380.48	2.34
380.68	23.41
380.87	0.00
381.07	32.77
381.26	0.00
381.46	0.00
381.65	37.45
381.85	0.00
382.04	28.09
382.24	0.00
382.43	30.43
382.63	74.90
382.83	14.04
383.02	32.77
383.22	30.43
383.41	9.36
383.61	0.00
383.80	25.75
384.00	18.72
384.19	88.94
384.39	0.00
384.58	37.45
384.78	0.00
384.97	56.17
385.17	37.45
385.36	56.17
385.56	28.09
385.75	0.00
385.95	0.00
386.14	0.00
386.34	51.49
386.53	70.22
386.72	119.37
386.92	39.79
387.11	32.77
387.31	70.22
387.50	67.88
387.70	0.00
387.89	23.41
388.09	63.19
388.28	0.00
388.48	4.68
388.67	42.13
388.86	74.90
389.06	4.68
389.25	93.62
389.45	25.75
389.64	0.00
389.84	23.41
390.03	0.00
390.22	0.00
390.42	51.49
390.61	23.41
390.81	0.00
391.00	0.00
391.19	44.47
391.39	21.06
391.58	0.00
391.78	9.36
391.97	14.04
392.16	0.00
392.36	21.06
392.55	65.54
392.75	46.81
392.94	18.72
393.13	79.58
393.33	9.36
393.52	4.68
393.71	35.11
393.91	93.62
394.10	28.09
394.29	0.00
394.49	72.56
394.68	74.90
394.88	74.90
395.07	4.68
395.26	21.06
395.46	11.70
395.65	46.81
395.84	0.00
396.04	11.70
396.23	37.45
396.42	0.00
396.62	63.19
396.81	67.88
397.00	14.04
397.19	37.45
397.39	159.16
397.58	18.72
397.77	4.68
397.97	30.43
398.16	0.00
398.35	0.00
398.55	14.04
398.74	56.17
398.93	0.00
399.12	9.36
399.32	0.00
399.51	53.83
399.70	14.04
399.90	84.26
400.09	2.34
400.28	32.77
400.47	39.79
400.67	88.94
400.86	9.36
401.05	25.75
401.24	32.77
401.44	0.00
401.63	0.00
401.82	0.00
402.01	0.00
402.21	37.45
402.40	56.17
402.59	30.43
402.78	105.32
402.97	0.00
403.17	100.64
403.36	58.51
403.55	93.62
403.74	49.15
403.93	11.70
404.13	23.41
404.32	0.00
404.51	42.13
404.70	58.51
404.89	0.00
405.09	39.79
405.28	23.41
405.47	9.36
405.66	2.34
405.85	28.09
406.05	81.92
406.24	51.49
406.43	67.88
406.62	46.81
406.81	44.47
407.00	135.75
407.20	51.49
407.39	28.09
407.58	39.79
407.77	21.06
407.96	70.22
408.15	98.30
408.34	25.75
408.54	70.22
408.73	67.88
408.92	42.13
409.11	16.38
409.30	35.11
409.49	84.26
409.68	81.92
409.87	49.15
410.07	14.04
410.26	0.00
410.45	70.22
410.64	28.09
410.83	0.00
411.02	0.00
411.21	53.83
411.40	95.96
411.59	67.88
411.78	9.36
411.98	0.00
412.17	2.34
412.36	121.71
412.55	25.75
412.74	18.72
412.93	102.98
413.12	0.00
413.31	88.94
413.50	42.13
413.69	46.81
413.88	14.04
414.07	133.41
414.26	0.00
414.45	0.00
414.64	2.34
414.83	86.60
415.02	11.70
415.22	0.00
415.41	0.00
415.60	49.15
415.79	51.49
415.98	32.77
416.17	37.45
416.36	14.04
416.55	70.22
416.74	0.00
416.93	65.54
417.12	44.47
417.31	32.77
417.50	46.81
417.69	18.72
417.88	23.41
418.07	63.19
418.26	39.79
418.45	16.38
418.64	74.90
418.83	58.51
419.02	0.00
419.21	46.81
419.39	0.00
419.58	14.04
419.77	65.54
419.96	11.70
420.15	46.81
420.34	65.54
420.53	77.24
420.72	23.41
420.91	14.04
421.10	63.19
421.29	39.79
421.48	9.36
421.67	11.70
421.86	88.94
422.05	74.90
422.24	107.66
422.43	32.77
422.61	28.09
422.80	63.19
422.99	32.77
423.18	110.01
423.37	58.51
423.56	25.75
423.75	23.41
423.94	56.17
424.13	0.00
424.32	46.81
424.50	46.81
424.69	0.00
424.88	9.36
425.07	98.30
425.26	49.15
425.45	88.94
425.64	91.28
425.83	72.56
426.01	37.45
426.20	49.15
426.39	58.51
426.58	49.15
426.77	0.00
426.96	11.70
427.15	7.02
427.33	46.81
427.52	16.38
427.71	0.00
427.90	39.79
428.09	39.79
428.28	37.45
428.46	74.90
428.65	0.00
428.84	4.68
429.03	39.79
429.22	77.24
429.40	23.41
429.59	14.04
429.78	84.26
429.97	16.38
430.16	0.00
430.34	70.22
430.53	0.00
430.72	25.75
430.91	70.22
431.10	70.22
431.28	42.13
431.47	67.88
431.66	105.32
431.85	35.11
432.03	65.54
432.22	74.90
432.41	49.15
432.60	58.51
432.79	53.83
432.97	11.70
433.16	30.43
433.35	37.45
433.54	60.85
433.72	11.70
433.91	39.79
434.10	28.09
434.28	74.90
434.47	112.35
434.66	0.00
434.85	77.24
435.03	42.13
435.22	0.00
435.41	9.36
435.59	65.54
435.78	0.00
435.97	100.64
436.16	56.17
436.34	53.83
436.53	0.00
436.72	0.00
436.90	93.62
437.09	70.22
437.28	9.36
437.46	91.28
437.65	28.09
437.84	74.90
438.02	60.85
438.21	0.00
438.40	2.34
438.58	70.22
438.77	77.24
438.96	91.28
439.14	74.90
439.33	30.43
439.52	2.34
439.70	67.88
439.89	119.37
440.08	0.00
440.26	16.38
440.45	102.98
440.63	56.17
440.82	14.04
441.01	63.19
441.19	77.24
441.38	16.38
441.57	56.17
441.75	32.77
441.94	28.09
442.12	39.79
442.31	0.00
442.50	88.94
442.68	35.11
442.87	124.05
443.05	30.43
443.24	46.81
443.43	0.00
443.61	49.15
443.80	77.24
443.98	72.56
444.17	63.19
444.35	9.36
444.54	0.00
444.73	74.90
444.91	100.64
445.10	35.11
445.28	0.00
445.47	7.02
445.65	65.54
445.84	91.28
446.02	117.03
446.21	28.09
446.39	133.41
446.58	44.47
446.77	16.38
446.95	46.81
447.14	79.58
447.32	18.72
447.51	81.92
447.69	44.47
447.88	72.56
448.06	156.82
448.25	28.09
448.43	42.13
448.62	67.88
448.80	28.09
448.99	21.06
449.17	77.24
449.36	0.00
449.54	72.56
449.73	74.90
449.91	100.64
450.10	63.19
450.28	32.77
450.46	112.35
450.65	126.39
450.83	65.54
451.02	0.00
451.20	14.04
451.39	44.47
451.57	25.75
451.76	18.72
451.94	56.17
452.13	2.34
452.31	39.79
452.49	32.77
452.68	74.90
452.86	0.00
453.05	0.00
453.23	16.38
453.42	72.56
453.60	72.56
453.78	84.26
453.97	86.60
454.15	46.81
454.34	74.90
454.52	65.54
454.70	63.19
454.89	46.81
455.07	18.72
455.26	0.00
455.44	124.05
455.62	95.96
455.81	39.79
455.99	11.70
456.17	51.49
456.36	98.30
456.54	135.75
456.73	72.56
456.91	42.13
457.09	28.09
457.28	51.49
457.46	81.92
457.64	56.17
457.83	9.36
458.01	42.13
458.19	25.75
458.38	42.13
458.56	53.83
458.74	88.94
458.93	112.35
459.11	23.41
459.29	91.28
459.48	53.83
459.66	102.98
459.84	16.38
460.03	67.88
460.21	93.62
460.39	98.30
460.57	56.17
460.76	42.13
460.94	44.47
461.12	53.83
461.31	0.00
461.49	39.79
461.67	84.26
461.85	37.45
462.04	63.19
462.22	86.60
462.40	51.49
462.59	98.30
462.77	21.06
462.95	70.22
463.13	53.83
463.32	65.54
463.50	77.24
463.68	35.11
463.86	46.81
464.05	28.09
464.23	117.03
464.41	70.22
464.59	100.64
464.78	70.22
464.96	63.19
465.14	81.92
465.32	51.49
465.50	21.06
465.69	100.64
465.87	84.26
466.05	107.66
466.23	25.75
466.41	63.19
466.60	28.09
466.78	77.24
466.96	102.98
467.14	65.54
467.32	84.26
467.51	30.43
467.69	21.06
467.87	107.66
468.05	117.03
468.23	44.47
468.41	51.49
468.60	46.81
468.78	102.98
468.96	0.00
469.14	53.83
469.32	117.03
469.50	81.92
469.69	18.72
469.87	140.43
470.05	0.00
470.23	0.00
470.41	98.30
470.59	131.07
470.77	49.15
470.95	0.00
471.14	0.00
471.32	37.45
471.50	70.22
471.68	39.79
471.86	0.00
472.04	60.85
472.22	114.69
472.40	67.88
472.58	25.75
472.77	65.54
472.95	86.60
473.13	16.38
473.31	95.96
473.49	65.54
473.67	37.45
473.85	0.00
474.03	117.03
474.21	0.00
474.39	107.66
474.57	56.17
474.75	44.47
474.93	42.13
475.12	35.11
475.30	21.06
475.48	32.77
475.66	65.54
475.84	81.92
476.02	23.41
476.20	65.54
476.38	35.11
476.56	28.09
476.74	14.04
476.92	86.60
477.10	56.17
477.28	102.98
477.46	102.98
477.64	81.92
477.82	53.83
478.00	44.47
478.18	100.64
478.36	67.88
478.54	4.68
478.72	135.75
478.90	84.26
479.08	81.92
479.26	14.04
479.44	65.54
479.62	65.54
479.80	42.13
479.98	32.77
480.16	56.17
480.34	67.88
480.52	77.24
480.70	114.69
480.88	7.02
481.06	9.36
481.24	63.19
481.41	35.11
481.59	0.00
481.77	28.09
481.95	58.51
482.13	84.26
482.31	65.54
482.49	86.60
482.67	135.75
482.85	23.41
483.03	44.47
483.21	107.66
483.39	0.00
483.57	37.45
483.74	74.90
483.92	65.54
484.10	126.39
484.28	0.00
484.46	16.38
484.64	56.17
484.82	0.00
485.00	100.64
485.18	25.75
485.35	42.13
485.53	18.72
485.71	4.68
485.89	0.00
486.07	37.45
486.25	42.13
486.43	0.00
486.61	105.32
486.78	0.00
486.96	46.81
487.14	49.15
487.32	51.49
487.50	21.06
487.68	72.56
487.85	93.62
488.03	39.79
488.21	126.39
488.39	84.26
488.57	60.85
488.75	28.09
488.92	117.03
489.10	30.43
489.28	39.79
489.46	44.47
489.64	81.92
489.81	53.83
489.99	39.79
490.17	30.43
490.35	86.60
490.53	107.66
490.70	60.85
490.88	119.37
491.06	98.30
491.24	39.79
491.41	135.75
491.59	100.64
491.77	25.75
491.95	9.36
492.13	114.69
492.30	100.64
492.48	119.37
492.66	124.05
492.84	95.96
493.01	60.85
493.19	95.96
493.37	102.98
493.54	74.90
493.72	74.90
493.90	110.01
494.08	72.56
494.25	100.64
494.43	51.49
494.61	79.58
494.79	98.30
494.96	81.92
495.14	110.01
495.32	65.54
495.49	37.45
495.67	187.24
495.85	37.45
496.02	77.24
496.20	119.37
496.38	39.79
496.55	77.24
496.73	63.19
496.91	72.56
497.09	49.15
497.26	91.28
497.44	74.90
497.62	110.01
497.79	88.94
497.97	11.70
498.14	79.58
498.32	107.66
498.50	128.73
498.67	23.41
498.85	88.94
499.03	88.94
499.20	72.56
499.38	100.64
499.56	124.05
499.73	121.71
499.91	88.94
500.08	28.09
500.26	95.96
500.44	79.58
500.61	126.39
500.79	121.71
500.97	147.45
501.14	46.81
501.32	119.37
501.49	32.77
501.67	35.11
501.84	86.60
502.02	77.24
502.20	4.68
502.37	46.81
502.55	46.81
502.72	112.35
502.90	175.54
503.07	14.04
503.25	70.22
503.43	49.15
503.60	110.01
503.78	56.17
503.95	67.88
504.13	98.30
504.30	163.84
504.48	39.79
504.65	39.79
504.83	88.94
505.01	16.38
505.18	30.43
505.36	39.79
505.53	32.77
505.71	42.13
505.88	98.30
506.06	84.26
506.23	74.90
506.41	21.06
506.58	119.37
506.76	161.50
506.93	117.03
507.11	124.05
507.28	88.94
507.46	25.75
507.63	84.26
507.81	126.39
507.98	79.58
508.16	28.09
508.33	119.37
508.50	0.00
508.68	72.56
508.85	72.56
509.03	58.51
509.20	105.32
509.38	60.85
509.55	142.77
509.73	154.48
509.90	63.19
510.08	135.75
510.25	65.54
510.42	140.43
510.60	114.69
510.77	74.90
510.95	72.56
511.12	63.19
511.30	77.24
511.47	121.71
511.64	126.39
511.82	77.24
511.99	93.62
512.17	135.75
512.34	133.41
512.51	117.03
512.69	107.66
512.86	79.58
513.04	84.26
513.21	79.58
513.38	93.62
513.56	140.43
513.73	95.96
513.90	37.45
514.08	117.03
514.25	126.39
514.43	93.62
514.60	67.88
514.77	63.19
514.95	70.22
515.12	84.26
515.29	91.28
515.47	74.90
515.64	93.62
515.81	110.01
515.99	79.58
516.16	84.26
516.33	86.60
516.51	86.60
516.68	9.36
516.85	98.30
517.03	88.94
517.20	37.45
517.37	28.09
517.54	86.60
517.72	16.38
517.89	93.62
518.06	77.24
518.24	79.58
518.41	0.00
518.58	51.49
518.75	145.11
518.93	102.98
519.10	60.85
519.27	128.73
519.45	70.22
519.62	107.66
519.79	70.22
519.96	112.35
520.14	23.41
520.31	58.51
520.48	110.01
520.65	60.85
520.83	14.04
521.00	114.69
521.17	88.94
521.34	102.98
521.52	93.62
521.69	63.19
521.86	98.30
522.03	74.90
522.20	86.60
522.38	86.60
522.55	133.41
522.72	63.19
522.89	65.54
523.07	95.96
523.24	105.32
523.41	131.07
523.58	77.24
523.75	98.30
523.92	140.43
524.10	102.98
524.27	105.32
524.44	135.75
524.61	53.83
524.78	100.64
524.96	74.90
525.13	56.17
525.30	86.60
525.47	117.03
525.64	88.94
525.81	114.69
525.98	67.88
526.16	67.88
526.33	86.60
526.50	70.22
526.67	117.03
526.84	81.92
527.01	58.51
527.18	39.79
527.36	93.62
527.53	14.04
527.70	70.22
527.87	74.90
528.04	53.83
528.21	74.90
528.38	102.98
528.55	79.58
528.72	32.77
528.89	93.62
529.07	18.72
529.24	14.04
529.41	91.28
529.58	173.20
529.75	100.64
529.92	91.28
530.09	37.45
530.26	70.22
530.43	133.41
530.60	121.71
530.77	93.62
530.94	128.73
531.11	67.88
531.28	35.11
531.46	159.16
531.63	44.47
531.80	112.35
531.97	25.75
532.14	39.79
532.31	32.77
532.48	46.81
532.65	72.56
532.82	114.69
532.99	86.60
533.16	105.32
533.33	44.47
533.50	74.90
533.67	102.98
533.84	126.39
534.01	79.58
534.18	110.01
534.35	51.49
534.52	98.30
534.69	105.32
534.86	58.51
535.03	39.79
535.20	86.60
535.37	81.92
535.54	133.41
535.71	88.94
535.88	56.17
536.05	93.62
536.22	84.26
536.38	93.62
536.55	110.01
536.72	110.01
536.89	84.26
537.06	63.19
537.23	74.90
537.40	58.51
537.57	49.15
537.74	63.19
537.91	70.22
538.08	58.51
538.25	138.09
538.42	138.09
538.59	77.24
538.75	63.19
538.92	128.73
539.09	135.75
539.26	88.94
539.43	105.32
539.60	65.54
539.77	44.47
539.94	93.62
540.11	110.01
540.28	100.64
540.44	84.26
540.61	114.69
540.78	79.58
540.95	110.01
541.12	102.98
541.29	70.22
541.46	72.56
541.62	112.35
541.79	102.98
541.96	107.66
542.13	107.66
542.30	0.00
542.47	95.96
542.63	110.01
542.80	147.45
542.97	93.62
543.14	100.64
543.31	32.77
543.48	67.88
543.64	121.71
543.81	81.92
543.98	56.17
544.15	37.45
544.32	86.60
544.48	86.60
544.65	25.75
544.82	72.56
544.99	131.07
545.16	154.48
545.32	91.28
545.49	88.94
545.66	98.30
545.83	93.62
546.00	149.79
546.16	60.85
546.33	65.54
546.50	49.15
546.67	35.11
546.83	107.66
547.00	105.32
547.17	117.03
547.34	93.62
547.50	100.64
547.67	81.92
547.84	147.45
548.00	79.58
548.17	95.96
548.34	86.60
548.51	102.98
548.67	107.66
548.84	37.45
549.01	9.36
549.18	114.69
549.34	81.92
549.51	100.64
549.68	67.88
549.84	142.77
550.01	119.37
550.18	49.15
550.34	86.60
550.51	128.73
550.68	98.30
550.84	119.37
551.01	105.32
551.18	70.22
551.34	58.51
551.51	86.60
551.68	102.98
551.84	126.39
552.01	56.17
552.18	28.09
552.34	7.02
552.51	81.92
552.68	142.77
552.84	149.79
553.01	117.03
553.18	135.75
553.34	58.51
553.51	112.35
553.67	138.09
553.84	79.58
554.01	117.03
554.17	110.01
554.34	14.04
554.51	121.71
554.67	67.88
554.84	121.71
555.00	98.30
555.17	117.03
555.33	119.37
555.50	168.52
555.67	74.90
555.83	98.30
556.00	93.62
556.16	77.24
556.33	107.66
556.50	93.62
556.66	72.56
556.83	56.17
556.99	81.92
557.16	79.58
557.32	67.88
557.49	44.47
557.65	65.54
557.82	32.77
557.98	154.48
558.15	72.56
558.32	72.56
558.48	44.47
558.65	88.94
558.81	30.43
558.98	67.88
559.14	117.03
559.31	63.19
559.47	112.35
559.64	86.60
559.80	39.79
559.97	88.94
560.13	39.79
560.30	86.60
560.46	53.83
560.63	112.35
560.79	37.45
560.96	30.43
561.12	79.58
561.29	86.60
561.45	105.32
561.61	124.05
561.78	112.35
561.94	117.03
562.11	93.62
562.27	72.56
562.44	149.79
562.60	42.13
562.77	140.43
562.93	105.32
563.10	105.32
563.26	117.03
563.42	126.39
563.59	49.15
563.75	107.66
563.92	49.15
564.08	74.90
564.24	88.94
564.41	84.26
564.57	126.39
564.74	77.24
564.90	67.88
565.07	91.28
565.23	4.68
565.39	72.56
565.56	95.96
565.72	46.81
565.88	53.83
566.05	93.62
566.21	46.81
566.38	53.83
566.54	88.94
566.70	32.77
566.87	142.77
567.03	44.47
567.19	124.05
567.36	77.24
567.52	77.24
567.68	56.17
567.85	42.13
568.01	93.62
568.17	112.35
568.34	124.05
568.50	93.62
568.66	86.60
568.83	39.79
568.99	42.13
569.15	30.43
569.32	72.56
569.48	58.51
569.64	32.77
569.81	72.56
569.97	32.77
570.13	86.60
570.30	88.94
570.46	0.00
570.62	49.15
570.78	49.15
570.95	51.49
571.11	79.58
571.27	77.24
571.43	72.56
571.60	37.45
571.76	91.28
571.92	18.72
572.09	131.07
572.25	65.54
572.41	131.07
572.57	11.70
572.74	91.28
572.90	60.85
573.06	28.09
573.22	32.77
573.38	93.62
573.55	58.51
573.71	49.15
573.87	0.00
574.03	133.41
574.20	37.45
574.36	67.88
574.52	44.47
574.68	53.83
574.84	110.01
575.01	42.13
575.17	168.52
575.33	56.17
575.49	70.22
575.65	67.88
575.82	63.19
575.98	74.90
576.14	131.07
576.30	46.81
576.46	131.07
576.62	0.00
576.79	32.77
576.95	65.54
577.11	46.81
577.27	77.24
577.43	107.66
577.59	4.68
577.75	86.60
577.92	28.09
578.08	91.28
578.24	35.11
578.40	63.19
578.56	93.62
578.72	138.09
578.88	21.06
579.04	88.94
579.21	77.24
579.37	84.26
579.53	51.49
579.69	107.66
579.85	56.17
580.01	102.98
580.17	63.19
580.33	70.22
580.49	56.17
580.65	67.88
580.82	74.90
580.98	23.41
581.14	44.47
581.30	166.18
581.46	86.60
581.62	98.30
581.78	201.29
581.94	119.37
582.10	175.54
582.26	58.51
582.42	49.15
582.58	119.37
582.74	32.77
582.90	112.35
583.06	37.45
583.22	110.01
583.38	72.56
583.54	74.90
583.70	67.88
583.86	107.66
584.02	124.05
584.18	88.94
584.34	42.13
584.50	121.71
584.66	93.62
584.82	86.60
584.98	114.69
585.14	98.30
585.30	81.92
585.46	81.92
585.62	70.22
585.78	88.94
585.94	51.49
586.10	133.41
586.26	81.92
586.42	53.83
586.58	77.24
586.74	98.30
586.90	86.60
587.06	65.54
587.22	107.66
587.38	28.09
587.54	72.56
587.70	51.49
587.86	93.62
588.02	70.22
588.18	58.51
588.34	77.24
588.49	149.79
588.65	16.38
588.81	28.09
588.97	0.00
589.13	65.54
589.29	119.37
589.45	117.03
589.61	114.69
589.77	91.28
589.93	128.73
590.08	133.41
590.24	67.88
590.40	42.13
590.56	23.41
590.72	56.17
590.88	131.07
591.04	65.54
591.20	53.83
591.35	0.00
591.51	112.35
591.67	51.49
591.83	166.18
591.99	42.13
592.15	86.60
592.31	65.54
592.46	74.90
592.62	72.56
592.78	93.62
592.94	58.51
593.10	79.58
593.26	107.66
593.41	72.56
593.57	86.60
593.73	133.41
593.89	67.88
594.05	49.15
594.20	46.81
594.36	145.11
594.52	77.24
594.68	107.66
594.84	51.49
594.99	0.00
595.15	35.11
595.31	37.45
595.47	168.52
595.62	93.62
595.78	28.09
595.94	138.09
596.10	110.01
596.25	67.88
596.41	100.64
596.57	56.17
596.73	70.22
596.88	0.00
597.04	39.79
597.20	98.30
597.36	58.51
597.51	63.19
597.67	53.83
597.83	30.43
597.99	58.51
598.14	95.96
598.30	51.49
598.46	7.02
598.61	86.60
598.77	44.47
598.93	107.66
599.09	56.17
599.24	110.01
599.40	86.60
599.56	100.64
599.71	166.18
599.87	49.15
600.03	70.22
600.18	72.56
600.34	121.71
600.50	35.11
600.65	88.94
600.81	14.04
600.97	65.54
601.12	110.01
601.28	60.85
601.44	95.96
601.59	88.94
601.75	131.07
601.91	16.38
602.06	84.26
602.22	70.22
602.37	25.75
602.53	2.34
602.69	95.96
602.84	107.66
603.00	42.13
603.16	32.77
603.31	49.15
603.47	53.83
603.62	65.54
603.78	79.58
603.94	46.81
604.09	131.07
604.25	105.32
604.40	149.79
604.56	105.32
604.71	140.43
604.87	135.75
605.03	93.62
605.18	95.96
605.34	70.22
605.49	112.35
605.65	126.39
605.80	53.83
605.96	131.07
606.12	91.28
606.27	21.06
606.43	65.54
606.58	35.11
606.74	60.85
606.89	67.88
607.05	81.92
607.20	67.88
607.36	67.88
607.51	105.32
607.67	72.56
607.82	16.38
607.98	145.11
608.13	100.64
608.29	79.58
608.44	140.43
608.60	58.51
608.75	25.75
608.91	107.66
609.06	100.64
609.22	58.51
609.37	39.79
609.53	65.54
609.68	74.90
609.84	2.34
609.99	65.54
610.15	117.03
610.30	30.43
610.46	35.11
610.61	51.49
610.76	74.90
610.92	79.58
611.07	51.49
611.23	81.92
611.38	121.71
611.54	49.15
611.69	39.79
611.84	35.11
612.00	49.15
612.15	14.04
612.31	21.06
612.46	88.94
612.62	58.51
612.77	63.19
612.92	49.15
613.08	32.77
613.23	79.58
613.39	63.19
613.54	63.19
613.69	42.13
613.85	53.83
614.00	72.56
614.15	156.82
614.31	39.79
614.46	135.75
614.62	67.88
614.77	102.98
614.92	119.37
615.08	21.06
615.23	56.17
615.38	72.56
615.54	65.54
615.69	74.90
615.84	74.90
616.00	91.28
616.15	46.81
616.30	65.54
616.46	30.43
616.61	42.13
616.76	53.83
616.92	35.11
617.07	16.38
617.22	37.45
617.37	44.47
617.53	145.11
617.68	77.24
617.83	84.26
617.99	35.11
618.14	67.88
618.29	18.72
618.45	86.60
618.60	7.02
618.75	37.45
618.90	105.32
619.06	86.60
619.21	46.81
619.36	102.98
619.51	23.41
619.67	63.19
619.82	100.64
619.97	30.43
620.12	67.88
620.28	25.75
620.43	79.58
620.58	95.96
620.73	81.92
620.89	81.92
621.04	70.22
621.19	18.72
621.34	0.00
621.49	0.00
621.65	37.45
621.80	35.11
621.95	72.56
622.10	60.85
622.25	56.17
622.41	4.68
622.56	72.56
622.71	105.32
622.86	117.03
623.01	65.54
623.16	84.26
623.32	35.11
623.47	93.62
623.62	21.06
623.77	49.15
623.92	88.94
624.07	28.09
624.23	46.81
624.38	77.24
624.53	79.58
624.68	32.77
624.83	42.13
624.98	74.90
625.13	0.00
625.29	0.00
625.44	102.98
625.59	51.49
625.74	67.88
625.89	88.94
626.04	88.94
626.19	35.11
626.34	30.43
626.49	63.19
626.65	39.79
626.80	0.00
626.95	154.48
627.10	49.15
627.25	16.38
627.40	117.03
627.55	0.00
627.70	35.11
627.85	65.54
628.00	2.34
628.15	77.24
628.30	131.07
628.45	63.19
628.60	86.60
628.76	100.64
628.91	11.70
629.06	65.54
629.21	70.22
629.36	56.17
629.51	35.11
629.66	53.83
629.81	56.17
629.96	121.71
630.11	37.45
630.26	35.11
630.41	95.96
630.56	91.28
630.71	18.72
630.86	74.90
631.01	14.04
631.16	51.49
631.31	46.81
631.46	37.45
631.61	77.24
631.76	81.92
631.91	79.58
632.06	58.51
632.21	126.39
632.36	28.09
632.51	25.75
632.66	0.00
632.81	58.51
632.96	16.38
633.10	60.85
633.25	81.92
633.40	0.00
633.55	7.02
633.70	105.32
633.85	39.79
634.00	77.24
634.15	30.43
634.30	58.51
634.45	2.34
634.60	105.32
634.75	81.92
634.90	37.45
635.05	53.83
635.19	91.28
635.34	58.51
635.49	23.41
635.64	51.49
635.79	79.58
635.94	37.45
636.09	60.85
636.24	44.47
636.39	53.83
636.53	56.17
636.68	2.34
636.83	35.11
636.98	77.24
637.13	63.19
637.28	51.49
637.43	14.04
637.57	7.02
637.72	119.37
637.87	112.35
638.02	98.30
638.17	91.28
638.32	91.28
638.46	42.13
638.61	0.00
638.76	25.75
638.91	102.98
639.06	42.13
639.20	74.90
639.35	46.81
639.50	28.09
639.65	46.81
639.80	56.17
639.94	86.60
640.09	42.13
640.24	152.13
640.39	60.85
640.54	39.79
640.68	39.79
640.83	124.05
640.98	102.98
641.13	28.09
641.27	163.84
641.42	70.22
641.57	93.62
641.72	49.15
641.86	51.49
642.01	102.98
642.16	147.45
642.31	98.30
642.45	88.94
642.60	35.11
642.75	128.73
642.90	121.71
643.04	65.54
643.19	49.15
643.34	0.00
643.48	46.81
643.63	18.72
643.78	44.47
643.93	11.70
644.07	86.60
644.22	0.00
644.37	0.00
644.51	79.58
644.66	70.22
644.81	60.85
644.95	119.37
645.10	14.04
645.25	112.35
645.39	95.96
645.54	42.13
645.69	39.79
645.83	25.75
645.98	79.58
646.13	49.15
646.27	58.51
646.42	60.85
646.57	30.43
646.71	86.60
646.86	72.56
647.00	30.43
647.15	60.85
647.30	23.41
647.44	63.19
647.59	98.30
647.74	84.26
647.88	51.49
648.03	0.00
648.17	67.88
648.32	119.37
648.47	51.49
648.61	74.90
648.76	18.72
648.90	112.35
649.05	0.00
649.20	56.17
649.34	63.19
649.49	25.75
649.63	93.62
649.78	74.90
649.92	25.75
650.07	7.02
650.21	63.19
650.36	79.58
650.51	23.41
650.65	74.90
650.80	0.00
650.94	16.38
651.09	53.83
651.23	2.34
651.38	0.00
651.52	44.47
651.67	91.28
651.81	49.15
651.96	98.30
652.10	53.83
652.25	53.83
652.39	0.00
652.54	72.56
652.68	88.94
652.83	67.88
652.97	32.77
653.12	18.72
653.26	32.77
653.41	44.47
653.55	28.09
653.70	14.04
653.84	53.83
653.99	63.19
654.13	60.85
654.27	30.43
654.42	44.47
654.56	49.15
654.71	63.19
654.85	63.19
655.00	117.03
655.14	84.26
655.29	11.70
655.43	72.56
655.57	0.00
655.72	145.11
655.86	56.17
656.01	91.28
656.15	25.75
656.30	11.70
656.44	46.81
656.58	74.90
656.73	0.00
656.87	44.47
657.01	65.54
657.16	65.54
657.30	44.47
657.45	0.00
657.59	84.26
657.73	81.92
657.88	98.30
658.02	11.70
658.16	14.04
658.31	72.56
658.45	56.17
658.60	60.85
658.74	98.30
658.88	25.75
659.03	112.35
659.17	147.45
659.31	91.28
659.46	110.01
659.60	4.68
659.74	63.19
659.89	72.56
660.03	65.54
660.17	44.47
660.32	60.85
660.46	0.00
660.60	35.11
660.74	91.28
660.89	46.81
661.03	79.58
661.17	46.81
661.32	67.88
661.46	65.54
661.60	39.79
661.74	88.94
661.89	37.45
662.03	91.28
662.17	84.26
662.31	65.54
662.46	46.81
662.60	91.28
662.74	23.41
662.88	9.36
663.03	25.75
663.17	21.06
663.31	9.36
663.45	86.60
663.60	23.41
663.74	98.30
663.88	84.26
664.02	23.41
664.17	65.54
664.31	39.79
664.45	102.98
664.59	9.36
664.73	72.56
664.88	88.94
665.02	32.77
665.16	70.22
665.30	114.69
665.44	4.68
665.59	42.13
665.73	2.34
665.87	0.00
666.01	46.81
666.15	23.41
666.29	51.49
666.44	98.30
666.58	91.28
666.72	51.49
666.86	91.28
667.00	79.58
667.14	93.62
667.28	23.41
667.43	18.72
667.57	58.51
667.71	65.54
667.85	117.03
667.99	0.00
668.13	93.62
668.27	56.17
668.41	60.85
668.56	58.51
668.70	51.49
668.84	18.72
668.98	23.41
669.12	56.17
669.26	74.90
669.40	46.81
669.54	119.37
669.68	105.32
669.82	30.43
669.96	18.72
670.10	102.98
670.25	21.06
670.39	21.06
670.53	53.83
670.67	14.04
670.81	93.62
670.95	110.01
671.09	81.92
671.23	60.85
671.37	72.56
671.51	35.11
671.65	46.81
671.79	18.72
671.93	60.85
672.07	110.01
672.21	56.17
672.35	25.75
672.49	86.60
672.63	95.96
672.77	70.22
672.91	0.00
673.05	4.68
673.19	58.51
673.33	56.17
673.47	110.01
673.61	32.77
673.75	14.04
673.89	46.81
674.03	23.41
674.17	11.70
674.31	39.79
674.45	14.04
674.59	44.47
674.73	88.94
674.87	91.28
675.01	0.00
675.15	49.15
675.29	58.51
675.43	35.11
675.56	74.90
675.70	72.56
675.84	65.54
675.98	95.96
676.12	11.70
676.26	21.06
676.40	46.81
676.54	95.96
676.68	58.51
676.82	84.26
676.96	46.81
677.10	14.04
677.23	91.28
677.37	37.45
677.51	93.62
677.65	0.00
677.79	88.94
677.93	105.32
678.07	32.77
678.21	9.36
678.34	0.00
678.48	95.96
678.62	88.94
678.76	56.17
678.90	88.94
679.04	79.58
679.18	63.19
679.31	0.00
679.45	74.90
679.59	35.11
679.73	30.43
679.87	37.45
680.00	105.32
680.14	28.09
680.28	0.00
680.42	91.28
680.56	72.56
680.70	86.60
680.83	70.22
680.97	0.00
681.11	91.28
681.25	0.00
681.39	42.13
681.52	58.51
681.66	67.88
681.80	86.60
681.94	0.00
682.07	9.36
682.21	70.22
682.35	39.79
682.49	4.68
682.62	2.34
682.76	25.75
682.90	44.47
683.04	14.04
683.17	79.58
683.31	51.49
683.45	124.05
683.59	28.09
683.72	81.92
683.86	49.15
684.00	0.00
684.13	65.54
684.27	44.47
684.41	9.36
684.55	42.13
684.68	39.79
684.82	39.79
684.96	4.68
685.09	107.66
685.23	18.72
685.37	84.26
685.50	30.43
685.64	2.34
685.78	86.60
685.91	49.15
686.05	0.00
686.19	35.11
686.32	0.00
686.46	28.09
686.60	35.11
686.73	58.51
686.87	21.06
687.01	23.41
687.14	25.75
687.28	70.22
687.42	53.83
687.55	9.36
687.69	0.00
687.82	0.00
687.96	37.45
688.10	42.13
688.23	70.22
688.37	9.36
688.50	65.54
688.64	30.43
688.78	14.04
688.91	9.36
689.05	0.00
689.18	0.00
689.32	84.26
689.46	18.72
689.59	56.17
689.73	110.01
689.86	49.15
690.00	25.75
690.13	58.51
690.27	25.75
690.41	44.47
690.54	0.00
690.68	0.00
690.81	37.45
690.95	70.22
691.08	46.81
691.22	46.81
691.35	79.58
691.49	58.51
691.62	18.72
691.76	95.96
691.89	0.00
692.03	0.00
692.16	124.05
692.30	53.83
692.43	58.51
692.57	53.83
692.70	72.56
692.84	119.37
692.97	49.15
693.11	51.49
693.24	9.36
693.38	16.38
693.51	44.47
693.65	84.26
693.78	0.00
693.92	39.79
694.05	23.41
694.19	98.30
694.32	4.68
694.45	0.00
694.59	37.45
694.72	9.36
694.86	98.30
694.99	42.13
695.13	0.00
695.26	0.00
695.39	53.83
695.53	25.75
695.66	70.22
695.80	28.09
695.93	110.01
696.07	102.98
696.20	4.68
696.33	53.83
696.47	28.09
696.60	0.00
696.73	65.54
696.87	58.51
697.00	42.13
697.14	65.54
697.27	23.41
697.40	124.05
697.54	60.85
697.67	42.13
697.80	77.24
697.94	53.83
698.07	58.51
698.21	67.88
698.34	58.51
698.47	65.54
698.61	30.43
698.74	81.92
698.87	95.96
699.01	0.00
699.14	46.81
699.27	65.54
699.40	0.00
699.54	0.00
699.67	7.02
699.80	37.45
699.94	0.00
700.07	42.13
700.20	56.17
700.34	70.22
700.47	37.45
700.60	0.00
700.73	74.90
700.87	7.02
701.00	51.49
701.13	74.90
701.26	37.45
701.40	4.68
701.53	2.34
701.66	79.58
701.79	72.56
701.93	16.38
702.06	86.60
702.19	7.02
702.32	42.13
702.46	14.04
702.59	4.68
702.72	21.06
702.85	81.92
702.99	77.24
703.12	11.70
703.25	110.01
703.38	65.54
703.51	39.79
703.65	0.00
703.78	0.00
703.91	35.11
704.04	37.45
704.17	35.11
704.31	0.00
704.44	0.00
704.57	49.15
704.70	0.00
704.83	39.79
704.96	4.68
705.10	63.19
705.23	58.51
>>>>>End Processed Spectral Data<<<<<
