SpectraSuite Data File
++++++++++++++++++++++++++++++++++++
Date: Fri Oct 04 12:13:31 GMT-05:00 2013
User: price-jones
Dark Spectrum Present: No
Reference Spectrum Present: No
Number of Sampled Component Spectra: 1
Spectrometers: USB2+H05261
Integration Time (usec): 10000 (USB2+H05261)
Spectra Averaged: 1 (USB2+H05261)
Boxcar Smoothing: 0 (USB2+H05261)
Correct for Electrical Dark: No (USB2+H05261)
Strobe/Lamp Enabled: No (USB2+H05261)
Correct for Detector Non-linearity: No (USB2+H05261)
Correct for Stray Light: No (USB2+H05261)
Number of Pixels in Processed Spectrum: 2048
>>>>>Begin Processed Spectral Data<<<<<
365.73	7.02
365.92	7.02
366.12	7.02
366.32	0.00
366.52	0.00
366.72	0.00
366.91	0.00
367.11	0.00
367.31	0.00
367.51	0.00
367.70	0.00
367.90	0.00
368.10	0.00
368.30	0.00
368.49	0.00
368.69	0.00
368.89	0.00
369.09	0.00
369.28	0.00
369.48	0.00
369.68	0.00
369.87	0.00
370.07	0.00
370.27	0.00
370.47	0.00
370.66	0.00
370.86	0.00
371.06	0.00
371.25	0.00
371.45	16.38
371.65	7.02
371.84	0.00
372.04	51.49
372.24	0.00
372.44	0.00
372.63	11.70
372.83	91.28
373.03	0.00
373.22	14.04
373.42	37.45
373.62	0.00
373.81	77.24
374.01	4.68
374.21	30.43
374.40	0.00
374.60	21.06
374.79	65.54
374.99	18.72
375.19	35.11
375.38	86.60
375.58	72.56
375.78	16.38
375.97	51.49
376.17	95.96
376.37	51.49
376.56	51.49
376.76	46.81
376.95	9.36
377.15	0.00
377.35	4.68
377.54	42.13
377.74	70.22
377.93	110.01
378.13	0.00
378.33	14.04
378.52	51.49
378.72	0.00
378.91	0.00
379.11	4.68
379.31	16.38
379.50	67.88
379.70	30.43
379.89	0.00
380.09	0.00
380.28	25.75
380.48	0.00
380.68	32.77
380.87	0.00
381.07	86.60
381.26	11.70
381.46	79.58
381.65	0.00
381.85	77.24
382.04	2.34
382.24	23.41
382.43	9.36
382.63	0.00
382.83	0.00
383.02	0.00
383.22	0.00
383.41	72.56
383.61	88.94
383.80	4.68
384.00	39.79
384.19	9.36
384.39	0.00
384.58	72.56
384.78	9.36
384.97	7.02
385.17	37.45
385.36	56.17
385.56	0.00
385.75	21.06
385.95	42.13
386.14	0.00
386.34	11.70
386.53	9.36
386.72	49.15
386.92	0.00
387.11	18.72
387.31	11.70
387.50	60.85
387.70	37.45
387.89	46.81
388.09	35.11
388.28	0.00
388.48	7.02
388.67	16.38
388.86	30.43
389.06	0.00
389.25	46.81
389.45	28.09
389.64	18.72
389.84	9.36
390.03	30.43
390.22	77.24
390.42	67.88
390.61	86.60
390.81	58.51
391.00	32.77
391.19	4.68
391.39	0.00
391.58	0.00
391.78	0.00
391.97	25.75
392.16	0.00
392.36	0.00
392.55	9.36
392.75	39.79
392.94	84.26
393.13	51.49
393.33	25.75
393.52	86.60
393.71	0.00
393.91	23.41
394.10	0.00
394.29	44.47
394.49	77.24
394.68	11.70
394.88	4.68
395.07	37.45
395.26	14.04
395.46	39.79
395.65	53.83
395.84	102.98
396.04	72.56
396.23	28.09
396.42	0.00
396.62	63.19
396.81	18.72
397.00	46.81
397.19	0.00
397.39	0.00
397.58	60.85
397.77	56.17
397.97	56.17
398.16	49.15
398.35	16.38
398.55	53.83
398.74	0.00
398.93	119.37
399.12	23.41
399.32	18.72
399.51	51.49
399.70	30.43
399.90	16.38
400.09	67.88
400.28	9.36
400.47	30.43
400.67	2.34
400.86	0.00
401.05	67.88
401.24	7.02
401.44	7.02
401.63	56.17
401.82	16.38
402.01	39.79
402.21	0.00
402.40	18.72
402.59	28.09
402.78	51.49
402.97	23.41
403.17	60.85
403.36	21.06
403.55	14.04
403.74	18.72
403.93	2.34
404.13	0.00
404.32	74.90
404.51	0.00
404.70	0.00
404.89	30.43
405.09	30.43
405.28	2.34
405.47	0.00
405.66	0.00
405.85	0.00
406.05	53.83
406.24	16.38
406.43	23.41
406.62	42.13
406.81	70.22
407.00	0.00
407.20	23.41
407.39	0.00
407.58	9.36
407.77	14.04
407.96	14.04
408.15	0.00
408.34	0.00
408.54	0.00
408.73	37.45
408.92	2.34
409.11	60.85
409.30	58.51
409.49	58.51
409.68	0.00
409.87	0.00
410.07	18.72
410.26	0.00
410.45	0.00
410.64	0.00
410.83	44.47
411.02	44.47
411.21	58.51
411.40	25.75
411.59	7.02
411.78	0.00
411.98	0.00
412.17	14.04
412.36	0.00
412.55	60.85
412.74	0.00
412.93	0.00
413.12	28.09
413.31	77.24
413.50	18.72
413.69	32.77
413.88	30.43
414.07	35.11
414.26	51.49
414.45	25.75
414.64	0.00
414.83	14.04
415.02	0.00
415.22	63.19
415.41	0.00
415.60	37.45
415.79	44.47
415.98	93.62
416.17	44.47
416.36	0.00
416.55	28.09
416.74	14.04
416.93	49.15
417.12	44.47
417.31	60.85
417.50	98.30
417.69	0.00
417.88	67.88
418.07	11.70
418.26	21.06
418.45	37.45
418.64	14.04
418.83	0.00
419.02	0.00
419.21	39.79
419.39	18.72
419.58	0.00
419.77	46.81
419.96	16.38
420.15	121.71
420.34	67.88
420.53	51.49
420.72	16.38
420.91	0.00
421.10	49.15
421.29	35.11
421.48	67.88
421.67	72.56
421.86	35.11
422.05	67.88
422.24	74.90
422.43	0.00
422.61	0.00
422.80	0.00
422.99	4.68
423.18	0.00
423.37	32.77
423.56	28.09
423.75	14.04
423.94	0.00
424.13	0.00
424.32	35.11
424.50	58.51
424.69	77.24
424.88	53.83
425.07	0.00
425.26	0.00
425.45	46.81
425.64	16.38
425.83	0.00
426.01	11.70
426.20	44.47
426.39	2.34
426.58	7.02
426.77	0.00
426.96	39.79
427.15	67.88
427.33	91.28
427.52	37.45
427.71	88.94
427.90	63.19
428.09	9.36
428.28	0.00
428.46	63.19
428.65	84.26
428.84	77.24
429.03	4.68
429.22	46.81
429.40	74.90
429.59	46.81
429.78	30.43
429.97	56.17
430.16	39.79
430.34	21.06
430.53	0.00
430.72	23.41
430.91	0.00
431.10	32.77
431.28	70.22
431.47	95.96
431.66	28.09
431.85	46.81
432.03	77.24
432.22	88.94
432.41	42.13
432.60	60.85
432.79	16.38
432.97	51.49
433.16	0.00
433.35	32.77
433.54	86.60
433.72	18.72
433.91	53.83
434.10	21.06
434.28	0.00
434.47	14.04
434.66	70.22
434.85	18.72
435.03	21.06
435.22	53.83
435.41	53.83
435.59	107.66
435.78	0.00
435.97	67.88
436.16	21.06
436.34	0.00
436.53	65.54
436.72	37.45
436.90	42.13
437.09	37.45
437.28	11.70
437.46	9.36
437.65	67.88
437.84	7.02
438.02	35.11
438.21	42.13
438.40	63.19
438.58	46.81
438.77	0.00
438.96	14.04
439.14	0.00
439.33	32.77
439.52	30.43
439.70	105.32
439.89	63.19
440.08	0.00
440.26	72.56
440.45	0.00
440.63	23.41
440.82	0.00
441.01	0.00
441.19	51.49
441.38	2.34
441.57	79.58
441.75	2.34
441.94	16.38
442.12	0.00
442.31	0.00
442.50	0.00
442.68	77.24
442.87	4.68
443.05	0.00
443.24	67.88
443.43	37.45
443.61	37.45
443.80	0.00
443.98	42.13
444.17	0.00
444.35	0.00
444.54	35.11
444.73	35.11
444.91	0.00
445.10	91.28
445.28	42.13
445.47	11.70
445.65	65.54
445.84	39.79
446.02	30.43
446.21	56.17
446.39	46.81
446.58	49.15
446.77	42.13
446.95	44.47
447.14	0.00
447.32	135.75
447.51	46.81
447.69	88.94
447.88	72.56
448.06	0.00
448.25	30.43
448.43	39.79
448.62	0.00
448.80	28.09
448.99	21.06
449.17	0.00
449.36	44.47
449.54	63.19
449.73	56.17
449.91	18.72
450.10	16.38
450.28	4.68
450.46	37.45
450.65	58.51
450.83	93.62
451.02	0.00
451.20	23.41
451.39	0.00
451.57	0.00
451.76	0.00
451.94	23.41
452.13	46.81
452.31	93.62
452.49	63.19
452.68	51.49
452.86	77.24
453.05	23.41
453.23	44.47
453.42	28.09
453.60	11.70
453.78	100.64
453.97	70.22
454.15	46.81
454.34	107.66
454.52	79.58
454.70	42.13
454.89	0.00
455.07	35.11
455.26	18.72
455.44	70.22
455.62	46.81
455.81	14.04
455.99	14.04
456.17	93.62
456.36	0.00
456.54	4.68
456.73	14.04
456.91	21.06
457.09	32.77
457.28	56.17
457.46	32.77
457.64	63.19
457.83	23.41
458.01	23.41
458.19	42.13
458.38	0.00
458.56	74.90
458.74	0.00
458.93	23.41
459.11	11.70
459.29	0.00
459.48	42.13
459.66	14.04
459.84	14.04
460.03	51.49
460.21	79.58
460.39	18.72
460.57	81.92
460.76	30.43
460.94	46.81
461.12	0.00
461.31	42.13
461.49	58.51
461.67	0.00
461.85	28.09
462.04	25.75
462.22	91.28
462.40	0.00
462.59	0.00
462.77	32.77
462.95	119.37
463.13	0.00
463.32	84.26
463.50	49.15
463.68	58.51
463.86	18.72
464.05	86.60
464.23	9.36
464.41	25.75
464.59	39.79
464.78	9.36
464.96	51.49
465.14	88.94
465.32	44.47
465.50	4.68
465.69	23.41
465.87	9.36
466.05	70.22
466.23	42.13
466.41	63.19
466.60	0.00
466.78	0.00
466.96	28.09
467.14	49.15
467.32	65.54
467.51	74.90
467.69	56.17
467.87	58.51
468.05	25.75
468.23	18.72
468.41	49.15
468.60	0.00
468.78	42.13
468.96	88.94
469.14	46.81
469.32	0.00
469.50	56.17
469.69	35.11
469.87	32.77
470.05	0.00
470.23	35.11
470.41	86.60
470.59	9.36
470.77	37.45
470.95	18.72
471.14	56.17
471.32	56.17
471.50	107.66
471.68	58.51
471.86	30.43
472.04	30.43
472.22	28.09
472.40	0.00
472.58	9.36
472.77	35.11
472.95	0.00
473.13	18.72
473.31	25.75
473.49	23.41
473.67	23.41
473.85	35.11
474.03	60.85
474.21	63.19
474.39	30.43
474.57	23.41
474.75	0.00
474.93	42.13
475.12	39.79
475.30	86.60
475.48	77.24
475.66	9.36
475.84	63.19
476.02	23.41
476.20	0.00
476.38	0.00
476.56	67.88
476.74	88.94
476.92	0.00
477.10	0.00
477.28	9.36
477.46	37.45
477.64	0.00
477.82	0.00
478.00	58.51
478.18	18.72
478.36	30.43
478.54	18.72
478.72	46.81
478.90	67.88
479.08	49.15
479.26	93.62
479.44	14.04
479.62	53.83
479.80	56.17
479.98	28.09
480.16	65.54
480.34	81.92
480.52	77.24
480.70	23.41
480.88	7.02
481.06	28.09
481.24	58.51
481.41	49.15
481.59	2.34
481.77	56.17
481.95	25.75
482.13	63.19
482.31	44.47
482.49	0.00
482.67	28.09
482.85	63.19
483.03	21.06
483.21	46.81
483.39	58.51
483.57	35.11
483.74	25.75
483.92	11.70
484.10	0.00
484.28	14.04
484.46	21.06
484.64	0.00
484.82	32.77
485.00	2.34
485.18	35.11
485.35	77.24
485.53	11.70
485.71	0.00
485.89	74.90
486.07	65.54
486.25	58.51
486.43	112.35
486.61	79.58
486.78	0.00
486.96	37.45
487.14	49.15
487.32	28.09
487.50	16.38
487.68	60.85
487.85	93.62
488.03	23.41
488.21	44.47
488.39	53.83
488.57	9.36
488.75	86.60
488.92	42.13
489.10	0.00
489.28	51.49
489.46	42.13
489.64	70.22
489.81	60.85
489.99	0.00
490.17	28.09
490.35	88.94
490.53	37.45
490.70	93.62
490.88	70.22
491.06	0.00
491.24	0.00
491.41	4.68
491.59	16.38
491.77	18.72
491.95	0.00
492.13	23.41
492.30	0.00
492.48	14.04
492.66	63.19
492.84	39.79
493.01	0.00
493.19	65.54
493.37	39.79
493.54	49.15
493.72	21.06
493.90	39.79
494.08	81.92
494.25	86.60
494.43	67.88
494.61	51.49
494.79	0.00
494.96	84.26
495.14	23.41
495.32	51.49
495.49	0.00
495.67	7.02
495.85	74.90
496.02	53.83
496.20	46.81
496.38	65.54
496.55	84.26
496.73	95.96
496.91	128.73
497.09	93.62
497.26	56.17
497.44	70.22
497.62	30.43
497.79	124.05
497.97	107.66
498.14	58.51
498.32	0.00
498.50	42.13
498.67	81.92
498.85	39.79
499.03	30.43
499.20	35.11
499.38	23.41
499.56	18.72
499.73	81.92
499.91	4.68
500.08	35.11
500.26	35.11
500.44	0.00
500.61	7.02
500.79	67.88
500.97	49.15
501.14	49.15
501.32	14.04
501.49	67.88
501.67	42.13
501.84	42.13
502.02	51.49
502.20	0.00
502.37	93.62
502.55	30.43
502.72	37.45
502.90	77.24
503.07	37.45
503.25	16.38
503.43	124.05
503.60	46.81
503.78	53.83
503.95	79.58
504.13	44.47
504.30	86.60
504.48	56.17
504.65	65.54
504.83	23.41
505.01	28.09
505.18	53.83
505.36	74.90
505.53	16.38
505.71	74.90
505.88	93.62
506.06	28.09
506.23	77.24
506.41	81.92
506.58	70.22
506.76	58.51
506.93	91.28
507.11	0.00
507.28	95.96
507.46	28.09
507.63	77.24
507.81	98.30
507.98	30.43
508.16	23.41
508.33	37.45
508.50	30.43
508.68	30.43
508.85	46.81
509.03	0.00
509.20	25.75
509.38	0.00
509.55	46.81
509.73	0.00
509.90	21.06
510.08	37.45
510.25	23.41
510.42	121.71
510.60	35.11
510.77	79.58
510.95	18.72
511.12	98.30
511.30	0.00
511.47	46.81
511.64	60.85
511.82	46.81
511.99	0.00
512.17	9.36
512.34	93.62
512.51	0.00
512.69	9.36
512.86	74.90
513.04	124.05
513.21	0.00
513.38	88.94
513.56	51.49
513.73	84.26
513.90	65.54
514.08	53.83
514.25	39.79
514.43	14.04
514.60	93.62
514.77	9.36
514.95	53.83
515.12	74.90
515.29	0.00
515.47	58.51
515.64	0.00
515.81	74.90
515.99	56.17
516.16	58.51
516.33	72.56
516.51	32.77
516.68	21.06
516.85	35.11
517.03	67.88
517.20	39.79
517.37	46.81
517.54	2.34
517.72	37.45
517.89	16.38
518.06	98.30
518.24	56.17
518.41	53.83
518.58	9.36
518.75	23.41
518.93	135.75
519.10	88.94
519.27	79.58
519.45	107.66
519.62	37.45
519.79	0.00
519.96	21.06
520.14	23.41
520.31	0.00
520.48	0.00
520.65	39.79
520.83	9.36
521.00	72.56
521.17	35.11
521.34	46.81
521.52	18.72
521.69	14.04
521.86	0.00
522.03	0.00
522.20	37.45
522.38	23.41
522.55	32.77
522.72	35.11
522.89	79.58
523.07	37.45
523.24	74.90
523.41	84.26
523.58	0.00
523.75	25.75
523.92	100.64
524.10	67.88
524.27	72.56
524.44	63.19
524.61	42.13
524.78	16.38
524.96	9.36
525.13	16.38
525.30	51.49
525.47	0.00
525.64	28.09
525.81	44.47
525.98	16.38
526.16	107.66
526.33	0.00
526.50	14.04
526.67	58.51
526.84	46.81
527.01	98.30
527.18	46.81
527.36	95.96
527.53	0.00
527.70	14.04
527.87	35.11
528.04	0.00
528.21	49.15
528.38	39.79
528.55	49.15
528.72	28.09
528.89	60.85
529.07	18.72
529.24	16.38
529.41	51.49
529.58	44.47
529.75	110.01
529.92	79.58
530.09	23.41
530.26	0.00
530.43	28.09
530.60	93.62
530.77	37.45
530.94	126.39
531.11	18.72
531.28	0.00
531.46	0.00
531.63	114.69
531.80	53.83
531.97	32.77
532.14	0.00
532.31	28.09
532.48	37.45
532.65	51.49
532.82	77.24
532.99	86.60
533.16	11.70
533.33	63.19
533.50	81.92
533.67	4.68
533.84	98.30
534.01	65.54
534.18	32.77
534.35	60.85
534.52	67.88
534.69	67.88
534.86	44.47
535.03	25.75
535.20	0.00
535.37	0.00
535.54	35.11
535.71	0.00
535.88	56.17
536.05	63.19
536.22	23.41
536.38	0.00
536.55	0.00
536.72	0.00
536.89	65.54
537.06	0.00
537.23	46.81
537.40	30.43
537.57	32.77
537.74	49.15
537.91	18.72
538.08	11.70
538.25	0.00
538.42	23.41
538.59	25.75
538.75	11.70
538.92	53.83
539.09	77.24
539.26	42.13
539.43	77.24
539.60	42.13
539.77	107.66
539.94	0.00
540.11	30.43
540.28	105.32
540.44	65.54
540.61	63.19
540.78	16.38
540.95	42.13
541.12	2.34
541.29	77.24
541.46	9.36
541.62	0.00
541.79	2.34
541.96	7.02
542.13	9.36
542.30	67.88
542.47	39.79
542.63	53.83
542.80	16.38
542.97	35.11
543.14	60.85
543.31	37.45
543.48	9.36
543.64	46.81
543.81	0.00
543.98	32.77
544.15	56.17
544.32	53.83
544.48	32.77
544.65	107.66
544.82	28.09
544.99	37.45
545.16	16.38
545.32	35.11
545.49	46.81
545.66	56.17
545.83	32.77
546.00	58.51
546.16	35.11
546.33	32.77
546.50	51.49
546.67	46.81
546.83	46.81
547.00	0.00
547.17	14.04
547.34	117.03
547.50	81.92
547.67	0.00
547.84	16.38
548.00	65.54
548.17	23.41
548.34	84.26
548.51	81.92
548.67	32.77
548.84	56.17
549.01	51.49
549.18	7.02
549.34	79.58
549.51	51.49
549.68	81.92
549.84	42.13
550.01	67.88
550.18	23.41
550.34	105.32
550.51	58.51
550.68	11.70
550.84	28.09
551.01	39.79
551.18	112.35
551.34	4.68
551.51	21.06
551.68	4.68
551.84	25.75
552.01	81.92
552.18	0.00
552.34	53.83
552.51	44.47
552.68	28.09
552.84	63.19
553.01	28.09
553.18	35.11
553.34	51.49
553.51	133.41
553.67	32.77
553.84	79.58
554.01	7.02
554.17	107.66
554.34	114.69
554.51	42.13
554.67	28.09
554.84	21.06
555.00	74.90
555.17	49.15
555.33	21.06
555.50	30.43
555.67	14.04
555.83	18.72
556.00	49.15
556.16	91.28
556.33	0.00
556.50	70.22
556.66	98.30
556.83	28.09
556.99	91.28
557.16	138.09
557.32	77.24
557.49	16.38
557.65	39.79
557.82	18.72
557.98	0.00
558.15	49.15
558.32	35.11
558.48	18.72
558.65	16.38
558.81	4.68
558.98	21.06
559.14	11.70
559.31	11.70
559.47	42.13
559.64	37.45
559.80	81.92
559.97	28.09
560.13	35.11
560.30	53.83
560.46	74.90
560.63	51.49
560.79	63.19
560.96	105.32
561.12	51.49
561.29	21.06
561.45	0.00
561.61	51.49
561.78	49.15
561.94	9.36
562.11	77.24
562.27	51.49
562.44	0.00
562.60	70.22
562.77	95.96
562.93	25.75
563.10	53.83
563.26	21.06
563.42	74.90
563.59	14.04
563.75	42.13
563.92	21.06
564.08	35.11
564.24	11.70
564.41	53.83
564.57	51.49
564.74	65.54
564.90	81.92
565.07	58.51
565.23	44.47
565.39	63.19
565.56	0.00
565.72	0.00
565.88	58.51
566.05	44.47
566.21	44.47
566.38	74.90
566.54	28.09
566.70	74.90
566.87	35.11
567.03	9.36
567.19	53.83
567.36	0.00
567.52	28.09
567.68	84.26
567.85	53.83
568.01	9.36
568.17	25.75
568.34	65.54
568.50	88.94
568.66	91.28
568.83	18.72
568.99	44.47
569.15	72.56
569.32	35.11
569.48	18.72
569.64	4.68
569.81	58.51
569.97	79.58
570.13	121.71
570.30	98.30
570.46	7.02
570.62	44.47
570.78	14.04
570.95	98.30
571.11	65.54
571.27	11.70
571.43	21.06
571.60	58.51
571.76	2.34
571.92	0.00
572.09	25.75
572.25	0.00
572.41	0.00
572.57	25.75
572.74	0.00
572.90	58.51
573.06	56.17
573.22	44.47
573.38	37.45
573.55	11.70
573.71	44.47
573.87	16.38
574.03	86.60
574.20	35.11
574.36	56.17
574.52	0.00
574.68	39.79
574.84	28.09
575.01	23.41
575.17	63.19
575.33	58.51
575.49	51.49
575.65	67.88
575.82	11.70
575.98	140.43
576.14	11.70
576.30	95.96
576.46	35.11
576.62	107.66
576.79	39.79
576.95	9.36
577.11	0.00
577.27	65.54
577.43	93.62
577.59	70.22
577.75	23.41
577.92	63.19
578.08	63.19
578.24	67.88
578.40	67.88
578.56	105.32
578.72	28.09
578.88	39.79
579.04	42.13
579.21	86.60
579.37	84.26
579.53	86.60
579.69	67.88
579.85	30.43
580.01	58.51
580.17	49.15
580.33	37.45
580.49	70.22
580.65	0.00
580.82	53.83
580.98	63.19
581.14	42.13
581.30	16.38
581.46	23.41
581.62	51.49
581.78	4.68
581.94	84.26
582.10	70.22
582.26	0.00
582.42	18.72
582.58	25.75
582.74	84.26
582.90	49.15
583.06	37.45
583.22	67.88
583.38	32.77
583.54	37.45
583.70	0.00
583.86	124.05
584.02	81.92
584.18	112.35
584.34	60.85
584.50	107.66
584.66	1055.58
584.82	1966.05
584.98	2424.80
585.14	1982.43
585.30	1275.59
585.46	788.76
585.62	533.64
585.78	205.97
585.94	112.35
586.10	70.22
586.26	79.58
586.42	46.81
586.58	32.77
586.74	32.77
586.90	18.72
587.06	91.28
587.22	60.85
587.38	37.45
587.54	88.94
587.70	119.37
587.86	196.60
588.02	220.01
588.18	133.41
588.34	91.28
588.49	23.41
588.65	42.13
588.81	39.79
588.97	44.47
589.13	32.77
589.29	4.68
589.45	0.00
589.61	74.90
589.77	46.81
589.93	93.62
590.08	79.58
590.24	30.43
590.40	58.51
590.56	79.58
590.72	23.41
590.88	39.79
591.04	0.00
591.20	28.09
591.35	37.45
591.51	0.00
591.67	0.00
591.83	42.13
591.99	0.00
592.15	60.85
592.31	23.41
592.46	84.26
592.62	0.00
592.78	30.43
592.94	51.49
593.10	21.06
593.26	42.13
593.41	21.06
593.57	2.34
593.73	86.60
593.89	177.88
594.05	297.25
594.20	334.70
594.36	334.70
594.52	210.65
594.68	117.03
594.84	147.45
594.99	117.03
595.15	21.06
595.31	93.62
595.47	23.41
595.62	14.04
595.78	77.24
595.94	25.75
596.10	77.24
596.25	0.00
596.41	74.90
596.57	65.54
596.73	2.34
596.88	18.72
597.04	53.83
597.20	142.77
597.36	133.41
597.51	128.73
597.67	70.22
597.83	65.54
597.99	128.73
598.14	56.17
598.30	79.58
598.46	72.56
598.61	28.09
598.77	0.00
598.93	58.51
599.09	4.68
599.24	0.00
599.40	21.06
599.56	21.06
599.71	0.00
599.87	0.00
600.03	23.41
600.18	0.00
600.34	44.47
600.50	21.06
600.65	131.07
600.81	46.81
600.97	51.49
601.12	56.17
601.28	119.37
601.44	70.22
601.59	81.92
601.75	2.34
601.91	0.00
602.06	88.94
602.22	84.26
602.37	70.22
602.53	88.94
602.69	117.03
602.84	95.96
603.00	91.28
603.16	56.17
603.31	0.00
603.47	86.60
603.62	25.75
603.78	70.22
603.94	63.19
604.09	30.43
604.25	95.96
604.40	42.13
604.56	51.49
604.71	72.56
604.87	4.68
605.03	135.75
605.18	4.68
605.34	21.06
605.49	81.92
605.65	56.17
605.80	42.13
605.96	25.75
606.12	77.24
606.27	16.38
606.43	0.00
606.58	84.26
606.74	84.26
606.89	170.86
607.05	198.95
607.20	355.76
607.36	229.37
607.51	229.37
607.67	107.66
607.82	95.96
607.98	133.41
608.13	30.43
608.29	0.00
608.44	74.90
608.60	25.75
608.75	58.51
608.91	93.62
609.06	313.63
609.22	423.64
609.37	517.26
609.53	449.38
609.68	301.93
609.84	159.16
609.99	163.84
610.15	107.66
610.30	67.88
610.46	32.77
610.61	42.13
610.76	4.68
610.92	46.81
611.07	67.88
611.23	25.75
611.38	0.00
611.54	72.56
611.69	53.83
611.84	37.45
612.00	18.72
612.15	49.15
612.31	110.01
612.46	63.19
612.62	11.70
612.77	58.51
612.92	124.05
613.08	42.13
613.23	86.60
613.39	46.81
613.54	44.47
613.69	238.73
613.85	517.26
614.00	765.36
614.15	746.63
614.31	557.05
614.46	308.95
614.62	287.89
614.77	180.22
614.92	117.03
615.08	117.03
615.23	79.58
615.38	91.28
615.54	44.47
615.69	79.58
615.84	203.63
616.00	227.03
616.15	231.71
616.30	166.18
616.46	145.11
616.61	119.37
616.76	86.60
616.92	74.90
617.07	37.45
617.22	16.38
617.37	0.00
617.53	79.58
617.68	65.54
617.83	65.54
617.99	46.81
618.14	112.35
618.29	0.00
618.45	14.04
618.60	72.56
618.75	25.75
618.90	0.00
619.06	28.09
619.21	53.83
619.36	46.81
619.51	25.75
619.67	9.36
619.82	25.75
619.97	49.15
620.12	0.00
620.28	91.28
620.43	0.00
620.58	72.56
620.73	21.06
620.89	7.02
621.04	121.71
621.19	105.32
621.34	32.77
621.49	177.88
621.65	142.77
621.80	53.83
621.95	0.00
622.10	39.79
622.25	63.19
622.41	46.81
622.56	56.17
622.71	58.51
622.86	72.56
623.01	56.17
623.16	51.49
623.32	84.26
623.47	32.77
623.62	37.45
623.77	60.85
623.92	84.26
624.07	32.77
624.23	77.24
624.38	0.00
624.53	93.62
624.68	39.79
624.83	4.68
624.98	0.00
625.13	51.49
625.29	60.85
625.44	35.11
625.59	79.58
625.74	23.41
625.89	81.92
626.04	140.43
626.19	255.12
626.34	348.74
626.49	362.78
626.65	215.33
626.80	252.78
626.95	166.18
627.10	168.52
627.25	25.75
627.40	51.49
627.55	131.07
627.70	18.72
627.85	63.19
628.00	65.54
628.15	32.77
628.30	79.58
628.45	7.02
628.60	51.49
628.76	81.92
628.91	81.92
629.06	110.01
629.21	88.94
629.36	39.79
629.51	65.54
629.66	0.00
629.81	11.70
629.96	65.54
630.11	163.84
630.26	126.39
630.41	121.71
630.56	95.96
630.71	63.19
630.86	67.88
631.01	7.02
631.16	63.19
631.31	60.85
631.46	77.24
631.61	44.47
631.76	18.72
631.91	49.15
632.06	98.30
632.21	42.13
632.36	102.98
632.51	37.45
632.66	0.00
632.81	135.75
632.96	198.95
633.10	236.39
633.25	245.76
633.40	187.24
633.55	107.66
633.70	187.24
633.85	121.71
634.00	88.94
634.15	0.00
634.30	117.03
634.45	53.83
634.60	67.88
634.75	23.41
634.90	63.19
635.05	65.54
635.19	30.43
635.34	0.00
635.49	74.90
635.64	42.13
635.79	9.36
635.94	18.72
636.09	77.24
636.24	4.68
636.39	67.88
636.53	49.15
636.68	0.00
636.83	35.11
636.98	28.09
637.13	44.47
637.28	49.15
637.43	18.72
637.57	0.00
637.72	142.77
637.87	447.04
638.02	461.09
638.17	484.49
638.32	372.15
638.46	238.73
638.61	182.56
638.76	135.75
638.91	124.05
639.06	0.00
639.20	49.15
639.35	0.00
639.50	67.88
639.65	201.29
639.80	578.11
639.94	690.46
640.09	669.39
640.24	507.90
640.39	393.21
640.54	290.23
640.68	159.16
640.83	65.54
640.98	91.28
641.13	32.77
641.27	0.00
641.42	84.26
641.57	79.58
641.72	98.30
641.86	88.94
642.01	25.75
642.16	18.72
642.31	93.62
642.45	0.00
642.60	42.13
642.75	42.13
642.90	56.17
643.04	21.06
643.19	51.49
643.34	51.49
643.48	16.38
643.63	2.34
643.78	18.72
643.93	65.54
644.07	23.41
644.22	65.54
644.37	14.04
644.51	53.83
644.66	11.70
644.81	46.81
644.95	98.30
645.10	9.36
645.25	56.17
645.39	49.15
645.54	77.24
645.69	37.45
645.83	0.00
645.98	86.60
646.13	2.34
646.27	98.30
646.42	25.75
646.57	35.11
646.71	63.19
646.86	86.60
647.00	65.54
647.15	42.13
647.30	2.34
647.44	77.24
647.59	42.13
647.74	77.24
647.88	81.92
648.03	0.00
648.17	65.54
648.32	30.43
648.47	46.81
648.61	0.00
648.76	28.09
648.90	58.51
649.05	107.66
649.20	49.15
649.34	39.79
649.49	74.90
649.63	81.92
649.78	0.00
649.92	93.62
650.07	119.37
650.21	280.86
650.36	437.68
650.51	416.62
650.65	315.97
650.80	201.29
650.94	194.26
651.09	168.52
651.23	81.92
651.38	77.24
651.52	100.64
651.67	0.00
651.81	81.92
651.96	72.56
652.10	53.83
652.25	51.49
652.39	0.00
652.54	42.13
652.68	65.54
652.83	93.62
652.97	100.64
653.12	168.52
653.26	159.16
653.41	84.26
653.55	100.64
653.70	21.06
653.84	70.22
653.99	67.88
654.13	39.79
654.27	21.06
654.42	58.51
654.56	105.32
654.71	25.75
654.85	32.77
655.00	28.09
655.14	21.06
655.29	72.56
655.43	18.72
655.57	0.00
655.72	7.02
655.86	21.06
656.01	65.54
656.15	25.75
656.30	39.79
656.44	114.69
656.58	93.62
656.73	46.81
656.87	0.00
657.01	81.92
657.16	14.04
657.30	93.62
657.45	93.62
657.59	42.13
657.73	0.00
657.88	18.72
658.02	77.24
658.16	25.75
658.31	30.43
658.45	23.41
658.60	51.49
658.74	42.13
658.88	7.02
659.03	0.00
659.17	0.00
659.31	72.56
659.46	140.43
659.60	187.24
659.74	156.82
659.89	224.69
660.03	121.71
660.17	107.66
660.32	72.56
660.46	91.28
660.60	70.22
660.74	86.60
660.89	60.85
661.03	0.00
661.17	124.05
661.32	9.36
661.46	0.00
661.60	14.04
661.74	23.41
661.89	23.41
662.03	42.13
662.17	0.00
662.31	77.24
662.46	79.58
662.60	0.00
662.74	81.92
662.88	44.47
663.03	16.38
663.17	0.00
663.31	44.47
663.45	0.00
663.60	23.41
663.74	72.56
663.88	18.72
664.02	18.72
664.17	49.15
664.31	0.00
664.45	77.24
664.59	60.85
664.73	30.43
664.88	44.47
665.02	58.51
665.16	42.13
665.30	32.77
665.44	0.00
665.59	0.00
665.73	51.49
665.87	39.79
666.01	0.00
666.15	0.00
666.29	42.13
666.44	30.43
666.58	37.45
666.72	60.85
666.86	16.38
667.00	0.00
667.14	16.38
667.28	147.45
667.43	285.55
667.57	313.63
667.71	353.42
667.85	294.91
667.99	217.67
668.13	198.95
668.27	145.11
668.41	32.77
668.56	65.54
668.70	49.15
668.84	67.88
668.98	4.68
669.12	56.17
669.26	21.06
669.40	0.00
669.54	18.72
669.68	21.06
669.82	7.02
669.96	58.51
670.10	0.00
670.25	0.00
670.39	0.00
670.53	9.36
670.67	9.36
670.81	9.36
670.95	25.75
671.09	30.43
671.23	117.03
671.37	224.69
671.51	248.10
671.65	236.39
671.79	217.67
671.93	126.39
672.07	105.32
672.21	70.22
672.35	14.04
672.49	4.68
672.63	63.19
672.77	0.00
672.91	0.00
673.05	58.51
673.19	44.47
673.33	56.17
673.47	56.17
673.61	60.85
673.75	77.24
673.89	30.43
674.03	18.72
674.17	4.68
674.31	30.43
674.45	16.38
674.59	9.36
674.73	81.92
674.87	102.98
675.01	74.90
675.15	56.17
675.29	16.38
675.43	18.72
675.56	91.28
675.70	72.56
675.84	53.83
675.98	65.54
676.12	0.00
676.26	25.75
676.40	0.00
676.54	44.47
676.68	60.85
676.82	25.75
676.96	77.24
677.10	16.38
677.23	49.15
677.37	4.68
677.51	42.13
677.65	105.32
677.79	14.04
677.93	46.81
678.07	28.09
678.21	37.45
678.34	37.45
678.48	16.38
678.62	14.04
678.76	56.17
678.90	28.09
679.04	30.43
679.18	32.77
679.31	2.34
679.45	53.83
679.59	0.00
679.73	25.75
679.87	0.00
680.00	0.00
680.14	79.58
680.28	0.00
680.42	25.75
680.56	0.00
680.70	65.54
680.83	0.00
680.97	44.47
681.11	28.09
681.25	70.22
681.39	51.49
681.52	0.00
681.66	46.81
681.80	58.51
681.94	67.88
682.07	35.11
682.21	9.36
682.35	23.41
682.49	16.38
682.62	9.36
682.76	44.47
682.90	16.38
683.04	51.49
683.17	23.41
683.31	98.30
683.45	25.75
683.59	32.77
683.72	0.00
683.86	0.00
684.00	0.00
684.13	70.22
684.27	0.00
684.41	0.00
684.55	28.09
684.68	86.60
684.82	65.54
684.96	95.96
685.09	18.72
685.23	42.13
685.37	46.81
685.50	28.09
685.64	60.85
685.78	25.75
685.91	28.09
686.05	67.88
686.19	67.88
686.32	14.04
686.46	21.06
686.60	0.00
686.73	0.00
686.87	56.17
687.01	11.70
687.14	23.41
687.28	79.58
687.42	42.13
687.55	56.17
687.69	21.06
687.82	9.36
687.96	51.49
688.10	0.00
688.23	28.09
688.37	42.13
688.50	95.96
688.64	14.04
688.78	53.83
688.91	42.13
689.05	14.04
689.18	126.39
689.32	70.22
689.46	0.00
689.59	25.75
689.73	53.83
689.86	0.00
690.00	11.70
690.13	0.00
690.27	95.96
690.41	56.17
690.54	74.90
690.68	79.58
690.81	105.32
690.95	7.02
691.08	117.03
691.22	49.15
691.35	60.85
691.49	32.77
691.62	119.37
691.76	23.41
691.89	0.00
692.03	18.72
692.16	0.00
692.30	58.51
692.43	0.00
692.57	67.88
692.70	154.48
692.84	142.77
692.97	124.05
693.11	140.43
693.24	135.75
693.38	110.01
693.51	86.60
693.65	79.58
693.78	49.15
693.92	51.49
694.05	100.64
694.19	39.79
694.32	35.11
694.45	21.06
694.59	60.85
694.72	30.43
694.86	11.70
694.99	74.90
695.13	79.58
695.26	23.41
695.39	46.81
695.53	93.62
695.66	32.77
695.80	28.09
695.93	0.00
696.07	16.38
696.20	0.00
696.33	0.00
696.47	53.83
696.60	30.43
696.73	60.85
696.87	88.94
697.00	77.24
697.14	105.32
697.27	30.43
697.40	14.04
697.54	124.05
697.67	0.00
697.80	0.00
697.94	0.00
698.07	0.00
698.21	7.02
698.34	0.00
698.47	0.00
698.61	23.41
698.74	128.73
698.87	49.15
699.01	51.49
699.14	81.92
699.27	21.06
699.40	56.17
699.54	70.22
699.67	124.05
699.80	91.28
699.94	51.49
700.07	32.77
700.20	117.03
700.34	18.72
700.47	16.38
700.60	16.38
700.73	0.00
700.87	102.98
701.00	25.75
701.13	77.24
701.26	11.70
701.40	0.00
701.53	21.06
701.66	0.00
701.79	98.30
701.93	35.11
702.06	77.24
702.19	7.02
702.32	35.11
702.46	0.00
702.59	9.36
702.72	93.62
702.85	168.52
702.99	191.92
703.12	248.10
703.25	273.84
703.38	215.33
703.51	257.46
703.65	198.95
703.78	145.11
703.91	105.32
704.04	145.11
704.17	42.13
704.31	72.56
704.44	25.75
704.57	0.00
704.70	105.32
704.83	11.70
704.96	11.70
705.10	0.00
705.23	0.00
>>>>>End Processed Spectral Data<<<<<
