SpectraSuite Data File
++++++++++++++++++++++++++++++++++++
Date: Fri Oct 04 12:13:37 GMT-05:00 2013
User: price-jones
Dark Spectrum Present: No
Reference Spectrum Present: No
Number of Sampled Component Spectra: 1
Spectrometers: USB2+H05261
Integration Time (usec): 10000 (USB2+H05261)
Spectra Averaged: 1 (USB2+H05261)
Boxcar Smoothing: 0 (USB2+H05261)
Correct for Electrical Dark: No (USB2+H05261)
Strobe/Lamp Enabled: No (USB2+H05261)
Correct for Detector Non-linearity: No (USB2+H05261)
Correct for Stray Light: No (USB2+H05261)
Number of Pixels in Processed Spectrum: 2048
>>>>>Begin Processed Spectral Data<<<<<
365.73	0.00
365.92	0.00
366.12	0.00
366.32	0.00
366.52	0.00
366.72	0.00
366.91	0.00
367.11	0.00
367.31	0.00
367.51	0.00
367.70	0.00
367.90	0.00
368.10	0.00
368.30	0.00
368.49	0.00
368.69	0.00
368.89	0.00
369.09	0.00
369.28	0.00
369.48	0.00
369.68	0.00
369.87	0.00
370.07	0.00
370.27	0.00
370.47	0.00
370.66	0.00
370.86	0.00
371.06	0.00
371.25	30.43
371.45	0.00
371.65	0.00
371.84	0.00
372.04	0.00
372.24	0.00
372.44	0.00
372.63	0.00
372.83	30.43
373.03	56.17
373.22	67.88
373.42	0.00
373.62	0.00
373.81	0.00
374.01	53.83
374.21	32.77
374.40	28.09
374.60	70.22
374.79	30.43
374.99	60.85
375.19	95.96
375.38	37.45
375.58	67.88
375.78	7.02
375.97	32.77
376.17	42.13
376.37	53.83
376.56	0.00
376.76	37.45
376.95	0.00
377.15	49.15
377.35	60.85
377.54	42.13
377.74	63.19
377.93	53.83
378.13	51.49
378.33	53.83
378.52	112.35
378.72	37.45
378.91	23.41
379.11	65.54
379.31	21.06
379.50	2.34
379.70	0.00
379.89	0.00
380.09	0.00
380.28	37.45
380.48	0.00
380.68	21.06
380.87	0.00
381.07	37.45
381.26	0.00
381.46	0.00
381.65	2.34
381.85	11.70
382.04	56.17
382.24	9.36
382.43	0.00
382.63	0.00
382.83	65.54
383.02	53.83
383.22	98.30
383.41	65.54
383.61	35.11
383.80	0.00
384.00	28.09
384.19	56.17
384.39	21.06
384.58	0.00
384.78	0.00
384.97	0.00
385.17	0.00
385.36	9.36
385.56	56.17
385.75	0.00
385.95	16.38
386.14	25.75
386.34	0.00
386.53	32.77
386.72	25.75
386.92	0.00
387.11	65.54
387.31	65.54
387.50	107.66
387.70	28.09
387.89	0.00
388.09	42.13
388.28	0.00
388.48	0.00
388.67	39.79
388.86	0.00
389.06	0.00
389.25	18.72
389.45	53.83
389.64	110.01
389.84	2.34
390.03	0.00
390.22	37.45
390.42	0.00
390.61	0.00
390.81	14.04
391.00	51.49
391.19	14.04
391.39	81.92
391.58	49.15
391.78	9.36
391.97	32.77
392.16	0.00
392.36	44.47
392.55	35.11
392.75	46.81
392.94	84.26
393.13	70.22
393.33	42.13
393.52	0.00
393.71	7.02
393.91	49.15
394.10	42.13
394.29	0.00
394.49	60.85
394.68	53.83
394.88	9.36
395.07	49.15
395.26	44.47
395.46	88.94
395.65	30.43
395.84	65.54
396.04	0.00
396.23	39.79
396.42	0.00
396.62	84.26
396.81	2.34
397.00	49.15
397.19	32.77
397.39	119.37
397.58	0.00
397.77	25.75
397.97	23.41
398.16	102.98
398.35	11.70
398.55	42.13
398.74	49.15
398.93	49.15
399.12	0.00
399.32	0.00
399.51	65.54
399.70	0.00
399.90	49.15
400.09	2.34
400.28	2.34
400.47	39.79
400.67	18.72
400.86	44.47
401.05	81.92
401.24	30.43
401.44	30.43
401.63	25.75
401.82	25.75
402.01	0.00
402.21	7.02
402.40	35.11
402.59	30.43
402.78	0.00
402.97	25.75
403.17	25.75
403.36	0.00
403.55	30.43
403.74	0.00
403.93	72.56
404.13	53.83
404.32	51.49
404.51	42.13
404.70	0.00
404.89	0.00
405.09	9.36
405.28	58.51
405.47	35.11
405.66	63.19
405.85	16.38
406.05	42.13
406.24	0.00
406.43	30.43
406.62	63.19
406.81	70.22
407.00	0.00
407.20	4.68
407.39	18.72
407.58	60.85
407.77	67.88
407.96	56.17
408.15	79.58
408.34	4.68
408.54	88.94
408.73	46.81
408.92	14.04
409.11	32.77
409.30	56.17
409.49	119.37
409.68	88.94
409.87	0.00
410.07	14.04
410.26	30.43
410.45	11.70
410.64	35.11
410.83	42.13
411.02	25.75
411.21	37.45
411.40	0.00
411.59	81.92
411.78	37.45
411.98	0.00
412.17	42.13
412.36	72.56
412.55	7.02
412.74	30.43
412.93	46.81
413.12	21.06
413.31	39.79
413.50	72.56
413.69	9.36
413.88	32.77
414.07	9.36
414.26	84.26
414.45	0.00
414.64	51.49
414.83	4.68
415.02	25.75
415.22	0.00
415.41	84.26
415.60	9.36
415.79	35.11
415.98	63.19
416.17	39.79
416.36	42.13
416.55	28.09
416.74	21.06
416.93	65.54
417.12	65.54
417.31	37.45
417.50	60.85
417.69	49.15
417.88	86.60
418.07	63.19
418.26	58.51
418.45	9.36
418.64	32.77
418.83	107.66
419.02	63.19
419.21	56.17
419.39	56.17
419.58	0.00
419.77	0.00
419.96	72.56
420.15	51.49
420.34	0.00
420.53	21.06
420.72	44.47
420.91	9.36
421.10	107.66
421.29	0.00
421.48	23.41
421.67	42.13
421.86	63.19
422.05	95.96
422.24	37.45
422.43	39.79
422.61	37.45
422.80	9.36
422.99	88.94
423.18	37.45
423.37	0.00
423.56	25.75
423.75	91.28
423.94	44.47
424.13	42.13
424.32	25.75
424.50	21.06
424.69	16.38
424.88	35.11
425.07	74.90
425.26	46.81
425.45	60.85
425.64	0.00
425.83	58.51
426.01	0.00
426.20	93.62
426.39	67.88
426.58	42.13
426.77	46.81
426.96	32.77
427.15	42.13
427.33	23.41
427.52	56.17
427.71	18.72
427.90	37.45
428.09	117.03
428.28	0.00
428.46	84.26
428.65	117.03
428.84	91.28
429.03	60.85
429.22	98.30
429.40	42.13
429.59	32.77
429.78	0.00
429.97	0.00
430.16	74.90
430.34	18.72
430.53	53.83
430.72	53.83
430.91	37.45
431.10	67.88
431.28	0.00
431.47	65.54
431.66	44.47
431.85	11.70
432.03	0.00
432.22	14.04
432.41	0.00
432.60	0.00
432.79	102.98
432.97	0.00
433.16	7.02
433.35	65.54
433.54	60.85
433.72	0.00
433.91	28.09
434.10	65.54
434.28	0.00
434.47	93.62
434.66	25.75
434.85	14.04
435.03	46.81
435.22	39.79
435.41	77.24
435.59	18.72
435.78	11.70
435.97	0.00
436.16	72.56
436.34	28.09
436.53	11.70
436.72	70.22
436.90	0.00
437.09	25.75
437.28	35.11
437.46	60.85
437.65	53.83
437.84	56.17
438.02	107.66
438.21	32.77
438.40	138.09
438.58	44.47
438.77	65.54
438.96	77.24
439.14	16.38
439.33	44.47
439.52	0.00
439.70	37.45
439.89	42.13
440.08	93.62
440.26	28.09
440.45	25.75
440.63	49.15
440.82	46.81
441.01	56.17
441.19	65.54
441.38	65.54
441.57	23.41
441.75	37.45
441.94	95.96
442.12	58.51
442.31	35.11
442.50	60.85
442.68	79.58
442.87	35.11
443.05	21.06
443.24	102.98
443.43	4.68
443.61	0.00
443.80	23.41
443.98	0.00
444.17	0.00
444.35	58.51
444.54	77.24
444.73	46.81
444.91	58.51
445.10	65.54
445.28	9.36
445.47	56.17
445.65	44.47
445.84	60.85
446.02	79.58
446.21	72.56
446.39	16.38
446.58	81.92
446.77	65.54
446.95	60.85
447.14	18.72
447.32	91.28
447.51	63.19
447.69	46.81
447.88	21.06
448.06	0.00
448.25	105.32
448.43	51.49
448.62	14.04
448.80	79.58
448.99	70.22
449.17	70.22
449.36	32.77
449.54	51.49
449.73	102.98
449.91	4.68
450.10	0.00
450.28	98.30
450.46	53.83
450.65	44.47
450.83	14.04
451.02	156.82
451.20	21.06
451.39	105.32
451.57	60.85
451.76	0.00
451.94	0.00
452.13	0.00
452.31	131.07
452.49	35.11
452.68	25.75
452.86	86.60
453.05	51.49
453.23	0.00
453.42	32.77
453.60	0.00
453.78	95.96
453.97	25.75
454.15	25.75
454.34	93.62
454.52	86.60
454.70	72.56
454.89	65.54
455.07	46.81
455.26	42.13
455.44	56.17
455.62	77.24
455.81	86.60
455.99	72.56
456.17	86.60
456.36	37.45
456.54	46.81
456.73	0.00
456.91	2.34
457.09	102.98
457.28	53.83
457.46	35.11
457.64	39.79
457.83	42.13
458.01	42.13
458.19	30.43
458.38	7.02
458.56	63.19
458.74	35.11
458.93	21.06
459.11	60.85
459.29	30.43
459.48	86.60
459.66	46.81
459.84	112.35
460.03	49.15
460.21	53.83
460.39	49.15
460.57	14.04
460.76	65.54
460.94	51.49
461.12	39.79
461.31	112.35
461.49	7.02
461.67	86.60
461.85	95.96
462.04	0.00
462.22	91.28
462.40	60.85
462.59	117.03
462.77	7.02
462.95	32.77
463.13	35.11
463.32	14.04
463.50	67.88
463.68	46.81
463.86	74.90
464.05	65.54
464.23	35.11
464.41	72.56
464.59	58.51
464.78	2.34
464.96	51.49
465.14	60.85
465.32	91.28
465.50	28.09
465.69	86.60
465.87	60.85
466.05	56.17
466.23	39.79
466.41	42.13
466.60	18.72
466.78	70.22
466.96	63.19
467.14	91.28
467.32	53.83
467.51	35.11
467.69	72.56
467.87	23.41
468.05	21.06
468.23	53.83
468.41	56.17
468.60	65.54
468.78	37.45
468.96	93.62
469.14	51.49
469.32	58.51
469.50	44.47
469.69	135.75
469.87	0.00
470.05	70.22
470.23	58.51
470.41	28.09
470.59	37.45
470.77	114.69
470.95	72.56
471.14	35.11
471.32	35.11
471.50	56.17
471.68	65.54
471.86	53.83
472.04	56.17
472.22	86.60
472.40	77.24
472.58	110.01
472.77	0.00
472.95	30.43
473.13	86.60
473.31	42.13
473.49	30.43
473.67	37.45
473.85	77.24
474.03	35.11
474.21	23.41
474.39	135.75
474.57	46.81
474.75	84.26
474.93	32.77
475.12	11.70
475.30	67.88
475.48	37.45
475.66	28.09
475.84	53.83
476.02	11.70
476.20	100.64
476.38	4.68
476.56	37.45
476.74	7.02
476.92	32.77
477.10	81.92
477.28	44.47
477.46	28.09
477.64	32.77
477.82	32.77
478.00	88.94
478.18	79.58
478.36	67.88
478.54	18.72
478.72	65.54
478.90	16.38
479.08	53.83
479.26	70.22
479.44	16.38
479.62	4.68
479.80	0.00
479.98	86.60
480.16	0.00
480.34	86.60
480.52	0.00
480.70	63.19
480.88	72.56
481.06	37.45
481.24	25.75
481.41	110.01
481.59	79.58
481.77	56.17
481.95	56.17
482.13	37.45
482.31	77.24
482.49	51.49
482.67	84.26
482.85	93.62
483.03	67.88
483.21	88.94
483.39	91.28
483.57	77.24
483.74	53.83
483.92	35.11
484.10	102.98
484.28	74.90
484.46	77.24
484.64	46.81
484.82	0.00
485.00	39.79
485.18	79.58
485.35	28.09
485.53	39.79
485.71	30.43
485.89	42.13
486.07	119.37
486.25	58.51
486.43	170.86
486.61	2.34
486.78	131.07
486.96	65.54
487.14	72.56
487.32	117.03
487.50	65.54
487.68	0.00
487.85	84.26
488.03	0.00
488.21	58.51
488.39	23.41
488.57	11.70
488.75	79.58
488.92	35.11
489.10	81.92
489.28	91.28
489.46	18.72
489.64	74.90
489.81	98.30
489.99	58.51
490.17	72.56
490.35	67.88
490.53	156.82
490.70	70.22
490.88	133.41
491.06	105.32
491.24	44.47
491.41	88.94
491.59	67.88
491.77	117.03
491.95	72.56
492.13	105.32
492.30	70.22
492.48	37.45
492.66	105.32
492.84	74.90
493.01	114.69
493.19	81.92
493.37	35.11
493.54	58.51
493.72	72.56
493.90	70.22
494.08	67.88
494.25	79.58
494.43	39.79
494.61	145.11
494.79	102.98
494.96	135.75
495.14	30.43
495.32	98.30
495.49	63.19
495.67	105.32
495.85	77.24
496.02	44.47
496.20	65.54
496.38	32.77
496.55	2.34
496.73	98.30
496.91	88.94
497.09	77.24
497.26	46.81
497.44	65.54
497.62	18.72
497.79	0.00
497.97	95.96
498.14	100.64
498.32	67.88
498.50	88.94
498.67	81.92
498.85	79.58
499.03	107.66
499.20	119.37
499.38	65.54
499.56	145.11
499.73	159.16
499.91	42.13
500.08	95.96
500.26	60.85
500.44	133.41
500.61	135.75
500.79	65.54
500.97	100.64
501.14	102.98
501.32	112.35
501.49	124.05
501.67	119.37
501.84	67.88
502.02	77.24
502.20	28.09
502.37	60.85
502.55	11.70
502.72	51.49
502.90	51.49
503.07	81.92
503.25	86.60
503.43	79.58
503.60	95.96
503.78	114.69
503.95	72.56
504.13	135.75
504.30	60.85
504.48	74.90
504.65	72.56
504.83	112.35
505.01	79.58
505.18	77.24
505.36	138.09
505.53	16.38
505.71	156.82
505.88	39.79
506.06	117.03
506.23	60.85
506.41	67.88
506.58	117.03
506.76	51.49
506.93	81.92
507.11	21.06
507.28	88.94
507.46	121.71
507.63	44.47
507.81	100.64
507.98	145.11
508.16	70.22
508.33	98.30
508.50	102.98
508.68	37.45
508.85	9.36
509.03	79.58
509.20	84.26
509.38	110.01
509.55	53.83
509.73	67.88
509.90	4.68
510.08	112.35
510.25	74.90
510.42	102.98
510.60	0.00
510.77	0.00
510.95	110.01
511.12	88.94
511.30	77.24
511.47	145.11
511.64	84.26
511.82	9.36
511.99	100.64
512.17	58.51
512.34	42.13
512.51	95.96
512.69	173.20
512.86	86.60
513.04	112.35
513.21	107.66
513.38	77.24
513.56	117.03
513.73	121.71
513.90	65.54
514.08	0.00
514.25	65.54
514.43	70.22
514.60	107.66
514.77	56.17
514.95	84.26
515.12	81.92
515.29	37.45
515.47	124.05
515.64	156.82
515.81	37.45
515.99	30.43
516.16	49.15
516.33	81.92
516.51	88.94
516.68	4.68
516.85	39.79
517.03	72.56
517.20	121.71
517.37	72.56
517.54	84.26
517.72	63.19
517.89	77.24
518.06	63.19
518.24	60.85
518.41	42.13
518.58	147.45
518.75	98.30
518.93	81.92
519.10	154.48
519.27	133.41
519.45	0.00
519.62	72.56
519.79	77.24
519.96	110.01
520.14	72.56
520.31	60.85
520.48	131.07
520.65	46.81
520.83	56.17
521.00	81.92
521.17	84.26
521.34	51.49
521.52	161.50
521.69	135.75
521.86	100.64
522.03	149.79
522.20	119.37
522.38	86.60
522.55	63.19
522.72	102.98
522.89	119.37
523.07	46.81
523.24	74.90
523.41	95.96
523.58	14.04
523.75	79.58
523.92	98.30
524.10	67.88
524.27	81.92
524.44	79.58
524.61	88.94
524.78	105.32
524.96	9.36
525.13	58.51
525.30	4.68
525.47	128.73
525.64	0.00
525.81	58.51
525.98	124.05
526.16	112.35
526.33	102.98
526.50	65.54
526.67	16.38
526.84	95.96
527.01	72.56
527.18	70.22
527.36	72.56
527.53	67.88
527.70	70.22
527.87	79.58
528.04	67.88
528.21	37.45
528.38	100.64
528.55	9.36
528.72	37.45
528.89	126.39
529.07	16.38
529.24	140.43
529.41	86.60
529.58	95.96
529.75	39.79
529.92	67.88
530.09	81.92
530.26	105.32
530.43	0.00
530.60	81.92
530.77	63.19
530.94	2.34
531.11	180.22
531.28	124.05
531.46	119.37
531.63	74.90
531.80	60.85
531.97	23.41
532.14	16.38
532.31	74.90
532.48	105.32
532.65	88.94
532.82	140.43
532.99	77.24
533.16	53.83
533.33	98.30
533.50	56.17
533.67	105.32
533.84	44.47
534.01	72.56
534.18	95.96
534.35	86.60
534.52	37.45
534.69	119.37
534.86	142.77
535.03	95.96
535.20	95.96
535.37	110.01
535.54	35.11
535.71	49.15
535.88	23.41
536.05	81.92
536.22	107.66
536.38	81.92
536.55	77.24
536.72	149.79
536.89	86.60
537.06	58.51
537.23	88.94
537.40	100.64
537.57	60.85
537.74	105.32
537.91	110.01
538.08	95.96
538.25	84.26
538.42	79.58
538.59	53.83
538.75	84.26
538.92	112.35
539.09	112.35
539.26	53.83
539.43	70.22
539.60	58.51
539.77	63.19
539.94	56.17
540.11	100.64
540.28	51.49
540.44	93.62
540.61	105.32
540.78	100.64
540.95	145.11
541.12	126.39
541.29	84.26
541.46	63.19
541.62	60.85
541.79	32.77
541.96	121.71
542.13	58.51
542.30	114.69
542.47	133.41
542.63	70.22
542.80	81.92
542.97	7.02
543.14	173.20
543.31	46.81
543.48	168.52
543.64	21.06
543.81	58.51
543.98	121.71
544.15	46.81
544.32	105.32
544.48	42.13
544.65	95.96
544.82	86.60
544.99	88.94
545.16	119.37
545.32	70.22
545.49	121.71
545.66	121.71
545.83	32.77
546.00	154.48
546.16	7.02
546.33	60.85
546.50	124.05
546.67	60.85
546.83	88.94
547.00	124.05
547.17	60.85
547.34	46.81
547.50	72.56
547.67	74.90
547.84	93.62
548.00	117.03
548.17	58.51
548.34	81.92
548.51	100.64
548.67	95.96
548.84	0.00
549.01	44.47
549.18	74.90
549.34	39.79
549.51	60.85
549.68	67.88
549.84	70.22
550.01	145.11
550.18	86.60
550.34	9.36
550.51	133.41
550.68	175.54
550.84	56.17
551.01	81.92
551.18	121.71
551.34	81.92
551.51	121.71
551.68	119.37
551.84	63.19
552.01	74.90
552.18	65.54
552.34	42.13
552.51	88.94
552.68	51.49
552.84	72.56
553.01	49.15
553.18	74.90
553.34	51.49
553.51	51.49
553.67	105.32
553.84	100.64
554.01	84.26
554.17	77.24
554.34	77.24
554.51	0.00
554.67	102.98
554.84	72.56
555.00	95.96
555.17	74.90
555.33	88.94
555.50	44.47
555.67	119.37
555.83	107.66
556.00	49.15
556.16	107.66
556.33	79.58
556.50	93.62
556.66	112.35
556.83	81.92
556.99	56.17
557.16	107.66
557.32	86.60
557.49	65.54
557.65	65.54
557.82	9.36
557.98	84.26
558.15	100.64
558.32	119.37
558.48	74.90
558.65	100.64
558.81	56.17
558.98	131.07
559.14	79.58
559.31	93.62
559.47	117.03
559.64	51.49
559.80	121.71
559.97	51.49
560.13	88.94
560.30	105.32
560.46	49.15
560.63	95.96
560.79	110.01
560.96	70.22
561.12	65.54
561.29	37.45
561.45	77.24
561.61	91.28
561.78	70.22
561.94	163.84
562.11	142.77
562.27	84.26
562.44	79.58
562.60	135.75
562.77	65.54
562.93	95.96
563.10	110.01
563.26	70.22
563.42	58.51
563.59	44.47
563.75	37.45
563.92	128.73
564.08	63.19
564.24	88.94
564.41	67.88
564.57	14.04
564.74	124.05
564.90	107.66
565.07	39.79
565.23	51.49
565.39	30.43
565.56	37.45
565.72	65.54
565.88	46.81
566.05	102.98
566.21	138.09
566.38	81.92
566.54	23.41
566.70	107.66
566.87	28.09
567.03	131.07
567.19	32.77
567.36	128.73
567.52	110.01
567.68	18.72
567.85	56.17
568.01	39.79
568.17	107.66
568.34	42.13
568.50	0.00
568.66	133.41
568.83	114.69
568.99	84.26
569.15	117.03
569.32	30.43
569.48	88.94
569.64	81.92
569.81	91.28
569.97	114.69
570.13	105.32
570.30	79.58
570.46	102.98
570.62	119.37
570.78	100.64
570.95	112.35
571.11	126.39
571.27	86.60
571.43	88.94
571.60	98.30
571.76	142.77
571.92	74.90
572.09	86.60
572.25	18.72
572.41	112.35
572.57	9.36
572.74	72.56
572.90	102.98
573.06	51.49
573.22	110.01
573.38	9.36
573.55	37.45
573.71	25.75
573.87	65.54
574.03	49.15
574.20	114.69
574.36	98.30
574.52	56.17
574.68	74.90
574.84	70.22
575.01	72.56
575.17	114.69
575.33	42.13
575.49	79.58
575.65	95.96
575.82	67.88
575.98	91.28
576.14	0.00
576.30	112.35
576.46	46.81
576.62	84.26
576.79	51.49
576.95	77.24
577.11	98.30
577.27	91.28
577.43	30.43
577.59	53.83
577.75	98.30
577.92	72.56
578.08	70.22
578.24	72.56
578.40	105.32
578.56	95.96
578.72	60.85
578.88	56.17
579.04	42.13
579.21	119.37
579.37	128.73
579.53	117.03
579.69	67.88
579.85	119.37
580.01	117.03
580.17	49.15
580.33	11.70
580.49	60.85
580.65	60.85
580.82	65.54
580.98	72.56
581.14	81.92
581.30	91.28
581.46	102.98
581.62	58.51
581.78	98.30
581.94	7.02
582.10	88.94
582.26	18.72
582.42	39.79
582.58	100.64
582.74	0.00
582.90	95.96
583.06	25.75
583.22	131.07
583.38	65.54
583.54	121.71
583.70	63.19
583.86	84.26
584.02	53.83
584.18	95.96
584.34	63.19
584.50	77.24
584.66	95.96
584.82	18.72
584.98	65.54
585.14	63.19
585.30	35.11
585.46	86.60
585.62	56.17
585.78	140.43
585.94	63.19
586.10	98.30
586.26	98.30
586.42	86.60
586.58	70.22
586.74	44.47
586.90	35.11
587.06	91.28
587.22	46.81
587.38	117.03
587.54	107.66
587.70	46.81
587.86	105.32
588.02	121.71
588.18	65.54
588.34	0.00
588.49	42.13
588.65	51.49
588.81	91.28
588.97	16.38
589.13	0.00
589.29	37.45
589.45	95.96
589.61	65.54
589.77	100.64
589.93	39.79
590.08	39.79
590.24	93.62
590.40	56.17
590.56	105.32
590.72	39.79
590.88	58.51
591.04	105.32
591.20	147.45
591.35	46.81
591.51	112.35
591.67	177.88
591.83	74.90
591.99	84.26
592.15	49.15
592.31	70.22
592.46	4.68
592.62	119.37
592.78	42.13
592.94	14.04
593.10	23.41
593.26	25.75
593.41	42.13
593.57	53.83
593.73	49.15
593.89	81.92
594.05	72.56
594.20	60.85
594.36	86.60
594.52	23.41
594.68	58.51
594.84	28.09
594.99	93.62
595.15	86.60
595.31	72.56
595.47	95.96
595.62	23.41
595.78	86.60
595.94	124.05
596.10	74.90
596.25	56.17
596.41	18.72
596.57	93.62
596.73	46.81
596.88	0.00
597.04	28.09
597.20	112.35
597.36	23.41
597.51	95.96
597.67	18.72
597.83	72.56
597.99	105.32
598.14	142.77
598.30	91.28
598.46	60.85
598.61	140.43
598.77	67.88
598.93	84.26
599.09	112.35
599.24	110.01
599.40	91.28
599.56	63.19
599.71	7.02
599.87	86.60
600.03	60.85
600.18	18.72
600.34	21.06
600.50	98.30
600.65	98.30
600.81	107.66
600.97	95.96
601.12	117.03
601.28	23.41
601.44	37.45
601.59	35.11
601.75	39.79
601.91	56.17
602.06	102.98
602.22	37.45
602.37	88.94
602.53	67.88
602.69	119.37
602.84	100.64
603.00	86.60
603.16	117.03
603.31	86.60
603.47	124.05
603.62	84.26
603.78	67.88
603.94	84.26
604.09	65.54
604.25	133.41
604.40	67.88
604.56	65.54
604.71	88.94
604.87	23.41
605.03	42.13
605.18	79.58
605.34	102.98
605.49	35.11
605.65	86.60
605.80	0.00
605.96	58.51
606.12	51.49
606.27	140.43
606.43	53.83
606.58	93.62
606.74	0.00
606.89	67.88
607.05	79.58
607.20	102.98
607.36	124.05
607.51	60.85
607.67	95.96
607.82	131.07
607.98	44.47
608.13	105.32
608.29	119.37
608.44	100.64
608.60	53.83
608.75	65.54
608.91	95.96
609.06	72.56
609.22	93.62
609.37	121.71
609.53	91.28
609.68	14.04
609.84	28.09
609.99	81.92
610.15	84.26
610.30	154.48
610.46	4.68
610.61	77.24
610.76	84.26
610.92	2.34
611.07	84.26
611.23	145.11
611.38	124.05
611.54	84.26
611.69	44.47
611.84	112.35
612.00	58.51
612.15	77.24
612.31	100.64
612.46	93.62
612.62	84.26
612.77	42.13
612.92	30.43
613.08	44.47
613.23	53.83
613.39	74.90
613.54	18.72
613.69	16.38
613.85	39.79
614.00	58.51
614.15	91.28
614.31	16.38
614.46	142.77
614.62	37.45
614.77	81.92
614.92	79.58
615.08	105.32
615.23	49.15
615.38	63.19
615.54	56.17
615.69	44.47
615.84	72.56
616.00	63.19
616.15	0.00
616.30	51.49
616.46	56.17
616.61	102.98
616.76	53.83
616.92	42.13
617.07	124.05
617.22	67.88
617.37	67.88
617.53	46.81
617.68	65.54
617.83	107.66
617.99	0.00
618.14	53.83
618.29	77.24
618.45	44.47
618.60	88.94
618.75	28.09
618.90	79.58
619.06	58.51
619.21	21.06
619.36	9.36
619.51	93.62
619.67	72.56
619.82	21.06
619.97	58.51
620.12	77.24
620.28	63.19
620.43	21.06
620.58	49.15
620.73	30.43
620.89	88.94
621.04	18.72
621.19	84.26
621.34	60.85
621.49	63.19
621.65	72.56
621.80	86.60
621.95	18.72
622.10	51.49
622.25	21.06
622.41	114.69
622.56	124.05
622.71	84.26
622.86	112.35
623.01	44.47
623.16	35.11
623.32	72.56
623.47	84.26
623.62	91.28
623.77	0.00
623.92	42.13
624.07	112.35
624.23	63.19
624.38	25.75
624.53	88.94
624.68	32.77
624.83	72.56
624.98	79.58
625.13	0.00
625.29	32.77
625.44	51.49
625.59	79.58
625.74	53.83
625.89	67.88
626.04	0.00
626.19	46.81
626.34	56.17
626.49	102.98
626.65	133.41
626.80	105.32
626.95	131.07
627.10	39.79
627.25	42.13
627.40	117.03
627.55	11.70
627.70	16.38
627.85	86.60
628.00	84.26
628.15	51.49
628.30	70.22
628.45	70.22
628.60	11.70
628.76	16.38
628.91	46.81
629.06	25.75
629.21	21.06
629.36	30.43
629.51	60.85
629.66	128.73
629.81	77.24
629.96	23.41
630.11	32.77
630.26	107.66
630.41	72.56
630.56	0.00
630.71	56.17
630.86	93.62
631.01	25.75
631.16	0.00
631.31	39.79
631.46	25.75
631.61	46.81
631.76	88.94
631.91	35.11
632.06	32.77
632.21	0.00
632.36	51.49
632.51	53.83
632.66	32.77
632.81	91.28
632.96	51.49
633.10	51.49
633.25	86.60
633.40	49.15
633.55	84.26
633.70	93.62
633.85	7.02
634.00	23.41
634.15	121.71
634.30	39.79
634.45	44.47
634.60	0.00
634.75	60.85
634.90	67.88
635.05	53.83
635.19	23.41
635.34	21.06
635.49	18.72
635.64	65.54
635.79	84.26
635.94	95.96
636.09	65.54
636.24	67.88
636.39	107.66
636.53	46.81
636.68	14.04
636.83	32.77
636.98	72.56
637.13	86.60
637.28	79.58
637.43	58.51
637.57	39.79
637.72	0.00
637.87	117.03
638.02	79.58
638.17	49.15
638.32	35.11
638.46	102.98
638.61	51.49
638.76	7.02
638.91	86.60
639.06	42.13
639.20	88.94
639.35	74.90
639.50	18.72
639.65	100.64
639.80	14.04
639.94	14.04
640.09	53.83
640.24	49.15
640.39	32.77
640.54	35.11
640.68	74.90
640.83	95.96
640.98	42.13
641.13	11.70
641.27	58.51
641.42	79.58
641.57	51.49
641.72	21.06
641.86	30.43
642.01	39.79
642.16	88.94
642.31	18.72
642.45	63.19
642.60	86.60
642.75	53.83
642.90	23.41
643.04	0.00
643.19	21.06
643.34	67.88
643.48	65.54
643.63	114.69
643.78	46.81
643.93	88.94
644.07	28.09
644.22	21.06
644.37	79.58
644.51	32.77
644.66	42.13
644.81	23.41
644.95	77.24
645.10	79.58
645.25	0.00
645.39	7.02
645.54	110.01
645.69	145.11
645.83	7.02
645.98	112.35
646.13	49.15
646.27	11.70
646.42	65.54
646.57	35.11
646.71	98.30
646.86	124.05
647.00	77.24
647.15	100.64
647.30	30.43
647.44	11.70
647.59	56.17
647.74	28.09
647.88	112.35
648.03	37.45
648.17	70.22
648.32	81.92
648.47	56.17
648.61	102.98
648.76	49.15
648.90	16.38
649.05	124.05
649.20	60.85
649.34	70.22
649.49	0.00
649.63	77.24
649.78	46.81
649.92	28.09
650.07	49.15
650.21	42.13
650.36	88.94
650.51	30.43
650.65	140.43
650.80	7.02
650.94	0.00
651.09	77.24
651.23	21.06
651.38	0.00
651.52	0.00
651.67	133.41
651.81	25.75
651.96	14.04
652.10	44.47
652.25	72.56
652.39	63.19
652.54	16.38
652.68	56.17
652.83	16.38
652.97	0.00
653.12	37.45
653.26	37.45
653.41	110.01
653.55	65.54
653.70	53.83
653.84	28.09
653.99	154.48
654.13	81.92
654.27	32.77
654.42	91.28
654.56	49.15
654.71	30.43
654.85	60.85
655.00	67.88
655.14	86.60
655.29	0.00
655.43	21.06
655.57	18.72
655.72	9.36
655.86	49.15
656.01	105.32
656.15	117.03
656.30	0.00
656.44	16.38
656.58	51.49
656.73	0.00
656.87	21.06
657.01	49.15
657.16	58.51
657.30	28.09
657.45	28.09
657.59	28.09
657.73	0.00
657.88	60.85
658.02	98.30
658.16	9.36
658.31	25.75
658.45	53.83
658.60	93.62
658.74	63.19
658.88	32.77
659.03	28.09
659.17	56.17
659.31	32.77
659.46	42.13
659.60	58.51
659.74	42.13
659.89	0.00
660.03	39.79
660.17	72.56
660.32	53.83
660.46	0.00
660.60	21.06
660.74	0.00
660.89	79.58
661.03	102.98
661.17	0.00
661.32	0.00
661.46	39.79
661.60	35.11
661.74	35.11
661.89	51.49
662.03	23.41
662.17	44.47
662.31	53.83
662.46	65.54
662.60	0.00
662.74	51.49
662.88	39.79
663.03	25.75
663.17	16.38
663.31	42.13
663.45	102.98
663.60	39.79
663.74	11.70
663.88	51.49
664.02	149.79
664.17	7.02
664.31	39.79
664.45	51.49
664.59	21.06
664.73	91.28
664.88	58.51
665.02	0.00
665.16	2.34
665.30	11.70
665.44	56.17
665.59	88.94
665.73	74.90
665.87	25.75
666.01	77.24
666.15	46.81
666.29	100.64
666.44	39.79
666.58	0.00
666.72	18.72
666.86	39.79
667.00	51.49
667.14	110.01
667.28	44.47
667.43	46.81
667.57	14.04
667.71	49.15
667.85	84.26
667.99	58.51
668.13	39.79
668.27	28.09
668.41	60.85
668.56	72.56
668.70	21.06
668.84	65.54
668.98	30.43
669.12	72.56
669.26	88.94
669.40	14.04
669.54	49.15
669.68	58.51
669.82	21.06
669.96	100.64
670.10	46.81
670.25	77.24
670.39	0.00
670.53	65.54
670.67	42.13
670.81	18.72
670.95	67.88
671.09	117.03
671.23	11.70
671.37	0.00
671.51	11.70
671.65	25.75
671.79	51.49
671.93	88.94
672.07	35.11
672.21	28.09
672.35	91.28
672.49	35.11
672.63	0.00
672.77	72.56
672.91	58.51
673.05	70.22
673.19	93.62
673.33	21.06
673.47	25.75
673.61	44.47
673.75	11.70
673.89	0.00
674.03	56.17
674.17	16.38
674.31	74.90
674.45	32.77
674.59	42.13
674.73	112.35
674.87	46.81
675.01	0.00
675.15	56.17
675.29	0.00
675.43	65.54
675.56	81.92
675.70	74.90
675.84	28.09
675.98	63.19
676.12	49.15
676.26	21.06
676.40	37.45
676.54	81.92
676.68	7.02
676.82	46.81
676.96	39.79
677.10	25.75
677.23	91.28
677.37	35.11
677.51	0.00
677.65	39.79
677.79	65.54
677.93	65.54
678.07	86.60
678.21	44.47
678.34	65.54
678.48	16.38
678.62	37.45
678.76	67.88
678.90	30.43
679.04	88.94
679.18	39.79
679.31	42.13
679.45	28.09
679.59	11.70
679.73	23.41
679.87	7.02
680.00	16.38
680.14	28.09
680.28	63.19
680.42	42.13
680.56	23.41
680.70	32.77
680.83	95.96
680.97	98.30
681.11	0.00
681.25	0.00
681.39	32.77
681.52	32.77
681.66	0.00
681.80	23.41
681.94	42.13
682.07	65.54
682.21	14.04
682.35	72.56
682.49	11.70
682.62	53.83
682.76	63.19
682.90	39.79
683.04	30.43
683.17	0.00
683.31	126.39
683.45	0.00
683.59	110.01
683.72	142.77
683.86	11.70
684.00	56.17
684.13	0.00
684.27	37.45
684.41	86.60
684.55	0.00
684.68	0.00
684.82	35.11
684.96	56.17
685.09	65.54
685.23	63.19
685.37	0.00
685.50	53.83
685.64	44.47
685.78	7.02
685.91	51.49
686.05	53.83
686.19	7.02
686.32	18.72
686.46	58.51
686.60	14.04
686.73	49.15
686.87	0.00
687.01	46.81
687.14	0.00
687.28	0.00
687.42	23.41
687.55	0.00
687.69	37.45
687.82	51.49
687.96	42.13
688.10	0.00
688.23	11.70
688.37	32.77
688.50	14.04
688.64	42.13
688.78	35.11
688.91	81.92
689.05	46.81
689.18	0.00
689.32	2.34
689.46	0.00
689.59	9.36
689.73	67.88
689.86	56.17
690.00	11.70
690.13	9.36
690.27	44.47
690.41	16.38
690.54	28.09
690.68	53.83
690.81	0.00
690.95	0.00
691.08	81.92
691.22	84.26
691.35	74.90
691.49	2.34
691.62	0.00
691.76	2.34
691.89	37.45
692.03	7.02
692.16	9.36
692.30	65.54
692.43	35.11
692.57	0.00
692.70	23.41
692.84	35.11
692.97	14.04
693.11	42.13
693.24	74.90
693.38	16.38
693.51	42.13
693.65	35.11
693.78	84.26
693.92	28.09
694.05	67.88
694.19	42.13
694.32	32.77
694.45	74.90
694.59	56.17
694.72	25.75
694.86	84.26
694.99	102.98
695.13	37.45
695.26	58.51
695.39	46.81
695.53	72.56
695.66	0.00
695.80	58.51
695.93	9.36
696.07	93.62
696.20	110.01
696.33	67.88
696.47	56.17
696.60	84.26
696.73	37.45
696.87	28.09
697.00	49.15
697.14	70.22
697.27	70.22
697.40	21.06
697.54	56.17
697.67	44.47
697.80	32.77
697.94	0.00
698.07	0.00
698.21	0.00
698.34	0.00
698.47	49.15
698.61	77.24
698.74	28.09
698.87	32.77
699.01	28.09
699.14	0.00
699.27	114.69
699.40	58.51
699.54	56.17
699.67	0.00
699.80	51.49
699.94	65.54
700.07	0.00
700.20	35.11
700.34	9.36
700.47	9.36
700.60	39.79
700.73	0.00
700.87	18.72
701.00	53.83
701.13	25.75
701.26	93.62
701.40	95.96
701.53	32.77
701.66	72.56
701.79	0.00
701.93	107.66
702.06	37.45
702.19	32.77
702.32	53.83
702.46	0.00
702.59	0.00
702.72	93.62
702.85	79.58
702.99	70.22
703.12	28.09
703.25	77.24
703.38	93.62
703.51	18.72
703.65	23.41
703.78	53.83
703.91	25.75
704.04	84.26
704.17	53.83
704.31	44.47
704.44	0.00
704.57	0.00
704.70	65.54
704.83	46.81
704.96	72.56
705.10	0.00
705.23	28.09
>>>>>End Processed Spectral Data<<<<<
