SpectraSuite Data File
++++++++++++++++++++++++++++++++++++
Date: Fri Oct 04 12:13:24 GMT-05:00 2013
User: price-jones
Dark Spectrum Present: No
Reference Spectrum Present: No
Number of Sampled Component Spectra: 1
Spectrometers: USB2+H05261
Integration Time (usec): 10000 (USB2+H05261)
Spectra Averaged: 1 (USB2+H05261)
Boxcar Smoothing: 0 (USB2+H05261)
Correct for Electrical Dark: No (USB2+H05261)
Strobe/Lamp Enabled: No (USB2+H05261)
Correct for Detector Non-linearity: No (USB2+H05261)
Correct for Stray Light: No (USB2+H05261)
Number of Pixels in Processed Spectrum: 2048
>>>>>Begin Processed Spectral Data<<<<<
365.73	0.00
365.92	0.00
366.12	0.00
366.32	0.00
366.52	0.00
366.72	0.00
366.91	0.00
367.11	0.00
367.31	0.00
367.51	0.00
367.70	0.00
367.90	0.00
368.10	0.00
368.30	0.00
368.49	0.00
368.69	0.00
368.89	0.00
369.09	0.00
369.28	0.00
369.48	0.00
369.68	0.00
369.87	0.00
370.07	0.00
370.27	0.00
370.47	0.00
370.66	0.00
370.86	0.00
371.06	0.00
371.25	0.00
371.45	0.00
371.65	2.34
371.84	0.00
372.04	9.36
372.24	0.00
372.44	0.00
372.63	30.43
372.83	0.00
373.03	0.00
373.22	11.70
373.42	23.41
373.62	4.68
373.81	0.00
374.01	42.13
374.21	65.54
374.40	28.09
374.60	18.72
374.79	46.81
374.99	39.79
375.19	67.88
375.38	28.09
375.58	77.24
375.78	37.45
375.97	4.68
376.17	32.77
376.37	30.43
376.56	60.85
376.76	7.02
376.95	74.90
377.15	39.79
377.35	23.41
377.54	18.72
377.74	39.79
377.93	0.00
378.13	23.41
378.33	0.00
378.52	35.11
378.72	0.00
378.91	44.47
379.11	46.81
379.31	37.45
379.50	14.04
379.70	32.77
379.89	11.70
380.09	84.26
380.28	37.45
380.48	70.22
380.68	23.41
380.87	0.00
381.07	0.00
381.26	23.41
381.46	35.11
381.65	11.70
381.85	18.72
382.04	0.00
382.24	0.00
382.43	0.00
382.63	32.77
382.83	32.77
383.02	74.90
383.22	56.17
383.41	0.00
383.61	37.45
383.80	46.81
384.00	37.45
384.19	0.00
384.39	39.79
384.58	16.38
384.78	84.26
384.97	0.00
385.17	51.49
385.36	0.00
385.56	39.79
385.75	79.58
385.95	9.36
386.14	88.94
386.34	37.45
386.53	23.41
386.72	46.81
386.92	0.00
387.11	63.19
387.31	18.72
387.50	18.72
387.70	32.77
387.89	25.75
388.09	0.00
388.28	9.36
388.48	9.36
388.67	0.00
388.86	0.00
389.06	65.54
389.25	0.00
389.45	2.34
389.64	0.00
389.84	49.15
390.03	37.45
390.22	0.00
390.42	21.06
390.61	23.41
390.81	0.00
391.00	0.00
391.19	0.00
391.39	0.00
391.58	93.62
391.78	0.00
391.97	2.34
392.16	0.00
392.36	18.72
392.55	70.22
392.75	7.02
392.94	0.00
393.13	25.75
393.33	2.34
393.52	2.34
393.71	56.17
393.91	0.00
394.10	107.66
394.29	0.00
394.49	28.09
394.68	0.00
394.88	11.70
395.07	0.00
395.26	0.00
395.46	0.00
395.65	51.49
395.84	86.60
396.04	0.00
396.23	16.38
396.42	42.13
396.62	0.00
396.81	74.90
397.00	25.75
397.19	2.34
397.39	74.90
397.58	0.00
397.77	32.77
397.97	72.56
398.16	0.00
398.35	35.11
398.55	21.06
398.74	0.00
398.93	77.24
399.12	37.45
399.32	28.09
399.51	9.36
399.70	25.75
399.90	49.15
400.09	4.68
400.28	23.41
400.47	30.43
400.67	35.11
400.86	63.19
401.05	0.00
401.24	18.72
401.44	9.36
401.63	7.02
401.82	4.68
402.01	0.00
402.21	9.36
402.40	23.41
402.59	0.00
402.78	0.00
402.97	63.19
403.17	86.60
403.36	0.00
403.55	65.54
403.74	0.00
403.93	56.17
404.13	4.68
404.32	35.11
404.51	0.00
404.70	0.00
404.89	35.11
405.09	63.19
405.28	0.00
405.47	53.83
405.66	98.30
405.85	25.75
406.05	0.00
406.24	23.41
406.43	28.09
406.62	0.00
406.81	67.88
407.00	0.00
407.20	63.19
407.39	42.13
407.58	30.43
407.77	39.79
407.96	58.51
408.15	74.90
408.34	60.85
408.54	42.13
408.73	77.24
408.92	0.00
409.11	11.70
409.30	67.88
409.49	56.17
409.68	63.19
409.87	4.68
410.07	49.15
410.26	0.00
410.45	14.04
410.64	49.15
410.83	0.00
411.02	7.02
411.21	58.51
411.40	25.75
411.59	56.17
411.78	0.00
411.98	0.00
412.17	56.17
412.36	70.22
412.55	39.79
412.74	84.26
412.93	126.39
413.12	7.02
413.31	0.00
413.50	7.02
413.69	28.09
413.88	46.81
414.07	49.15
414.26	0.00
414.45	86.60
414.64	21.06
414.83	30.43
415.02	39.79
415.22	67.88
415.41	16.38
415.60	56.17
415.79	56.17
415.98	0.00
416.17	16.38
416.36	77.24
416.55	56.17
416.74	37.45
416.93	0.00
417.12	0.00
417.31	7.02
417.50	51.49
417.69	18.72
417.88	11.70
418.07	60.85
418.26	16.38
418.45	9.36
418.64	18.72
418.83	0.00
419.02	14.04
419.21	39.79
419.39	0.00
419.58	25.75
419.77	0.00
419.96	70.22
420.15	46.81
420.34	11.70
420.53	0.00
420.72	63.19
420.91	46.81
421.10	91.28
421.29	44.47
421.48	16.38
421.67	0.00
421.86	79.58
422.05	56.17
422.24	0.00
422.43	4.68
422.61	0.00
422.80	60.85
422.99	21.06
423.18	0.00
423.37	37.45
423.56	49.15
423.75	0.00
423.94	93.62
424.13	0.00
424.32	79.58
424.50	67.88
424.69	72.56
424.88	77.24
425.07	0.00
425.26	72.56
425.45	0.00
425.64	79.58
425.83	9.36
426.01	21.06
426.20	51.49
426.39	0.00
426.58	0.00
426.77	0.00
426.96	14.04
427.15	11.70
427.33	0.00
427.52	9.36
427.71	86.60
427.90	51.49
428.09	84.26
428.28	65.54
428.46	0.00
428.65	84.26
428.84	56.17
429.03	42.13
429.22	35.11
429.40	37.45
429.59	0.00
429.78	14.04
429.97	65.54
430.16	58.51
430.34	53.83
430.53	44.47
430.72	18.72
430.91	0.00
431.10	42.13
431.28	0.00
431.47	0.00
431.66	58.51
431.85	25.75
432.03	84.26
432.22	67.88
432.41	0.00
432.60	35.11
432.79	14.04
432.97	0.00
433.16	63.19
433.35	37.45
433.54	0.00
433.72	4.68
433.91	30.43
434.10	51.49
434.28	0.00
434.47	0.00
434.66	37.45
434.85	0.00
435.03	11.70
435.22	53.83
435.41	77.24
435.59	0.00
435.78	0.00
435.97	28.09
436.16	0.00
436.34	58.51
436.53	44.47
436.72	32.77
436.90	32.77
437.09	18.72
437.28	28.09
437.46	53.83
437.65	0.00
437.84	23.41
438.02	28.09
438.21	79.58
438.40	7.02
438.58	42.13
438.77	9.36
438.96	37.45
439.14	0.00
439.33	86.60
439.52	18.72
439.70	2.34
439.89	37.45
440.08	0.00
440.26	110.01
440.45	23.41
440.63	39.79
440.82	35.11
441.01	23.41
441.19	86.60
441.38	114.69
441.57	81.92
441.75	0.00
441.94	58.51
442.12	39.79
442.31	7.02
442.50	28.09
442.68	18.72
442.87	35.11
443.05	0.00
443.24	44.47
443.43	95.96
443.61	0.00
443.80	0.00
443.98	28.09
444.17	30.43
444.35	0.00
444.54	9.36
444.73	11.70
444.91	25.75
445.10	39.79
445.28	0.00
445.47	53.83
445.65	18.72
445.84	81.92
446.02	37.45
446.21	93.62
446.39	53.83
446.58	0.00
446.77	16.38
446.95	0.00
447.14	77.24
447.32	32.77
447.51	0.00
447.69	37.45
447.88	44.47
448.06	63.19
448.25	11.70
448.43	46.81
448.62	0.00
448.80	0.00
448.99	0.00
449.17	28.09
449.36	56.17
449.54	74.90
449.73	128.73
449.91	0.00
450.10	58.51
450.28	9.36
450.46	39.79
450.65	0.00
450.83	67.88
451.02	0.00
451.20	16.38
451.39	32.77
451.57	63.19
451.76	37.45
451.94	2.34
452.13	28.09
452.31	63.19
452.49	32.77
452.68	28.09
452.86	53.83
453.05	79.58
453.23	84.26
453.42	16.38
453.60	58.51
453.78	14.04
453.97	14.04
454.15	32.77
454.34	21.06
454.52	53.83
454.70	18.72
454.89	4.68
455.07	42.13
455.26	0.00
455.44	39.79
455.62	65.54
455.81	32.77
455.99	21.06
456.17	7.02
456.36	49.15
456.54	0.00
456.73	0.00
456.91	70.22
457.09	0.00
457.28	0.00
457.46	9.36
457.64	0.00
457.83	16.38
458.01	28.09
458.19	25.75
458.38	14.04
458.56	0.00
458.74	49.15
458.93	72.56
459.11	88.94
459.29	51.49
459.48	0.00
459.66	9.36
459.84	65.54
460.03	67.88
460.21	77.24
460.39	32.77
460.57	21.06
460.76	74.90
460.94	51.49
461.12	110.01
461.31	86.60
461.49	86.60
461.67	23.41
461.85	56.17
462.04	65.54
462.22	63.19
462.40	0.00
462.59	37.45
462.77	14.04
462.95	28.09
463.13	49.15
463.32	23.41
463.50	49.15
463.68	0.00
463.86	14.04
464.05	23.41
464.23	14.04
464.41	28.09
464.59	2.34
464.78	0.00
464.96	53.83
465.14	35.11
465.32	23.41
465.50	56.17
465.69	32.77
465.87	0.00
466.05	21.06
466.23	74.90
466.41	70.22
466.60	42.13
466.78	39.79
466.96	32.77
467.14	18.72
467.32	11.70
467.51	7.02
467.69	18.72
467.87	14.04
468.05	0.00
468.23	37.45
468.41	23.41
468.60	72.56
468.78	84.26
468.96	0.00
469.14	0.00
469.32	0.00
469.50	44.47
469.69	0.00
469.87	0.00
470.05	49.15
470.23	32.77
470.41	18.72
470.59	28.09
470.77	65.54
470.95	95.96
471.14	112.35
471.32	67.88
471.50	16.38
471.68	91.28
471.86	30.43
472.04	74.90
472.22	53.83
472.40	16.38
472.58	0.00
472.77	49.15
472.95	0.00
473.13	72.56
473.31	74.90
473.49	23.41
473.67	86.60
473.85	32.77
474.03	0.00
474.21	67.88
474.39	49.15
474.57	18.72
474.75	49.15
474.93	51.49
475.12	21.06
475.30	79.58
475.48	44.47
475.66	81.92
475.84	56.17
476.02	67.88
476.20	42.13
476.38	44.47
476.56	14.04
476.74	0.00
476.92	58.51
477.10	0.00
477.28	35.11
477.46	7.02
477.64	0.00
477.82	35.11
478.00	49.15
478.18	4.68
478.36	56.17
478.54	84.26
478.72	65.54
478.90	56.17
479.08	102.98
479.26	11.70
479.44	49.15
479.62	11.70
479.80	138.09
479.98	23.41
480.16	53.83
480.34	0.00
480.52	9.36
480.70	9.36
480.88	16.38
481.06	65.54
481.24	0.00
481.41	39.79
481.59	25.75
481.77	42.13
481.95	23.41
482.13	0.00
482.31	49.15
482.49	91.28
482.67	35.11
482.85	0.00
483.03	18.72
483.21	0.00
483.39	0.00
483.57	51.49
483.74	18.72
483.92	63.19
484.10	0.00
484.28	2.34
484.46	18.72
484.64	56.17
484.82	56.17
485.00	28.09
485.18	32.77
485.35	91.28
485.53	25.75
485.71	56.17
485.89	86.60
486.07	23.41
486.25	51.49
486.43	11.70
486.61	72.56
486.78	110.01
486.96	58.51
487.14	21.06
487.32	0.00
487.50	91.28
487.68	58.51
487.85	39.79
488.03	32.77
488.21	0.00
488.39	9.36
488.57	28.09
488.75	42.13
488.92	102.98
489.10	56.17
489.28	2.34
489.46	67.88
489.64	0.00
489.81	124.05
489.99	32.77
490.17	21.06
490.35	0.00
490.53	11.70
490.70	0.00
490.88	0.00
491.06	91.28
491.24	37.45
491.41	30.43
491.59	16.38
491.77	51.49
491.95	58.51
492.13	77.24
492.30	0.00
492.48	35.11
492.66	30.43
492.84	25.75
493.01	79.58
493.19	58.51
493.37	30.43
493.54	35.11
493.72	58.51
493.90	0.00
494.08	16.38
494.25	0.00
494.43	16.38
494.61	16.38
494.79	37.45
494.96	77.24
495.14	65.54
495.32	37.45
495.49	23.41
495.67	0.00
495.85	58.51
496.02	4.68
496.20	46.81
496.38	70.22
496.55	30.43
496.73	88.94
496.91	35.11
497.09	7.02
497.26	105.32
497.44	32.77
497.62	100.64
497.79	49.15
497.97	0.00
498.14	42.13
498.32	37.45
498.50	95.96
498.67	30.43
498.85	21.06
499.03	32.77
499.20	0.00
499.38	25.75
499.56	81.92
499.73	35.11
499.91	37.45
500.08	79.58
500.26	53.83
500.44	63.19
500.61	0.00
500.79	51.49
500.97	74.90
501.14	51.49
501.32	77.24
501.49	63.19
501.67	70.22
501.84	21.06
502.02	112.35
502.20	51.49
502.37	23.41
502.55	58.51
502.72	4.68
502.90	32.77
503.07	51.49
503.25	2.34
503.43	30.43
503.60	2.34
503.78	9.36
503.95	49.15
504.13	0.00
504.30	0.00
504.48	46.81
504.65	11.70
504.83	2.34
505.01	0.00
505.18	84.26
505.36	53.83
505.53	32.77
505.71	0.00
505.88	11.70
506.06	0.00
506.23	0.00
506.41	9.36
506.58	46.81
506.76	25.75
506.93	28.09
507.11	18.72
507.28	98.30
507.46	0.00
507.63	49.15
507.81	37.45
507.98	23.41
508.16	32.77
508.33	117.03
508.50	65.54
508.68	56.17
508.85	0.00
509.03	105.32
509.20	7.02
509.38	86.60
509.55	18.72
509.73	79.58
509.90	105.32
510.08	65.54
510.25	100.64
510.42	14.04
510.60	0.00
510.77	44.47
510.95	0.00
511.12	49.15
511.30	37.45
511.47	14.04
511.64	67.88
511.82	28.09
511.99	72.56
512.17	9.36
512.34	44.47
512.51	35.11
512.69	102.98
512.86	0.00
513.04	42.13
513.21	119.37
513.38	105.32
513.56	7.02
513.73	0.00
513.90	23.41
514.08	30.43
514.25	39.79
514.43	58.51
514.60	0.00
514.77	28.09
514.95	56.17
515.12	28.09
515.29	86.60
515.47	21.06
515.64	18.72
515.81	16.38
515.99	67.88
516.16	2.34
516.33	32.77
516.51	60.85
516.68	77.24
516.85	49.15
517.03	70.22
517.20	74.90
517.37	44.47
517.54	23.41
517.72	53.83
517.89	102.98
518.06	18.72
518.24	58.51
518.41	37.45
518.58	42.13
518.75	128.73
518.93	56.17
519.10	58.51
519.27	0.00
519.45	11.70
519.62	0.00
519.79	39.79
519.96	7.02
520.14	91.28
520.31	9.36
520.48	2.34
520.65	28.09
520.83	154.48
521.00	49.15
521.17	16.38
521.34	32.77
521.52	49.15
521.69	56.17
521.86	49.15
522.03	28.09
522.20	0.00
522.38	44.47
522.55	49.15
522.72	35.11
522.89	16.38
523.07	25.75
523.24	98.30
523.41	131.07
523.58	91.28
523.75	30.43
523.92	42.13
524.10	37.45
524.27	44.47
524.44	35.11
524.61	74.90
524.78	51.49
524.96	21.06
525.13	81.92
525.30	102.98
525.47	0.00
525.64	30.43
525.81	77.24
525.98	46.81
526.16	72.56
526.33	46.81
526.50	30.43
526.67	58.51
526.84	0.00
527.01	14.04
527.18	60.85
527.36	32.77
527.53	21.06
527.70	9.36
527.87	39.79
528.04	63.19
528.21	60.85
528.38	42.13
528.55	95.96
528.72	11.70
528.89	58.51
529.07	16.38
529.24	65.54
529.41	46.81
529.58	72.56
529.75	84.26
529.92	14.04
530.09	35.11
530.26	28.09
530.43	72.56
530.60	30.43
530.77	58.51
530.94	56.17
531.11	145.11
531.28	25.75
531.46	0.00
531.63	60.85
531.80	7.02
531.97	51.49
532.14	23.41
532.31	42.13
532.48	65.54
532.65	100.64
532.82	4.68
532.99	58.51
533.16	58.51
533.33	0.00
533.50	91.28
533.67	58.51
533.84	79.58
534.01	58.51
534.18	100.64
534.35	39.79
534.52	37.45
534.69	2.34
534.86	32.77
535.03	25.75
535.20	98.30
535.37	0.00
535.54	0.00
535.71	0.00
535.88	9.36
536.05	51.49
536.22	30.43
536.38	0.00
536.55	25.75
536.72	93.62
536.89	21.06
537.06	60.85
537.23	2.34
537.40	18.72
537.57	105.32
537.74	72.56
537.91	0.00
538.08	30.43
538.25	42.13
538.42	44.47
538.59	0.00
538.75	25.75
538.92	0.00
539.09	46.81
539.26	107.66
539.43	93.62
539.60	65.54
539.77	0.00
539.94	0.00
540.11	49.15
540.28	32.77
540.44	114.69
540.61	77.24
540.78	70.22
540.95	39.79
541.12	91.28
541.29	0.00
541.46	0.00
541.62	51.49
541.79	0.00
541.96	42.13
542.13	49.15
542.30	0.00
542.47	42.13
542.63	4.68
542.80	70.22
542.97	7.02
543.14	0.00
543.31	4.68
543.48	23.41
543.64	65.54
543.81	79.58
543.98	88.94
544.15	4.68
544.32	18.72
544.48	86.60
544.65	77.24
544.82	7.02
544.99	65.54
545.16	37.45
545.32	0.00
545.49	30.43
545.66	81.92
545.83	30.43
546.00	74.90
546.16	0.00
546.33	65.54
546.50	0.00
546.67	74.90
546.83	0.00
547.00	18.72
547.17	7.02
547.34	35.11
547.50	28.09
547.67	51.49
547.84	51.49
548.00	67.88
548.17	63.19
548.34	25.75
548.51	39.79
548.67	60.85
548.84	30.43
549.01	44.47
549.18	98.30
549.34	51.49
549.51	35.11
549.68	0.00
549.84	25.75
550.01	18.72
550.18	100.64
550.34	4.68
550.51	60.85
550.68	11.70
550.84	110.01
551.01	56.17
551.18	25.75
551.34	79.58
551.51	60.85
551.68	42.13
551.84	7.02
552.01	56.17
552.18	51.49
552.34	4.68
552.51	0.00
552.68	0.00
552.84	42.13
553.01	79.58
553.18	53.83
553.34	25.75
553.51	42.13
553.67	39.79
553.84	53.83
554.01	63.19
554.17	2.34
554.34	79.58
554.51	35.11
554.67	51.49
554.84	18.72
555.00	7.02
555.17	56.17
555.33	51.49
555.50	72.56
555.67	30.43
555.83	37.45
556.00	98.30
556.16	77.24
556.33	70.22
556.50	32.77
556.66	25.75
556.83	79.58
556.99	49.15
557.16	145.11
557.32	49.15
557.49	44.47
557.65	37.45
557.82	65.54
557.98	86.60
558.15	0.00
558.32	0.00
558.48	30.43
558.65	72.56
558.81	32.77
558.98	77.24
559.14	0.00
559.31	0.00
559.47	39.79
559.64	0.00
559.80	23.41
559.97	9.36
560.13	126.39
560.30	7.02
560.46	16.38
560.63	88.94
560.79	65.54
560.96	0.00
561.12	23.41
561.29	58.51
561.45	67.88
561.61	4.68
561.78	51.49
561.94	112.35
562.11	0.00
562.27	79.58
562.44	18.72
562.60	60.85
562.77	11.70
562.93	98.30
563.10	7.02
563.26	0.00
563.42	51.49
563.59	21.06
563.75	121.71
563.92	35.11
564.08	23.41
564.24	86.60
564.41	72.56
564.57	0.00
564.74	56.17
564.90	124.05
565.07	74.90
565.23	46.81
565.39	0.00
565.56	58.51
565.72	9.36
565.88	39.79
566.05	51.49
566.21	51.49
566.38	0.00
566.54	60.85
566.70	65.54
566.87	46.81
567.03	0.00
567.19	95.96
567.36	11.70
567.52	0.00
567.68	32.77
567.85	0.00
568.01	124.05
568.17	44.47
568.34	147.45
568.50	11.70
568.66	32.77
568.83	63.19
568.99	51.49
569.15	84.26
569.32	58.51
569.48	58.51
569.64	18.72
569.81	51.49
569.97	2.34
570.13	25.75
570.30	0.00
570.46	39.79
570.62	46.81
570.78	46.81
570.95	58.51
571.11	7.02
571.27	9.36
571.43	0.00
571.60	0.00
571.76	67.88
571.92	51.49
572.09	72.56
572.25	30.43
572.41	32.77
572.57	37.45
572.74	70.22
572.90	30.43
573.06	11.70
573.22	53.83
573.38	32.77
573.55	77.24
573.71	56.17
573.87	37.45
574.03	60.85
574.20	60.85
574.36	35.11
574.52	0.00
574.68	0.00
574.84	95.96
575.01	18.72
575.17	21.06
575.33	28.09
575.49	95.96
575.65	107.66
575.82	110.01
575.98	49.15
576.14	72.56
576.30	114.69
576.46	0.00
576.62	39.79
576.79	49.15
576.95	37.45
577.11	124.05
577.27	77.24
577.43	60.85
577.59	0.00
577.75	0.00
577.92	0.00
578.08	46.81
578.24	32.77
578.40	30.43
578.56	16.38
578.72	0.00
578.88	0.00
579.04	0.00
579.21	39.79
579.37	65.54
579.53	0.00
579.69	30.43
579.85	9.36
580.01	81.92
580.17	42.13
580.33	32.77
580.49	14.04
580.65	32.77
580.82	56.17
580.98	30.43
581.14	0.00
581.30	72.56
581.46	0.00
581.62	23.41
581.78	51.49
581.94	4.68
582.10	46.81
582.26	74.90
582.42	98.30
582.58	32.77
582.74	44.47
582.90	70.22
583.06	9.36
583.22	65.54
583.38	21.06
583.54	0.00
583.70	7.02
583.86	9.36
584.02	28.09
584.18	0.00
584.34	25.75
584.50	0.00
584.66	79.58
584.82	39.79
584.98	46.81
585.14	16.38
585.30	16.38
585.46	32.77
585.62	70.22
585.78	0.00
585.94	39.79
586.10	0.00
586.26	72.56
586.42	37.45
586.58	23.41
586.74	60.85
586.90	72.56
587.06	30.43
587.22	23.41
587.38	16.38
587.54	81.92
587.70	84.26
587.86	72.56
588.02	93.62
588.18	0.00
588.34	128.73
588.49	58.51
588.65	65.54
588.81	98.30
588.97	58.51
589.13	53.83
589.29	102.98
589.45	0.00
589.61	46.81
589.77	67.88
589.93	51.49
590.08	7.02
590.24	65.54
590.40	9.36
590.56	53.83
590.72	0.00
590.88	0.00
591.04	7.02
591.20	0.00
591.35	0.00
591.51	0.00
591.67	70.22
591.83	88.94
591.99	37.45
592.15	18.72
592.31	63.19
592.46	0.00
592.62	49.15
592.78	53.83
592.94	32.77
593.10	0.00
593.26	32.77
593.41	79.58
593.57	67.88
593.73	42.13
593.89	14.04
594.05	42.13
594.20	14.04
594.36	102.98
594.52	60.85
594.68	0.00
594.84	25.75
594.99	23.41
595.15	14.04
595.31	56.17
595.47	11.70
595.62	72.56
595.78	16.38
595.94	49.15
596.10	25.75
596.25	0.00
596.41	0.00
596.57	0.00
596.73	23.41
596.88	39.79
597.04	39.79
597.20	0.00
597.36	0.00
597.51	63.19
597.67	95.96
597.83	30.43
597.99	77.24
598.14	84.26
598.30	25.75
598.46	49.15
598.61	49.15
598.77	35.11
598.93	37.45
599.09	0.00
599.24	107.66
599.40	84.26
599.56	0.00
599.71	23.41
599.87	56.17
600.03	0.00
600.18	79.58
600.34	23.41
600.50	63.19
600.65	112.35
600.81	84.26
600.97	39.79
601.12	7.02
601.28	46.81
601.44	32.77
601.59	11.70
601.75	49.15
601.91	131.07
602.06	98.30
602.22	102.98
602.37	81.92
602.53	63.19
602.69	7.02
602.84	56.17
603.00	65.54
603.16	0.00
603.31	79.58
603.47	126.39
603.62	37.45
603.78	0.00
603.94	46.81
604.09	37.45
604.25	35.11
604.40	107.66
604.56	88.94
604.71	65.54
604.87	65.54
605.03	84.26
605.18	100.64
605.34	9.36
605.49	70.22
605.65	58.51
605.80	23.41
605.96	84.26
606.12	49.15
606.27	28.09
606.43	84.26
606.58	58.51
606.74	65.54
606.89	0.00
607.05	65.54
607.20	74.90
607.36	0.00
607.51	16.38
607.67	11.70
607.82	86.60
607.98	28.09
608.13	65.54
608.29	4.68
608.44	65.54
608.60	88.94
608.75	145.11
608.91	51.49
609.06	0.00
609.22	11.70
609.37	18.72
609.53	25.75
609.68	49.15
609.84	7.02
609.99	42.13
610.15	81.92
610.30	60.85
610.46	44.47
610.61	88.94
610.76	42.13
610.92	70.22
611.07	18.72
611.23	74.90
611.38	60.85
611.54	0.00
611.69	21.06
611.84	63.19
612.00	95.96
612.15	4.68
612.31	30.43
612.46	84.26
612.62	14.04
612.77	28.09
612.92	0.00
613.08	42.13
613.23	51.49
613.39	32.77
613.54	60.85
613.69	110.01
613.85	77.24
614.00	84.26
614.15	56.17
614.31	72.56
614.46	53.83
614.62	37.45
614.77	35.11
614.92	0.00
615.08	30.43
615.23	58.51
615.38	16.38
615.54	102.98
615.69	0.00
615.84	16.38
616.00	37.45
616.15	14.04
616.30	37.45
616.46	0.00
616.61	63.19
616.76	74.90
616.92	74.90
617.07	37.45
617.22	77.24
617.37	105.32
617.53	105.32
617.68	18.72
617.83	77.24
617.99	53.83
618.14	67.88
618.29	42.13
618.45	81.92
618.60	0.00
618.75	0.00
618.90	30.43
619.06	77.24
619.21	53.83
619.36	2.34
619.51	4.68
619.67	51.49
619.82	0.00
619.97	37.45
620.12	0.00
620.28	2.34
620.43	0.00
620.58	44.47
620.73	79.58
620.89	0.00
621.04	4.68
621.19	56.17
621.34	42.13
621.49	14.04
621.65	79.58
621.80	32.77
621.95	25.75
622.10	39.79
622.25	58.51
622.41	56.17
622.56	56.17
622.71	37.45
622.86	0.00
623.01	65.54
623.16	100.64
623.32	35.11
623.47	28.09
623.62	49.15
623.77	51.49
623.92	46.81
624.07	88.94
624.23	0.00
624.38	77.24
624.53	35.11
624.68	0.00
624.83	72.56
624.98	4.68
625.13	21.06
625.29	0.00
625.44	91.28
625.59	0.00
625.74	32.77
625.89	32.77
626.04	11.70
626.19	0.00
626.34	63.19
626.49	72.56
626.65	7.02
626.80	58.51
626.95	70.22
627.10	58.51
627.25	84.26
627.40	0.00
627.55	35.11
627.70	4.68
627.85	110.01
628.00	42.13
628.15	46.81
628.30	14.04
628.45	21.06
628.60	0.00
628.76	25.75
628.91	35.11
629.06	53.83
629.21	0.00
629.36	25.75
629.51	21.06
629.66	65.54
629.81	0.00
629.96	39.79
630.11	0.00
630.26	37.45
630.41	32.77
630.56	42.13
630.71	32.77
630.86	32.77
631.01	0.00
631.16	79.58
631.31	7.02
631.46	28.09
631.61	72.56
631.76	28.09
631.91	74.90
632.06	0.00
632.21	9.36
632.36	102.98
632.51	0.00
632.66	0.00
632.81	16.38
632.96	93.62
633.10	37.45
633.25	39.79
633.40	49.15
633.55	100.64
633.70	0.00
633.85	86.60
634.00	49.15
634.15	7.02
634.30	49.15
634.45	42.13
634.60	37.45
634.75	4.68
634.90	79.58
635.05	0.00
635.19	0.00
635.34	35.11
635.49	21.06
635.64	0.00
635.79	98.30
635.94	11.70
636.09	65.54
636.24	11.70
636.39	56.17
636.53	9.36
636.68	51.49
636.83	0.00
636.98	60.85
637.13	7.02
637.28	42.13
637.43	53.83
637.57	7.02
637.72	138.09
637.87	53.83
638.02	74.90
638.17	28.09
638.32	0.00
638.46	0.00
638.61	63.19
638.76	21.06
638.91	0.00
639.06	79.58
639.20	0.00
639.35	56.17
639.50	39.79
639.65	79.58
639.80	117.03
639.94	58.51
640.09	53.83
640.24	53.83
640.39	58.51
640.54	2.34
640.68	77.24
640.83	91.28
640.98	18.72
641.13	0.00
641.27	95.96
641.42	88.94
641.57	77.24
641.72	88.94
641.86	28.09
642.01	84.26
642.16	60.85
642.31	44.47
642.45	21.06
642.60	95.96
642.75	56.17
642.90	16.38
643.04	23.41
643.19	39.79
643.34	23.41
643.48	7.02
643.63	4.68
643.78	70.22
643.93	30.43
644.07	95.96
644.22	44.47
644.37	28.09
644.51	37.45
644.66	65.54
644.81	0.00
644.95	21.06
645.10	72.56
645.25	53.83
645.39	49.15
645.54	58.51
645.69	18.72
645.83	0.00
645.98	46.81
646.13	0.00
646.27	25.75
646.42	65.54
646.57	0.00
646.71	0.00
646.86	60.85
647.00	2.34
647.15	0.00
647.30	0.00
647.44	0.00
647.59	32.77
647.74	35.11
647.88	4.68
648.03	7.02
648.17	0.00
648.32	0.00
648.47	37.45
648.61	32.77
648.76	0.00
648.90	91.28
649.05	42.13
649.20	91.28
649.34	18.72
649.49	81.92
649.63	0.00
649.78	14.04
649.92	65.54
650.07	23.41
650.21	2.34
650.36	2.34
650.51	21.06
650.65	28.09
650.80	30.43
650.94	16.38
651.09	16.38
651.23	42.13
651.38	95.96
651.52	0.00
651.67	60.85
651.81	9.36
651.96	49.15
652.10	84.26
652.25	0.00
652.39	44.47
652.54	70.22
652.68	30.43
652.83	7.02
652.97	39.79
653.12	51.49
653.26	16.38
653.41	4.68
653.55	0.00
653.70	67.88
653.84	42.13
653.99	60.85
654.13	102.98
654.27	63.19
654.42	0.00
654.56	79.58
654.71	74.90
654.85	0.00
655.00	37.45
655.14	0.00
655.29	2.34
655.43	102.98
655.57	7.02
655.72	7.02
655.86	0.00
656.01	0.00
656.15	88.94
656.30	77.24
656.44	28.09
656.58	35.11
656.73	63.19
656.87	39.79
657.01	23.41
657.16	60.85
657.30	49.15
657.45	65.54
657.59	51.49
657.73	77.24
657.88	56.17
658.02	44.47
658.16	67.88
658.31	63.19
658.45	74.90
658.60	11.70
658.74	0.00
658.88	9.36
659.03	37.45
659.17	32.77
659.31	25.75
659.46	0.00
659.60	51.49
659.74	18.72
659.89	11.70
660.03	63.19
660.17	49.15
660.32	67.88
660.46	65.54
660.60	18.72
660.74	0.00
660.89	32.77
661.03	81.92
661.17	32.77
661.32	0.00
661.46	30.43
661.60	79.58
661.74	60.85
661.89	56.17
662.03	44.47
662.17	37.45
662.31	63.19
662.46	53.83
662.60	37.45
662.74	51.49
662.88	28.09
663.03	28.09
663.17	37.45
663.31	0.00
663.45	124.05
663.60	46.81
663.74	9.36
663.88	32.77
664.02	21.06
664.17	28.09
664.31	37.45
664.45	23.41
664.59	121.71
664.73	58.51
664.88	0.00
665.02	0.00
665.16	14.04
665.30	37.45
665.44	42.13
665.59	46.81
665.73	56.17
665.87	2.34
666.01	79.58
666.15	42.13
666.29	51.49
666.44	49.15
666.58	42.13
666.72	56.17
666.86	39.79
667.00	7.02
667.14	81.92
667.28	9.36
667.43	28.09
667.57	28.09
667.71	46.81
667.85	46.81
667.99	51.49
668.13	112.35
668.27	0.00
668.41	91.28
668.56	25.75
668.70	58.51
668.84	107.66
668.98	2.34
669.12	30.43
669.26	65.54
669.40	58.51
669.54	0.00
669.68	23.41
669.82	11.70
669.96	32.77
670.10	21.06
670.25	0.00
670.39	0.00
670.53	0.00
670.67	0.00
670.81	23.41
670.95	79.58
671.09	39.79
671.23	49.15
671.37	49.15
671.51	60.85
671.65	0.00
671.79	86.60
671.93	37.45
672.07	9.36
672.21	25.75
672.35	30.43
672.49	49.15
672.63	56.17
672.77	0.00
672.91	0.00
673.05	4.68
673.19	11.70
673.33	56.17
673.47	0.00
673.61	11.70
673.75	14.04
673.89	67.88
674.03	23.41
674.17	30.43
674.31	53.83
674.45	23.41
674.59	0.00
674.73	53.83
674.87	9.36
675.01	39.79
675.15	65.54
675.29	0.00
675.43	14.04
675.56	44.47
675.70	0.00
675.84	7.02
675.98	72.56
676.12	0.00
676.26	60.85
676.40	23.41
676.54	28.09
676.68	16.38
676.82	30.43
676.96	32.77
677.10	9.36
677.23	37.45
677.37	0.00
677.51	49.15
677.65	100.64
677.79	37.45
677.93	35.11
678.07	0.00
678.21	0.00
678.34	58.51
678.48	79.58
678.62	0.00
678.76	18.72
678.90	51.49
679.04	37.45
679.18	72.56
679.31	65.54
679.45	46.81
679.59	0.00
679.73	46.81
679.87	74.90
680.00	9.36
680.14	4.68
680.28	63.19
680.42	0.00
680.56	67.88
680.70	63.19
680.83	74.90
680.97	25.75
681.11	102.98
681.25	53.83
681.39	58.51
681.52	91.28
681.66	25.75
681.80	63.19
681.94	49.15
682.07	14.04
682.21	77.24
682.35	28.09
682.49	21.06
682.62	9.36
682.76	42.13
682.90	0.00
683.04	14.04
683.17	44.47
683.31	23.41
683.45	0.00
683.59	72.56
683.72	32.77
683.86	42.13
684.00	65.54
684.13	14.04
684.27	7.02
684.41	25.75
684.55	65.54
684.68	30.43
684.82	102.98
684.96	110.01
685.09	14.04
685.23	0.00
685.37	42.13
685.50	35.11
685.64	0.00
685.78	53.83
685.91	65.54
686.05	86.60
686.19	70.22
686.32	0.00
686.46	32.77
686.60	95.96
686.73	98.30
686.87	0.00
687.01	39.79
687.14	14.04
687.28	0.00
687.42	0.00
687.55	0.00
687.69	74.90
687.82	32.77
687.96	65.54
688.10	30.43
688.23	44.47
688.37	21.06
688.50	25.75
688.64	0.00
688.78	37.45
688.91	63.19
689.05	0.00
689.18	35.11
689.32	98.30
689.46	44.47
689.59	0.00
689.73	42.13
689.86	0.00
690.00	16.38
690.13	0.00
690.27	42.13
690.41	0.00
690.54	0.00
690.68	44.47
690.81	4.68
690.95	0.00
691.08	63.19
691.22	37.45
691.35	93.62
691.49	70.22
691.62	60.85
691.76	42.13
691.89	53.83
692.03	58.51
692.16	74.90
692.30	37.45
692.43	0.00
692.57	0.00
692.70	0.00
692.84	37.45
692.97	0.00
693.11	16.38
693.24	56.17
693.38	53.83
693.51	23.41
693.65	39.79
693.78	124.05
693.92	65.54
694.05	72.56
694.19	0.00
694.32	46.81
694.45	44.47
694.59	0.00
694.72	28.09
694.86	32.77
694.99	44.47
695.13	49.15
695.26	37.45
695.39	30.43
695.53	42.13
695.66	63.19
695.80	0.00
695.93	65.54
696.07	32.77
696.20	18.72
696.33	9.36
696.47	63.19
696.60	70.22
696.73	88.94
696.87	25.75
697.00	88.94
697.14	44.47
697.27	93.62
697.40	0.00
697.54	86.60
697.67	86.60
697.80	0.00
697.94	0.00
698.07	0.00
698.21	65.54
698.34	0.00
698.47	0.00
698.61	53.83
698.74	0.00
698.87	91.28
699.01	35.11
699.14	25.75
699.27	63.19
699.40	0.00
699.54	74.90
699.67	0.00
699.80	28.09
699.94	16.38
700.07	56.17
700.20	84.26
700.34	95.96
700.47	60.85
700.60	65.54
700.73	46.81
700.87	32.77
701.00	56.17
701.13	72.56
701.26	65.54
701.40	49.15
701.53	0.00
701.66	46.81
701.79	88.94
701.93	0.00
702.06	65.54
702.19	102.98
702.32	53.83
702.46	81.92
702.59	37.45
702.72	58.51
702.85	0.00
702.99	32.77
703.12	4.68
703.25	70.22
703.38	79.58
703.51	91.28
703.65	7.02
703.78	0.00
703.91	58.51
704.04	44.47
704.17	74.90
704.31	35.11
704.44	60.85
704.57	30.43
704.70	74.90
704.83	0.00
704.96	46.81
705.10	25.75
705.23	0.00
>>>>>End Processed Spectral Data<<<<<
