SpectraSuite Data File
++++++++++++++++++++++++++++++++++++
Date: Fri Oct 04 12:13:37 GMT-05:00 2013
User: price-jones
Dark Spectrum Present: No
Reference Spectrum Present: No
Number of Sampled Component Spectra: 1
Spectrometers: USB2+H05261
Integration Time (usec): 10000 (USB2+H05261)
Spectra Averaged: 1 (USB2+H05261)
Boxcar Smoothing: 0 (USB2+H05261)
Correct for Electrical Dark: No (USB2+H05261)
Strobe/Lamp Enabled: No (USB2+H05261)
Correct for Detector Non-linearity: No (USB2+H05261)
Correct for Stray Light: No (USB2+H05261)
Number of Pixels in Processed Spectrum: 2048
>>>>>Begin Processed Spectral Data<<<<<
365.73	9.36
365.92	9.36
366.12	9.36
366.32	0.00
366.52	0.00
366.72	0.00
366.91	0.00
367.11	0.00
367.31	0.00
367.51	0.00
367.70	0.00
367.90	0.00
368.10	0.00
368.30	0.00
368.49	0.00
368.69	0.00
368.89	0.00
369.09	0.00
369.28	0.00
369.48	0.00
369.68	0.00
369.87	0.00
370.07	0.00
370.27	0.00
370.47	0.00
370.66	0.00
370.86	0.00
371.06	0.00
371.25	0.00
371.45	0.00
371.65	0.00
371.84	0.00
372.04	79.58
372.24	0.00
372.44	25.75
372.63	37.45
372.83	0.00
373.03	11.70
373.22	0.00
373.42	79.58
373.62	51.49
373.81	28.09
374.01	0.00
374.21	67.88
374.40	28.09
374.60	25.75
374.79	28.09
374.99	4.68
375.19	72.56
375.38	42.13
375.58	107.66
375.78	58.51
375.97	51.49
376.17	86.60
376.37	0.00
376.56	0.00
376.76	23.41
376.95	9.36
377.15	98.30
377.35	0.00
377.54	30.43
377.74	18.72
377.93	23.41
378.13	0.00
378.33	32.77
378.52	35.11
378.72	0.00
378.91	0.00
379.11	53.83
379.31	72.56
379.50	18.72
379.70	42.13
379.89	9.36
380.09	98.30
380.28	102.98
380.48	32.77
380.68	11.70
380.87	0.00
381.07	0.00
381.26	0.00
381.46	30.43
381.65	0.00
381.85	0.00
382.04	84.26
382.24	28.09
382.43	16.38
382.63	0.00
382.83	42.13
383.02	100.64
383.22	7.02
383.41	0.00
383.61	21.06
383.80	0.00
384.00	0.00
384.19	4.68
384.39	0.00
384.58	0.00
384.78	25.75
384.97	14.04
385.17	0.00
385.36	25.75
385.56	4.68
385.75	0.00
385.95	0.00
386.14	65.54
386.34	37.45
386.53	51.49
386.72	0.00
386.92	11.70
387.11	14.04
387.31	9.36
387.50	21.06
387.70	72.56
387.89	119.37
388.09	0.00
388.28	0.00
388.48	25.75
388.67	28.09
388.86	72.56
389.06	11.70
389.25	9.36
389.45	11.70
389.64	11.70
389.84	16.38
390.03	11.70
390.22	42.13
390.42	67.88
390.61	37.45
390.81	0.00
391.00	30.43
391.19	0.00
391.39	21.06
391.58	51.49
391.78	56.17
391.97	0.00
392.16	0.00
392.36	37.45
392.55	28.09
392.75	46.81
392.94	53.83
393.13	0.00
393.33	0.00
393.52	21.06
393.71	42.13
393.91	65.54
394.10	0.00
394.29	9.36
394.49	0.00
394.68	56.17
394.88	23.41
395.07	126.39
395.26	0.00
395.46	0.00
395.65	39.79
395.84	79.58
396.04	25.75
396.23	0.00
396.42	28.09
396.62	23.41
396.81	18.72
397.00	58.51
397.19	21.06
397.39	16.38
397.58	2.34
397.77	51.49
397.97	30.43
398.16	39.79
398.35	18.72
398.55	0.00
398.74	28.09
398.93	25.75
399.12	0.00
399.32	25.75
399.51	0.00
399.70	0.00
399.90	0.00
400.09	0.00
400.28	53.83
400.47	18.72
400.67	30.43
400.86	60.85
401.05	2.34
401.24	4.68
401.44	23.41
401.63	0.00
401.82	9.36
402.01	0.00
402.21	58.51
402.40	11.70
402.59	58.51
402.78	0.00
402.97	16.38
403.17	30.43
403.36	42.13
403.55	42.13
403.74	0.00
403.93	9.36
404.13	63.19
404.32	51.49
404.51	0.00
404.70	21.06
404.89	0.00
405.09	91.28
405.28	14.04
405.47	67.88
405.66	84.26
405.85	46.81
406.05	0.00
406.24	56.17
406.43	18.72
406.62	32.77
406.81	0.00
407.00	9.36
407.20	65.54
407.39	35.11
407.58	4.68
407.77	81.92
407.96	0.00
408.15	35.11
408.34	0.00
408.54	37.45
408.73	67.88
408.92	14.04
409.11	39.79
409.30	74.90
409.49	37.45
409.68	0.00
409.87	28.09
410.07	18.72
410.26	32.77
410.45	81.92
410.64	53.83
410.83	42.13
411.02	35.11
411.21	9.36
411.40	0.00
411.59	11.70
411.78	86.60
411.98	30.43
412.17	9.36
412.36	18.72
412.55	0.00
412.74	84.26
412.93	56.17
413.12	98.30
413.31	79.58
413.50	42.13
413.69	35.11
413.88	23.41
414.07	9.36
414.26	63.19
414.45	21.06
414.64	21.06
414.83	74.90
415.02	114.69
415.22	39.79
415.41	79.58
415.60	46.81
415.79	119.37
415.98	88.94
416.17	9.36
416.36	77.24
416.55	88.94
416.74	0.00
416.93	0.00
417.12	63.19
417.31	53.83
417.50	81.92
417.69	63.19
417.88	67.88
418.07	58.51
418.26	58.51
418.45	49.15
418.64	77.24
418.83	4.68
419.02	93.62
419.21	0.00
419.39	49.15
419.58	7.02
419.77	25.75
419.96	56.17
420.15	4.68
420.34	74.90
420.53	0.00
420.72	56.17
420.91	44.47
421.10	77.24
421.29	7.02
421.48	25.75
421.67	93.62
421.86	63.19
422.05	37.45
422.24	51.49
422.43	28.09
422.61	72.56
422.80	67.88
422.99	70.22
423.18	32.77
423.37	65.54
423.56	51.49
423.75	11.70
423.94	32.77
424.13	58.51
424.32	0.00
424.50	60.85
424.69	79.58
424.88	11.70
425.07	67.88
425.26	58.51
425.45	70.22
425.64	63.19
425.83	81.92
426.01	32.77
426.20	44.47
426.39	121.71
426.58	25.75
426.77	72.56
426.96	81.92
427.15	70.22
427.33	30.43
427.52	53.83
427.71	32.77
427.90	0.00
428.09	42.13
428.28	58.51
428.46	28.09
428.65	35.11
428.84	9.36
429.03	53.83
429.22	95.96
429.40	0.00
429.59	0.00
429.78	56.17
429.97	65.54
430.16	44.47
430.34	74.90
430.53	32.77
430.72	30.43
430.91	58.51
431.10	7.02
431.28	30.43
431.47	72.56
431.66	14.04
431.85	70.22
432.03	42.13
432.22	32.77
432.41	18.72
432.60	28.09
432.79	51.49
432.97	105.32
433.16	65.54
433.35	56.17
433.54	65.54
433.72	0.00
433.91	21.06
434.10	7.02
434.28	42.13
434.47	110.01
434.66	74.90
434.85	0.00
435.03	0.00
435.22	49.15
435.41	42.13
435.59	46.81
435.78	37.45
435.97	67.88
436.16	72.56
436.34	28.09
436.53	39.79
436.72	25.75
436.90	4.68
437.09	44.47
437.28	102.98
437.46	79.58
437.65	9.36
437.84	21.06
438.02	30.43
438.21	79.58
438.40	21.06
438.58	39.79
438.77	107.66
438.96	110.01
439.14	60.85
439.33	0.00
439.52	37.45
439.70	0.00
439.89	16.38
440.08	70.22
440.26	7.02
440.45	58.51
440.63	42.13
440.82	77.24
441.01	35.11
441.19	11.70
441.38	72.56
441.57	18.72
441.75	70.22
441.94	105.32
442.12	42.13
442.31	135.75
442.50	46.81
442.68	56.17
442.87	58.51
443.05	23.41
443.24	11.70
443.43	42.13
443.61	37.45
443.80	91.28
443.98	72.56
444.17	7.02
444.35	56.17
444.54	110.01
444.73	37.45
444.91	102.98
445.10	81.92
445.28	72.56
445.47	77.24
445.65	56.17
445.84	91.28
446.02	84.26
446.21	67.88
446.39	98.30
446.58	110.01
446.77	67.88
446.95	0.00
447.14	60.85
447.32	35.11
447.51	16.38
447.69	86.60
447.88	28.09
448.06	42.13
448.25	0.00
448.43	173.20
448.62	49.15
448.80	51.49
448.99	60.85
449.17	58.51
449.36	74.90
449.54	93.62
449.73	4.68
449.91	67.88
450.10	105.32
450.28	58.51
450.46	60.85
450.65	79.58
450.83	53.83
451.02	14.04
451.20	32.77
451.39	56.17
451.57	128.73
451.76	60.85
451.94	93.62
452.13	28.09
452.31	102.98
452.49	25.75
452.68	77.24
452.86	9.36
453.05	56.17
453.23	0.00
453.42	51.49
453.60	0.00
453.78	37.45
453.97	0.00
454.15	60.85
454.34	65.54
454.52	91.28
454.70	110.01
454.89	37.45
455.07	42.13
455.26	49.15
455.44	49.15
455.62	72.56
455.81	60.85
455.99	0.00
456.17	63.19
456.36	30.43
456.54	58.51
456.73	16.38
456.91	21.06
457.09	91.28
457.28	74.90
457.46	72.56
457.64	42.13
457.83	51.49
458.01	86.60
458.19	79.58
458.38	9.36
458.56	35.11
458.74	105.32
458.93	63.19
459.11	72.56
459.29	110.01
459.48	53.83
459.66	2.34
459.84	60.85
460.03	60.85
460.21	23.41
460.39	86.60
460.57	63.19
460.76	37.45
460.94	0.00
461.12	0.00
461.31	49.15
461.49	65.54
461.67	37.45
461.85	79.58
462.04	65.54
462.22	114.69
462.40	100.64
462.59	91.28
462.77	138.09
462.95	107.66
463.13	0.00
463.32	35.11
463.50	56.17
463.68	11.70
463.86	51.49
464.05	81.92
464.23	65.54
464.41	30.43
464.59	65.54
464.78	110.01
464.96	110.01
465.14	126.39
465.32	35.11
465.50	2.34
465.69	100.64
465.87	60.85
466.05	11.70
466.23	60.85
466.41	88.94
466.60	0.00
466.78	0.00
466.96	0.00
467.14	28.09
467.32	79.58
467.51	81.92
467.69	74.90
467.87	0.00
468.05	44.47
468.23	58.51
468.41	4.68
468.60	126.39
468.78	28.09
468.96	81.92
469.14	114.69
469.32	37.45
469.50	39.79
469.69	0.00
469.87	91.28
470.05	39.79
470.23	21.06
470.41	56.17
470.59	70.22
470.77	67.88
470.95	14.04
471.14	93.62
471.32	74.90
471.50	46.81
471.68	2.34
471.86	100.64
472.04	65.54
472.22	91.28
472.40	0.00
472.58	67.88
472.77	105.32
472.95	23.41
473.13	67.88
473.31	110.01
473.49	72.56
473.67	65.54
473.85	107.66
474.03	124.05
474.21	88.94
474.39	56.17
474.57	11.70
474.75	60.85
474.93	107.66
475.12	0.00
475.30	23.41
475.48	86.60
475.66	110.01
475.84	65.54
476.02	51.49
476.20	35.11
476.38	35.11
476.56	32.77
476.74	14.04
476.92	0.00
477.10	0.00
477.28	72.56
477.46	9.36
477.64	77.24
477.82	56.17
478.00	2.34
478.18	98.30
478.36	114.69
478.54	77.24
478.72	72.56
478.90	32.77
479.08	112.35
479.26	49.15
479.44	37.45
479.62	112.35
479.80	21.06
479.98	39.79
480.16	46.81
480.34	88.94
480.52	121.71
480.70	70.22
480.88	4.68
481.06	9.36
481.24	30.43
481.41	0.00
481.59	65.54
481.77	98.30
481.95	58.51
482.13	128.73
482.31	67.88
482.49	28.09
482.67	44.47
482.85	81.92
483.03	0.00
483.21	86.60
483.39	81.92
483.57	112.35
483.74	149.79
483.92	51.49
484.10	100.64
484.28	25.75
484.46	98.30
484.64	53.83
484.82	81.92
485.00	32.77
485.18	32.77
485.35	74.90
485.53	102.98
485.71	100.64
485.89	21.06
486.07	21.06
486.25	119.37
486.43	0.00
486.61	67.88
486.78	91.28
486.96	11.70
487.14	46.81
487.32	44.47
487.50	138.09
487.68	58.51
487.85	2.34
488.03	0.00
488.21	14.04
488.39	86.60
488.57	79.58
488.75	145.11
488.92	114.69
489.10	0.00
489.28	107.66
489.46	53.83
489.64	53.83
489.81	98.30
489.99	124.05
490.17	110.01
490.35	91.28
490.53	49.15
490.70	70.22
490.88	67.88
491.06	88.94
491.24	93.62
491.41	98.30
491.59	142.77
491.77	149.79
491.95	98.30
492.13	32.77
492.30	67.88
492.48	70.22
492.66	114.69
492.84	23.41
493.01	46.81
493.19	112.35
493.37	74.90
493.54	51.49
493.72	42.13
493.90	138.09
494.08	44.47
494.25	86.60
494.43	53.83
494.61	49.15
494.79	138.09
494.96	72.56
495.14	28.09
495.32	39.79
495.49	110.01
495.67	44.47
495.85	63.19
496.02	63.19
496.20	74.90
496.38	98.30
496.55	56.17
496.73	112.35
496.91	28.09
497.09	46.81
497.26	93.62
497.44	28.09
497.62	32.77
497.79	4.68
497.97	42.13
498.14	56.17
498.32	53.83
498.50	86.60
498.67	70.22
498.85	58.51
499.03	74.90
499.20	46.81
499.38	100.64
499.56	63.19
499.73	121.71
499.91	56.17
500.08	147.45
500.26	93.62
500.44	93.62
500.61	70.22
500.79	95.96
500.97	65.54
501.14	37.45
501.32	56.17
501.49	105.32
501.67	18.72
501.84	112.35
502.02	32.77
502.20	105.32
502.37	112.35
502.55	79.58
502.72	124.05
502.90	98.30
503.07	114.69
503.25	70.22
503.43	81.92
503.60	56.17
503.78	25.75
503.95	88.94
504.13	14.04
504.30	98.30
504.48	53.83
504.65	79.58
504.83	44.47
505.01	63.19
505.18	168.52
505.36	77.24
505.53	117.03
505.71	32.77
505.88	21.06
506.06	81.92
506.23	114.69
506.41	21.06
506.58	110.01
506.76	100.64
506.93	131.07
507.11	149.79
507.28	44.47
507.46	79.58
507.63	58.51
507.81	105.32
507.98	39.79
508.16	32.77
508.33	51.49
508.50	135.75
508.68	117.03
508.85	63.19
509.03	63.19
509.20	77.24
509.38	72.56
509.55	60.85
509.73	121.71
509.90	138.09
510.08	100.64
510.25	152.13
510.42	67.88
510.60	51.49
510.77	95.96
510.95	74.90
511.12	46.81
511.30	51.49
511.47	44.47
511.64	81.92
511.82	124.05
511.99	18.72
512.17	102.98
512.34	56.17
512.51	107.66
512.69	112.35
512.86	60.85
513.04	114.69
513.21	58.51
513.38	21.06
513.56	121.71
513.73	53.83
513.90	112.35
514.08	30.43
514.25	51.49
514.43	65.54
514.60	42.13
514.77	74.90
514.95	88.94
515.12	42.13
515.29	124.05
515.47	88.94
515.64	72.56
515.81	58.51
515.99	67.88
516.16	32.77
516.33	131.07
516.51	105.32
516.68	63.19
516.85	42.13
517.03	74.90
517.20	114.69
517.37	102.98
517.54	65.54
517.72	46.81
517.89	124.05
518.06	131.07
518.24	163.84
518.41	18.72
518.58	81.92
518.75	93.62
518.93	117.03
519.10	142.77
519.27	124.05
519.45	65.54
519.62	142.77
519.79	79.58
519.96	42.13
520.14	88.94
520.31	86.60
520.48	77.24
520.65	84.26
520.83	65.54
521.00	74.90
521.17	70.22
521.34	107.66
521.52	77.24
521.69	0.00
521.86	72.56
522.03	133.41
522.20	110.01
522.38	93.62
522.55	110.01
522.72	77.24
522.89	128.73
523.07	100.64
523.24	28.09
523.41	126.39
523.58	60.85
523.75	100.64
523.92	102.98
524.10	79.58
524.27	112.35
524.44	14.04
524.61	107.66
524.78	95.96
524.96	124.05
525.13	81.92
525.30	138.09
525.47	95.96
525.64	32.77
525.81	51.49
525.98	65.54
526.16	53.83
526.33	65.54
526.50	53.83
526.67	84.26
526.84	100.64
527.01	0.00
527.18	58.51
527.36	84.26
527.53	81.92
527.70	60.85
527.87	138.09
528.04	28.09
528.21	30.43
528.38	53.83
528.55	91.28
528.72	140.43
528.89	67.88
529.07	119.37
529.24	117.03
529.41	67.88
529.58	77.24
529.75	25.75
529.92	46.81
530.09	58.51
530.26	98.30
530.43	107.66
530.60	49.15
530.77	79.58
530.94	107.66
531.11	44.47
531.28	110.01
531.46	65.54
531.63	51.49
531.80	145.11
531.97	84.26
532.14	126.39
532.31	105.32
532.48	30.43
532.65	98.30
532.82	60.85
532.99	100.64
533.16	37.45
533.33	70.22
533.50	98.30
533.67	56.17
533.84	98.30
534.01	117.03
534.18	42.13
534.35	114.69
534.52	72.56
534.69	91.28
534.86	46.81
535.03	70.22
535.20	105.32
535.37	84.26
535.54	114.69
535.71	93.62
535.88	49.15
536.05	203.63
536.22	91.28
536.38	37.45
536.55	53.83
536.72	107.66
536.89	107.66
537.06	58.51
537.23	42.13
537.40	53.83
537.57	105.32
537.74	100.64
537.91	84.26
538.08	21.06
538.25	79.58
538.42	114.69
538.59	42.13
538.75	112.35
538.92	100.64
539.09	72.56
539.26	7.02
539.43	28.09
539.60	88.94
539.77	91.28
539.94	30.43
540.11	44.47
540.28	86.60
540.44	84.26
540.61	86.60
540.78	159.16
540.95	100.64
541.12	177.88
541.29	159.16
541.46	0.00
541.62	63.19
541.79	93.62
541.96	42.13
542.13	91.28
542.30	74.90
542.47	39.79
542.63	18.72
542.80	51.49
542.97	49.15
543.14	37.45
543.31	124.05
543.48	84.26
543.64	98.30
543.81	39.79
543.98	124.05
544.15	117.03
544.32	100.64
544.48	60.85
544.65	128.73
544.82	79.58
544.99	124.05
545.16	63.19
545.32	140.43
545.49	16.38
545.66	58.51
545.83	58.51
546.00	86.60
546.16	173.20
546.33	135.75
546.50	88.94
546.67	72.56
546.83	105.32
547.00	32.77
547.17	121.71
547.34	91.28
547.50	65.54
547.67	112.35
547.84	126.39
548.00	163.84
548.17	58.51
548.34	65.54
548.51	135.75
548.67	145.11
548.84	86.60
549.01	25.75
549.18	128.73
549.34	112.35
549.51	138.09
549.68	98.30
549.84	81.92
550.01	32.77
550.18	100.64
550.34	131.07
550.51	77.24
550.68	112.35
550.84	142.77
551.01	81.92
551.18	128.73
551.34	140.43
551.51	117.03
551.68	121.71
551.84	117.03
552.01	65.54
552.18	18.72
552.34	138.09
552.51	110.01
552.68	0.00
552.84	149.79
553.01	100.64
553.18	79.58
553.34	77.24
553.51	88.94
553.67	91.28
553.84	128.73
554.01	58.51
554.17	112.35
554.34	51.49
554.51	53.83
554.67	91.28
554.84	124.05
555.00	102.98
555.17	93.62
555.33	133.41
555.50	138.09
555.67	81.92
555.83	112.35
556.00	30.43
556.16	149.79
556.33	56.17
556.50	138.09
556.66	0.00
556.83	42.13
556.99	46.81
557.16	154.48
557.32	86.60
557.49	119.37
557.65	100.64
557.82	135.75
557.98	100.64
558.15	28.09
558.32	112.35
558.48	42.13
558.65	81.92
558.81	95.96
558.98	105.32
559.14	100.64
559.31	126.39
559.47	81.92
559.64	107.66
559.80	58.51
559.97	37.45
560.13	37.45
560.30	58.51
560.46	44.47
560.63	156.82
560.79	39.79
560.96	30.43
561.12	42.13
561.29	74.90
561.45	72.56
561.61	79.58
561.78	28.09
561.94	98.30
562.11	65.54
562.27	77.24
562.44	84.26
562.60	79.58
562.77	79.58
562.93	105.32
563.10	37.45
563.26	49.15
563.42	147.45
563.59	81.92
563.75	67.88
563.92	124.05
564.08	63.19
564.24	77.24
564.41	168.52
564.57	58.51
564.74	60.85
564.90	44.47
565.07	117.03
565.23	84.26
565.39	60.85
565.56	65.54
565.72	114.69
565.88	32.77
566.05	0.00
566.21	81.92
566.38	65.54
566.54	95.96
566.70	28.09
566.87	46.81
567.03	32.77
567.19	102.98
567.36	35.11
567.52	23.41
567.68	37.45
567.85	131.07
568.01	74.90
568.17	51.49
568.34	49.15
568.50	114.69
568.66	79.58
568.83	39.79
568.99	74.90
569.15	163.84
569.32	102.98
569.48	107.66
569.64	88.94
569.81	53.83
569.97	117.03
570.13	42.13
570.30	74.90
570.46	117.03
570.62	25.75
570.78	60.85
570.95	114.69
571.11	65.54
571.27	156.82
571.43	63.19
571.60	60.85
571.76	49.15
571.92	30.43
572.09	84.26
572.25	88.94
572.41	84.26
572.57	2.34
572.74	49.15
572.90	70.22
573.06	65.54
573.22	124.05
573.38	86.60
573.55	79.58
573.71	86.60
573.87	124.05
574.03	67.88
574.20	102.98
574.36	51.49
574.52	42.13
574.68	65.54
574.84	7.02
575.01	60.85
575.17	65.54
575.33	100.64
575.49	79.58
575.65	72.56
575.82	84.26
575.98	81.92
576.14	126.39
576.30	77.24
576.46	63.19
576.62	0.00
576.79	84.26
576.95	70.22
577.11	51.49
577.27	51.49
577.43	102.98
577.59	39.79
577.75	84.26
577.92	65.54
578.08	114.69
578.24	131.07
578.40	88.94
578.56	91.28
578.72	63.19
578.88	63.19
579.04	18.72
579.21	72.56
579.37	81.92
579.53	44.47
579.69	74.90
579.85	124.05
580.01	7.02
580.17	81.92
580.33	110.01
580.49	79.58
580.65	88.94
580.82	79.58
580.98	117.03
581.14	30.43
581.30	128.73
581.46	65.54
581.62	91.28
581.78	51.49
581.94	60.85
582.10	119.37
582.26	77.24
582.42	86.60
582.58	58.51
582.74	0.00
582.90	37.45
583.06	102.98
583.22	79.58
583.38	51.49
583.54	98.30
583.70	112.35
583.86	95.96
584.02	114.69
584.18	91.28
584.34	46.81
584.50	60.85
584.66	21.06
584.82	142.77
584.98	37.45
585.14	67.88
585.30	110.01
585.46	74.90
585.62	98.30
585.78	60.85
585.94	105.32
586.10	72.56
586.26	53.83
586.42	133.41
586.58	88.94
586.74	56.17
586.90	60.85
587.06	74.90
587.22	9.36
587.38	14.04
587.54	84.26
587.70	88.94
587.86	65.54
588.02	37.45
588.18	35.11
588.34	4.68
588.49	37.45
588.65	114.69
588.81	91.28
588.97	131.07
589.13	65.54
589.29	105.32
589.45	63.19
589.61	88.94
589.77	67.88
589.93	23.41
590.08	44.47
590.24	18.72
590.40	126.39
590.56	63.19
590.72	53.83
590.88	84.26
591.04	30.43
591.20	18.72
591.35	46.81
591.51	49.15
591.67	63.19
591.83	35.11
591.99	105.32
592.15	79.58
592.31	88.94
592.46	102.98
592.62	70.22
592.78	23.41
592.94	63.19
593.10	98.30
593.26	37.45
593.41	67.88
593.57	131.07
593.73	42.13
593.89	39.79
594.05	30.43
594.20	67.88
594.36	88.94
594.52	70.22
594.68	91.28
594.84	98.30
594.99	42.13
595.15	77.24
595.31	95.96
595.47	42.13
595.62	25.75
595.78	39.79
595.94	53.83
596.10	0.00
596.25	84.26
596.41	98.30
596.57	124.05
596.73	86.60
596.88	39.79
597.04	126.39
597.20	72.56
597.36	60.85
597.51	25.75
597.67	9.36
597.83	95.96
597.99	86.60
598.14	74.90
598.30	72.56
598.46	149.79
598.61	88.94
598.77	102.98
598.93	84.26
599.09	95.96
599.24	93.62
599.40	2.34
599.56	77.24
599.71	67.88
599.87	79.58
600.03	72.56
600.18	49.15
600.34	58.51
600.50	0.00
600.65	81.92
600.81	117.03
600.97	126.39
601.12	79.58
601.28	65.54
601.44	93.62
601.59	56.17
601.75	35.11
601.91	88.94
602.06	58.51
602.22	79.58
602.37	86.60
602.53	107.66
602.69	105.32
602.84	86.60
603.00	37.45
603.16	35.11
603.31	77.24
603.47	170.86
603.62	44.47
603.78	140.43
603.94	28.09
604.09	79.58
604.25	93.62
604.40	51.49
604.56	74.90
604.71	88.94
604.87	107.66
605.03	42.13
605.18	154.48
605.34	37.45
605.49	119.37
605.65	91.28
605.80	46.81
605.96	67.88
606.12	67.88
606.27	81.92
606.43	114.69
606.58	86.60
606.74	77.24
606.89	91.28
607.05	72.56
607.20	112.35
607.36	81.92
607.51	88.94
607.67	81.92
607.82	9.36
607.98	102.98
608.13	63.19
608.29	77.24
608.44	23.41
608.60	51.49
608.75	60.85
608.91	32.77
609.06	86.60
609.22	56.17
609.37	65.54
609.53	51.49
609.68	25.75
609.84	39.79
609.99	65.54
610.15	46.81
610.30	93.62
610.46	23.41
610.61	95.96
610.76	42.13
610.92	2.34
611.07	67.88
611.23	72.56
611.38	105.32
611.54	37.45
611.69	98.30
611.84	11.70
612.00	72.56
612.15	128.73
612.31	28.09
612.46	72.56
612.62	91.28
612.77	86.60
612.92	124.05
613.08	117.03
613.23	37.45
613.39	63.19
613.54	102.98
613.69	72.56
613.85	56.17
614.00	95.96
614.15	93.62
614.31	84.26
614.46	70.22
614.62	77.24
614.77	23.41
614.92	0.00
615.08	53.83
615.23	58.51
615.38	70.22
615.54	63.19
615.69	65.54
615.84	105.32
616.00	72.56
616.15	49.15
616.30	16.38
616.46	93.62
616.61	70.22
616.76	72.56
616.92	44.47
617.07	32.77
617.22	16.38
617.37	39.79
617.53	128.73
617.68	63.19
617.83	124.05
617.99	49.15
618.14	79.58
618.29	14.04
618.45	32.77
618.60	107.66
618.75	35.11
618.90	25.75
619.06	25.75
619.21	39.79
619.36	77.24
619.51	0.00
619.67	0.00
619.82	51.49
619.97	74.90
620.12	60.85
620.28	51.49
620.43	77.24
620.58	4.68
620.73	79.58
620.89	77.24
621.04	63.19
621.19	56.17
621.34	98.30
621.49	9.36
621.65	39.79
621.80	107.66
621.95	117.03
622.10	63.19
622.25	53.83
622.41	35.11
622.56	9.36
622.71	100.64
622.86	0.00
623.01	58.51
623.16	77.24
623.32	0.00
623.47	51.49
623.62	84.26
623.77	39.79
623.92	110.01
624.07	65.54
624.23	63.19
624.38	138.09
624.53	114.69
624.68	72.56
624.83	84.26
624.98	32.77
625.13	114.69
625.29	25.75
625.44	112.35
625.59	0.00
625.74	4.68
625.89	16.38
626.04	42.13
626.19	44.47
626.34	30.43
626.49	102.98
626.65	77.24
626.80	84.26
626.95	35.11
627.10	133.41
627.25	74.90
627.40	77.24
627.55	98.30
627.70	93.62
627.85	74.90
628.00	56.17
628.15	35.11
628.30	114.69
628.45	42.13
628.60	42.13
628.76	53.83
628.91	58.51
629.06	46.81
629.21	119.37
629.36	102.98
629.51	44.47
629.66	42.13
629.81	49.15
629.96	63.19
630.11	18.72
630.26	65.54
630.41	63.19
630.56	14.04
630.71	46.81
630.86	105.32
631.01	86.60
631.16	42.13
631.31	93.62
631.46	79.58
631.61	91.28
631.76	117.03
631.91	0.00
632.06	2.34
632.21	0.00
632.36	30.43
632.51	65.54
632.66	37.45
632.81	16.38
632.96	30.43
633.10	21.06
633.25	28.09
633.40	79.58
633.55	37.45
633.70	16.38
633.85	39.79
634.00	53.83
634.15	58.51
634.30	79.58
634.45	11.70
634.60	42.13
634.75	107.66
634.90	105.32
635.05	18.72
635.19	2.34
635.34	56.17
635.49	93.62
635.64	14.04
635.79	100.64
635.94	65.54
636.09	49.15
636.24	44.47
636.39	53.83
636.53	112.35
636.68	70.22
636.83	30.43
636.98	86.60
637.13	63.19
637.28	63.19
637.43	81.92
637.57	70.22
637.72	0.00
637.87	51.49
638.02	56.17
638.17	44.47
638.32	60.85
638.46	35.11
638.61	149.79
638.76	63.19
638.91	58.51
639.06	74.90
639.20	51.49
639.35	84.26
639.50	0.00
639.65	67.88
639.80	14.04
639.94	0.00
640.09	102.98
640.24	21.06
640.39	131.07
640.54	79.58
640.68	30.43
640.83	86.60
640.98	42.13
641.13	79.58
641.27	110.01
641.42	39.79
641.57	98.30
641.72	32.77
641.86	58.51
642.01	88.94
642.16	42.13
642.31	56.17
642.45	135.75
642.60	35.11
642.75	56.17
642.90	70.22
643.04	18.72
643.19	67.88
643.34	49.15
643.48	53.83
643.63	30.43
643.78	32.77
643.93	72.56
644.07	28.09
644.22	74.90
644.37	110.01
644.51	37.45
644.66	56.17
644.81	28.09
644.95	93.62
645.10	119.37
645.25	110.01
645.39	70.22
645.54	14.04
645.69	77.24
645.83	0.00
645.98	42.13
646.13	91.28
646.27	42.13
646.42	35.11
646.57	32.77
646.71	4.68
646.86	77.24
647.00	14.04
647.15	7.02
647.30	126.39
647.44	93.62
647.59	56.17
647.74	42.13
647.88	0.00
648.03	25.75
648.17	63.19
648.32	86.60
648.47	67.88
648.61	63.19
648.76	53.83
648.90	65.54
649.05	35.11
649.20	70.22
649.34	37.45
649.49	95.96
649.63	79.58
649.78	44.47
649.92	23.41
650.07	28.09
650.21	35.11
650.36	11.70
650.51	128.73
650.65	39.79
650.80	30.43
650.94	112.35
651.09	93.62
651.23	107.66
651.38	35.11
651.52	70.22
651.67	30.43
651.81	32.77
651.96	49.15
652.10	58.51
652.25	23.41
652.39	0.00
652.54	112.35
652.68	112.35
652.83	98.30
652.97	21.06
653.12	51.49
653.26	14.04
653.41	67.88
653.55	63.19
653.70	65.54
653.84	124.05
653.99	21.06
654.13	32.77
654.27	46.81
654.42	88.94
654.56	95.96
654.71	60.85
654.85	25.75
655.00	72.56
655.14	91.28
655.29	23.41
655.43	28.09
655.57	30.43
655.72	23.41
655.86	0.00
656.01	11.70
656.15	46.81
656.30	77.24
656.44	91.28
656.58	28.09
656.73	88.94
656.87	30.43
657.01	42.13
657.16	2.34
657.30	56.17
657.45	81.92
657.59	56.17
657.73	0.00
657.88	0.00
658.02	42.13
658.16	49.15
658.31	79.58
658.45	35.11
658.60	79.58
658.74	56.17
658.88	0.00
659.03	74.90
659.17	23.41
659.31	63.19
659.46	0.00
659.60	46.81
659.74	93.62
659.89	9.36
660.03	67.88
660.17	67.88
660.32	58.51
660.46	79.58
660.60	49.15
660.74	79.58
660.89	2.34
661.03	44.47
661.17	14.04
661.32	42.13
661.46	53.83
661.60	98.30
661.74	0.00
661.89	28.09
662.03	58.51
662.17	88.94
662.31	98.30
662.46	39.79
662.60	0.00
662.74	95.96
662.88	145.11
663.03	58.51
663.17	18.72
663.31	0.00
663.45	39.79
663.60	28.09
663.74	23.41
663.88	58.51
664.02	72.56
664.17	0.00
664.31	93.62
664.45	42.13
664.59	84.26
664.73	35.11
664.88	72.56
665.02	51.49
665.16	58.51
665.30	70.22
665.44	51.49
665.59	35.11
665.73	100.64
665.87	4.68
666.01	77.24
666.15	0.00
666.29	0.00
666.44	74.90
666.58	86.60
666.72	0.00
666.86	91.28
667.00	65.54
667.14	72.56
667.28	100.64
667.43	30.43
667.57	44.47
667.71	121.71
667.85	42.13
667.99	126.39
668.13	37.45
668.27	32.77
668.41	79.58
668.56	49.15
668.70	91.28
668.84	58.51
668.98	9.36
669.12	11.70
669.26	16.38
669.40	110.01
669.54	4.68
669.68	74.90
669.82	28.09
669.96	58.51
670.10	117.03
670.25	51.49
670.39	39.79
670.53	0.00
670.67	14.04
670.81	14.04
670.95	63.19
671.09	0.00
671.23	95.96
671.37	121.71
671.51	72.56
671.65	14.04
671.79	35.11
671.93	93.62
672.07	74.90
672.21	95.96
672.35	0.00
672.49	23.41
672.63	112.35
672.77	74.90
672.91	53.83
673.05	32.77
673.19	74.90
673.33	51.49
673.47	63.19
673.61	0.00
673.75	86.60
673.89	51.49
674.03	74.90
674.17	53.83
674.31	67.88
674.45	0.00
674.59	35.11
674.73	65.54
674.87	23.41
675.01	56.17
675.15	39.79
675.29	70.22
675.43	133.41
675.56	46.81
675.70	18.72
675.84	105.32
675.98	60.85
676.12	67.88
676.26	23.41
676.40	7.02
676.54	18.72
676.68	32.77
676.82	81.92
676.96	93.62
677.10	84.26
677.23	107.66
677.37	25.75
677.51	37.45
677.65	131.07
677.79	44.47
677.93	11.70
678.07	18.72
678.21	11.70
678.34	53.83
678.48	42.13
678.62	46.81
678.76	16.38
678.90	131.07
679.04	0.00
679.18	35.11
679.31	91.28
679.45	0.00
679.59	16.38
679.73	2.34
679.87	28.09
680.00	88.94
680.14	39.79
680.28	42.13
680.42	42.13
680.56	67.88
680.70	72.56
680.83	63.19
680.97	124.05
681.11	74.90
681.25	53.83
681.39	84.26
681.52	79.58
681.66	65.54
681.80	88.94
681.94	51.49
682.07	124.05
682.21	60.85
682.35	21.06
682.49	0.00
682.62	67.88
682.76	28.09
682.90	9.36
683.04	0.00
683.17	74.90
683.31	14.04
683.45	56.17
683.59	112.35
683.72	0.00
683.86	74.90
684.00	35.11
684.13	67.88
684.27	23.41
684.41	44.47
684.55	0.00
684.68	79.58
684.82	32.77
684.96	11.70
685.09	60.85
685.23	100.64
685.37	30.43
685.50	56.17
685.64	91.28
685.78	53.83
685.91	65.54
686.05	28.09
686.19	35.11
686.32	28.09
686.46	0.00
686.60	60.85
686.73	53.83
686.87	0.00
687.01	0.00
687.14	124.05
687.28	74.90
687.42	0.00
687.55	0.00
687.69	0.00
687.82	9.36
687.96	112.35
688.10	39.79
688.23	79.58
688.37	0.00
688.50	4.68
688.64	49.15
688.78	0.00
688.91	16.38
689.05	51.49
689.18	53.83
689.32	72.56
689.46	72.56
689.59	0.00
689.73	88.94
689.86	30.43
690.00	70.22
690.13	11.70
690.27	37.45
690.41	74.90
690.54	44.47
690.68	30.43
690.81	98.30
690.95	72.56
691.08	112.35
691.22	11.70
691.35	21.06
691.49	79.58
691.62	28.09
691.76	70.22
691.89	70.22
692.03	0.00
692.16	60.85
692.30	70.22
692.43	2.34
692.57	39.79
692.70	7.02
692.84	37.45
692.97	102.98
693.11	44.47
693.24	2.34
693.38	86.60
693.51	44.47
693.65	23.41
693.78	0.00
693.92	65.54
694.05	56.17
694.19	35.11
694.32	0.00
694.45	14.04
694.59	79.58
694.72	79.58
694.86	14.04
694.99	42.13
695.13	11.70
695.26	0.00
695.39	51.49
695.53	39.79
695.66	63.19
695.80	74.90
695.93	56.17
696.07	58.51
696.20	77.24
696.33	9.36
696.47	100.64
696.60	0.00
696.73	32.77
696.87	98.30
697.00	56.17
697.14	86.60
697.27	37.45
697.40	67.88
697.54	7.02
697.67	46.81
697.80	0.00
697.94	49.15
698.07	0.00
698.21	53.83
698.34	56.17
698.47	42.13
698.61	44.47
698.74	51.49
698.87	9.36
699.01	4.68
699.14	74.90
699.27	79.58
699.40	46.81
699.54	74.90
699.67	21.06
699.80	0.00
699.94	58.51
700.07	28.09
700.20	42.13
700.34	25.75
700.47	95.96
700.60	44.47
700.73	0.00
700.87	74.90
701.00	2.34
701.13	81.92
701.26	37.45
701.40	53.83
701.53	0.00
701.66	4.68
701.79	74.90
701.93	9.36
702.06	79.58
702.19	37.45
702.32	44.47
702.46	21.06
702.59	91.28
702.72	0.00
702.85	42.13
702.99	56.17
703.12	56.17
703.25	18.72
703.38	0.00
703.51	42.13
703.65	60.85
703.78	51.49
703.91	51.49
704.04	30.43
704.17	79.58
704.31	0.00
704.44	91.28
704.57	0.00
704.70	30.43
704.83	42.13
704.96	18.72
705.10	25.75
705.23	32.77
>>>>>End Processed Spectral Data<<<<<
