SpectraSuite Data File
++++++++++++++++++++++++++++++++++++
Date: Fri Oct 04 12:13:26 GMT-05:00 2013
User: price-jones
Dark Spectrum Present: No
Reference Spectrum Present: No
Number of Sampled Component Spectra: 1
Spectrometers: USB2+H05261
Integration Time (usec): 10000 (USB2+H05261)
Spectra Averaged: 1 (USB2+H05261)
Boxcar Smoothing: 0 (USB2+H05261)
Correct for Electrical Dark: No (USB2+H05261)
Strobe/Lamp Enabled: No (USB2+H05261)
Correct for Detector Non-linearity: No (USB2+H05261)
Correct for Stray Light: No (USB2+H05261)
Number of Pixels in Processed Spectrum: 2048
>>>>>Begin Processed Spectral Data<<<<<
365.73	11.70
365.92	11.70
366.12	11.70
366.32	0.00
366.52	0.00
366.72	0.00
366.91	0.00
367.11	0.00
367.31	0.00
367.51	0.00
367.70	0.00
367.90	0.00
368.10	0.00
368.30	0.00
368.49	0.00
368.69	0.00
368.89	0.00
369.09	0.00
369.28	0.00
369.48	0.00
369.68	0.00
369.87	0.00
370.07	0.00
370.27	0.00
370.47	0.00
370.66	0.00
370.86	0.00
371.06	0.00
371.25	7.02
371.45	30.43
371.65	0.00
371.84	11.70
372.04	86.60
372.24	21.06
372.44	16.38
372.63	0.00
372.83	0.00
373.03	18.72
373.22	0.00
373.42	0.00
373.62	79.58
373.81	4.68
374.01	58.51
374.21	60.85
374.40	21.06
374.60	42.13
374.79	60.85
374.99	37.45
375.19	23.41
375.38	35.11
375.58	7.02
375.78	0.00
375.97	39.79
376.17	0.00
376.37	23.41
376.56	72.56
376.76	42.13
376.95	25.75
377.15	23.41
377.35	0.00
377.54	11.70
377.74	0.00
377.93	0.00
378.13	35.11
378.33	9.36
378.52	4.68
378.72	11.70
378.91	37.45
379.11	11.70
379.31	79.58
379.50	65.54
379.70	14.04
379.89	58.51
380.09	46.81
380.28	42.13
380.48	0.00
380.68	37.45
380.87	37.45
381.07	0.00
381.26	7.02
381.46	21.06
381.65	30.43
381.85	0.00
382.04	14.04
382.24	0.00
382.43	0.00
382.63	42.13
382.83	0.00
383.02	11.70
383.22	37.45
383.41	0.00
383.61	0.00
383.80	42.13
384.00	0.00
384.19	4.68
384.39	0.00
384.58	9.36
384.78	2.34
384.97	39.79
385.17	0.00
385.36	0.00
385.56	0.00
385.75	4.68
385.95	70.22
386.14	16.38
386.34	7.02
386.53	0.00
386.72	18.72
386.92	112.35
387.11	70.22
387.31	35.11
387.50	56.17
387.70	35.11
387.89	58.51
388.09	0.00
388.28	0.00
388.48	16.38
388.67	51.49
388.86	9.36
389.06	14.04
389.25	39.79
389.45	28.09
389.64	91.28
389.84	49.15
390.03	0.00
390.22	0.00
390.42	9.36
390.61	23.41
390.81	18.72
391.00	42.13
391.19	149.79
391.39	0.00
391.58	25.75
391.78	32.77
391.97	0.00
392.16	72.56
392.36	0.00
392.55	107.66
392.75	44.47
392.94	51.49
393.13	56.17
393.33	7.02
393.52	0.00
393.71	56.17
393.91	86.60
394.10	0.00
394.29	0.00
394.49	67.88
394.68	23.41
394.88	39.79
395.07	60.85
395.26	0.00
395.46	0.00
395.65	39.79
395.84	35.11
396.04	35.11
396.23	23.41
396.42	35.11
396.62	23.41
396.81	14.04
397.00	46.81
397.19	14.04
397.39	14.04
397.58	0.00
397.77	0.00
397.97	0.00
398.16	0.00
398.35	77.24
398.55	14.04
398.74	0.00
398.93	14.04
399.12	35.11
399.32	88.94
399.51	42.13
399.70	4.68
399.90	74.90
400.09	21.06
400.28	0.00
400.47	0.00
400.67	28.09
400.86	11.70
401.05	0.00
401.24	18.72
401.44	35.11
401.63	14.04
401.82	35.11
402.01	7.02
402.21	30.43
402.40	0.00
402.59	51.49
402.78	2.34
402.97	0.00
403.17	18.72
403.36	72.56
403.55	0.00
403.74	65.54
403.93	39.79
404.13	0.00
404.32	0.00
404.51	0.00
404.70	0.00
404.89	58.51
405.09	0.00
405.28	77.24
405.47	42.13
405.66	0.00
405.85	72.56
406.05	0.00
406.24	0.00
406.43	58.51
406.62	11.70
406.81	0.00
407.00	53.83
407.20	58.51
407.39	60.85
407.58	28.09
407.77	0.00
407.96	2.34
408.15	28.09
408.34	91.28
408.54	86.60
408.73	25.75
408.92	23.41
409.11	0.00
409.30	32.77
409.49	0.00
409.68	23.41
409.87	0.00
410.07	56.17
410.26	79.58
410.45	37.45
410.64	23.41
410.83	0.00
411.02	21.06
411.21	70.22
411.40	53.83
411.59	9.36
411.78	0.00
411.98	4.68
412.17	25.75
412.36	67.88
412.55	74.90
412.74	4.68
412.93	18.72
413.12	0.00
413.31	74.90
413.50	79.58
413.69	65.54
413.88	81.92
414.07	0.00
414.26	0.00
414.45	0.00
414.64	14.04
414.83	0.00
415.02	88.94
415.22	7.02
415.41	0.00
415.60	74.90
415.79	56.17
415.98	0.00
416.17	107.66
416.36	46.81
416.55	0.00
416.74	23.41
416.93	35.11
417.12	4.68
417.31	46.81
417.50	0.00
417.69	44.47
417.88	56.17
418.07	72.56
418.26	32.77
418.45	0.00
418.64	35.11
418.83	21.06
419.02	2.34
419.21	9.36
419.39	0.00
419.58	53.83
419.77	23.41
419.96	56.17
420.15	11.70
420.34	77.24
420.53	30.43
420.72	23.41
420.91	11.70
421.10	0.00
421.29	7.02
421.48	39.79
421.67	102.98
421.86	0.00
422.05	46.81
422.24	32.77
422.43	25.75
422.61	0.00
422.80	0.00
422.99	42.13
423.18	42.13
423.37	0.00
423.56	35.11
423.75	49.15
423.94	35.11
424.13	35.11
424.32	0.00
424.50	0.00
424.69	0.00
424.88	14.04
425.07	32.77
425.26	35.11
425.45	0.00
425.64	51.49
425.83	0.00
426.01	18.72
426.20	0.00
426.39	4.68
426.58	11.70
426.77	0.00
426.96	37.45
427.15	32.77
427.33	0.00
427.52	14.04
427.71	0.00
427.90	0.00
428.09	18.72
428.28	0.00
428.46	21.06
428.65	14.04
428.84	77.24
429.03	16.38
429.22	16.38
429.40	23.41
429.59	9.36
429.78	67.88
429.97	0.00
430.16	21.06
430.34	18.72
430.53	0.00
430.72	0.00
430.91	0.00
431.10	7.02
431.28	0.00
431.47	4.68
431.66	30.43
431.85	0.00
432.03	51.49
432.22	23.41
432.41	49.15
432.60	11.70
432.79	23.41
432.97	98.30
433.16	23.41
433.35	0.00
433.54	25.75
433.72	4.68
433.91	2.34
434.10	23.41
434.28	67.88
434.47	112.35
434.66	0.00
434.85	0.00
435.03	0.00
435.22	0.00
435.41	39.79
435.59	28.09
435.78	0.00
435.97	72.56
436.16	0.00
436.34	0.00
436.53	0.00
436.72	28.09
436.90	63.19
437.09	35.11
437.28	102.98
437.46	0.00
437.65	0.00
437.84	30.43
438.02	49.15
438.21	23.41
438.40	35.11
438.58	58.51
438.77	77.24
438.96	53.83
439.14	0.00
439.33	51.49
439.52	2.34
439.70	4.68
439.89	0.00
440.08	11.70
440.26	0.00
440.45	42.13
440.63	58.51
440.82	30.43
441.01	39.79
441.19	42.13
441.38	0.00
441.57	65.54
441.75	18.72
441.94	32.77
442.12	14.04
442.31	18.72
442.50	0.00
442.68	58.51
442.87	79.58
443.05	35.11
443.24	0.00
443.43	37.45
443.61	4.68
443.80	30.43
443.98	14.04
444.17	42.13
444.35	112.35
444.54	51.49
444.73	0.00
444.91	0.00
445.10	74.90
445.28	65.54
445.47	70.22
445.65	16.38
445.84	23.41
446.02	67.88
446.21	42.13
446.39	79.58
446.58	0.00
446.77	0.00
446.95	0.00
447.14	39.79
447.32	0.00
447.51	67.88
447.69	0.00
447.88	2.34
448.06	58.51
448.25	0.00
448.43	25.75
448.62	30.43
448.80	0.00
448.99	39.79
449.17	0.00
449.36	84.26
449.54	88.94
449.73	0.00
449.91	67.88
450.10	37.45
450.28	42.13
450.46	77.24
450.65	37.45
450.83	86.60
451.02	35.11
451.20	49.15
451.39	0.00
451.57	11.70
451.76	0.00
451.94	35.11
452.13	25.75
452.31	46.81
452.49	0.00
452.68	21.06
452.86	56.17
453.05	4.68
453.23	30.43
453.42	0.00
453.60	0.00
453.78	56.17
453.97	86.60
454.15	91.28
454.34	11.70
454.52	18.72
454.70	11.70
454.89	0.00
455.07	39.79
455.26	51.49
455.44	63.19
455.62	11.70
455.81	0.00
455.99	14.04
456.17	39.79
456.36	35.11
456.54	51.49
456.73	79.58
456.91	49.15
457.09	4.68
457.28	25.75
457.46	114.69
457.64	0.00
457.83	49.15
458.01	0.00
458.19	11.70
458.38	63.19
458.56	74.90
458.74	16.38
458.93	14.04
459.11	30.43
459.29	0.00
459.48	44.47
459.66	16.38
459.84	9.36
460.03	16.38
460.21	0.00
460.39	72.56
460.57	53.83
460.76	4.68
460.94	14.04
461.12	25.75
461.31	86.60
461.49	23.41
461.67	65.54
461.85	0.00
462.04	9.36
462.22	95.96
462.40	56.17
462.59	23.41
462.77	49.15
462.95	28.09
463.13	42.13
463.32	2.34
463.50	0.00
463.68	4.68
463.86	39.79
464.05	51.49
464.23	49.15
464.41	74.90
464.59	91.28
464.78	2.34
464.96	67.88
465.14	46.81
465.32	14.04
465.50	0.00
465.69	58.51
465.87	60.85
466.05	0.00
466.23	56.17
466.41	30.43
466.60	0.00
466.78	21.06
466.96	0.00
467.14	32.77
467.32	0.00
467.51	0.00
467.69	0.00
467.87	44.47
468.05	14.04
468.23	65.54
468.41	67.88
468.60	28.09
468.78	16.38
468.96	0.00
469.14	11.70
469.32	18.72
469.50	170.86
469.69	25.75
469.87	4.68
470.05	65.54
470.23	7.02
470.41	21.06
470.59	23.41
470.77	49.15
470.95	0.00
471.14	72.56
471.32	18.72
471.50	93.62
471.68	81.92
471.86	0.00
472.04	0.00
472.22	51.49
472.40	86.60
472.58	0.00
472.77	117.03
472.95	42.13
473.13	18.72
473.31	25.75
473.49	16.38
473.67	37.45
473.85	67.88
474.03	58.51
474.21	0.00
474.39	7.02
474.57	0.00
474.75	30.43
474.93	0.00
475.12	0.00
475.30	16.38
475.48	58.51
475.66	46.81
475.84	28.09
476.02	0.00
476.20	7.02
476.38	133.41
476.56	63.19
476.74	35.11
476.92	56.17
477.10	0.00
477.28	112.35
477.46	25.75
477.64	9.36
477.82	7.02
478.00	0.00
478.18	0.00
478.36	74.90
478.54	11.70
478.72	37.45
478.90	65.54
479.08	11.70
479.26	46.81
479.44	0.00
479.62	0.00
479.80	44.47
479.98	53.83
480.16	28.09
480.34	25.75
480.52	30.43
480.70	63.19
480.88	30.43
481.06	56.17
481.24	0.00
481.41	14.04
481.59	35.11
481.77	88.94
481.95	44.47
482.13	0.00
482.31	42.13
482.49	35.11
482.67	95.96
482.85	28.09
483.03	0.00
483.21	84.26
483.39	44.47
483.57	9.36
483.74	28.09
483.92	2.34
484.10	67.88
484.28	14.04
484.46	0.00
484.64	25.75
484.82	4.68
485.00	72.56
485.18	79.58
485.35	51.49
485.53	49.15
485.71	70.22
485.89	14.04
486.07	37.45
486.25	14.04
486.43	0.00
486.61	25.75
486.78	91.28
486.96	18.72
487.14	65.54
487.32	67.88
487.50	0.00
487.68	44.47
487.85	25.75
488.03	60.85
488.21	37.45
488.39	51.49
488.57	81.92
488.75	37.45
488.92	63.19
489.10	16.38
489.28	56.17
489.46	51.49
489.64	0.00
489.81	98.30
489.99	56.17
490.17	4.68
490.35	0.00
490.53	81.92
490.70	0.00
490.88	42.13
491.06	7.02
491.24	0.00
491.41	95.96
491.59	65.54
491.77	9.36
491.95	46.81
492.13	25.75
492.30	131.07
492.48	77.24
492.66	16.38
492.84	4.68
493.01	0.00
493.19	39.79
493.37	70.22
493.54	9.36
493.72	18.72
493.90	72.56
494.08	28.09
494.25	16.38
494.43	0.00
494.61	21.06
494.79	0.00
494.96	0.00
495.14	18.72
495.32	37.45
495.49	51.49
495.67	60.85
495.85	72.56
496.02	100.64
496.20	39.79
496.38	32.77
496.55	14.04
496.73	21.06
496.91	65.54
497.09	35.11
497.26	0.00
497.44	23.41
497.62	100.64
497.79	25.75
497.97	42.13
498.14	18.72
498.32	7.02
498.50	9.36
498.67	46.81
498.85	28.09
499.03	79.58
499.20	63.19
499.38	44.47
499.56	30.43
499.73	2.34
499.91	0.00
500.08	65.54
500.26	84.26
500.44	0.00
500.61	39.79
500.79	32.77
500.97	51.49
501.14	0.00
501.32	84.26
501.49	74.90
501.67	42.13
501.84	42.13
502.02	23.41
502.20	44.47
502.37	102.98
502.55	7.02
502.72	37.45
502.90	65.54
503.07	86.60
503.25	32.77
503.43	49.15
503.60	98.30
503.78	107.66
503.95	63.19
504.13	14.04
504.30	65.54
504.48	56.17
504.65	98.30
504.83	74.90
505.01	44.47
505.18	58.51
505.36	25.75
505.53	30.43
505.71	18.72
505.88	93.62
506.06	16.38
506.23	46.81
506.41	44.47
506.58	98.30
506.76	9.36
506.93	74.90
507.11	39.79
507.28	56.17
507.46	23.41
507.63	21.06
507.81	72.56
507.98	16.38
508.16	58.51
508.33	49.15
508.50	72.56
508.68	11.70
508.85	95.96
509.03	70.22
509.20	49.15
509.38	0.00
509.55	0.00
509.73	37.45
509.90	30.43
510.08	21.06
510.25	37.45
510.42	0.00
510.60	21.06
510.77	51.49
510.95	0.00
511.12	49.15
511.30	42.13
511.47	0.00
511.64	56.17
511.82	74.90
511.99	4.68
512.17	0.00
512.34	42.13
512.51	44.47
512.69	72.56
512.86	44.47
513.04	44.47
513.21	51.49
513.38	88.94
513.56	35.11
513.73	30.43
513.90	110.01
514.08	42.13
514.25	4.68
514.43	60.85
514.60	0.00
514.77	91.28
514.95	0.00
515.12	56.17
515.29	14.04
515.47	65.54
515.64	30.43
515.81	16.38
515.99	0.00
516.16	86.60
516.33	7.02
516.51	0.00
516.68	18.72
516.85	35.11
517.03	74.90
517.20	0.00
517.37	39.79
517.54	49.15
517.72	28.09
517.89	2.34
518.06	84.26
518.24	67.88
518.41	140.43
518.58	100.64
518.75	16.38
518.93	86.60
519.10	0.00
519.27	0.00
519.45	74.90
519.62	79.58
519.79	88.94
519.96	28.09
520.14	25.75
520.31	14.04
520.48	117.03
520.65	35.11
520.83	25.75
521.00	30.43
521.17	4.68
521.34	81.92
521.52	0.00
521.69	95.96
521.86	0.00
522.03	0.00
522.20	28.09
522.38	67.88
522.55	60.85
522.72	39.79
522.89	32.77
523.07	42.13
523.24	18.72
523.41	0.00
523.58	0.00
523.75	14.04
523.92	32.77
524.10	60.85
524.27	49.15
524.44	9.36
524.61	4.68
524.78	44.47
524.96	21.06
525.13	74.90
525.30	121.71
525.47	37.45
525.64	37.45
525.81	49.15
525.98	2.34
526.16	0.00
526.33	18.72
526.50	39.79
526.67	72.56
526.84	14.04
527.01	102.98
527.18	65.54
527.36	79.58
527.53	42.13
527.70	84.26
527.87	114.69
528.04	72.56
528.21	0.00
528.38	0.00
528.55	46.81
528.72	63.19
528.89	58.51
529.07	77.24
529.24	63.19
529.41	72.56
529.58	0.00
529.75	9.36
529.92	70.22
530.09	128.73
530.26	58.51
530.43	0.00
530.60	56.17
530.77	21.06
530.94	60.85
531.11	44.47
531.28	65.54
531.46	18.72
531.63	46.81
531.80	58.51
531.97	0.00
532.14	0.00
532.31	39.79
532.48	49.15
532.65	25.75
532.82	0.00
532.99	56.17
533.16	25.75
533.33	95.96
533.50	2.34
533.67	25.75
533.84	0.00
534.01	11.70
534.18	16.38
534.35	37.45
534.52	72.56
534.69	46.81
534.86	0.00
535.03	70.22
535.20	28.09
535.37	0.00
535.54	39.79
535.71	28.09
535.88	70.22
536.05	65.54
536.22	39.79
536.38	70.22
536.55	25.75
536.72	4.68
536.89	28.09
537.06	124.05
537.23	14.04
537.40	81.92
537.57	4.68
537.74	21.06
537.91	25.75
538.08	16.38
538.25	63.19
538.42	28.09
538.59	42.13
538.75	51.49
538.92	0.00
539.09	9.36
539.26	39.79
539.43	21.06
539.60	110.01
539.77	25.75
539.94	42.13
540.11	35.11
540.28	67.88
540.44	140.43
540.61	49.15
540.78	9.36
540.95	79.58
541.12	100.64
541.29	0.00
541.46	112.35
541.62	35.11
541.79	0.00
541.96	9.36
542.13	49.15
542.30	0.00
542.47	0.00
542.63	0.00
542.80	42.13
542.97	11.70
543.14	7.02
543.31	28.09
543.48	72.56
543.64	70.22
543.81	16.38
543.98	16.38
544.15	28.09
544.32	60.85
544.48	60.85
544.65	60.85
544.82	35.11
544.99	0.00
545.16	21.06
545.32	0.00
545.49	42.13
545.66	112.35
545.83	77.24
546.00	93.62
546.16	72.56
546.33	95.96
546.50	42.13
546.67	0.00
546.83	44.47
547.00	65.54
547.17	65.54
547.34	133.41
547.50	4.68
547.67	2.34
547.84	102.98
548.00	42.13
548.17	67.88
548.34	35.11
548.51	91.28
548.67	88.94
548.84	0.00
549.01	100.64
549.18	79.58
549.34	11.70
549.51	14.04
549.68	42.13
549.84	21.06
550.01	0.00
550.18	63.19
550.34	81.92
550.51	44.47
550.68	77.24
550.84	77.24
551.01	14.04
551.18	23.41
551.34	4.68
551.51	77.24
551.68	72.56
551.84	35.11
552.01	77.24
552.18	0.00
552.34	145.11
552.51	51.49
552.68	30.43
552.84	56.17
553.01	25.75
553.18	32.77
553.34	14.04
553.51	0.00
553.67	21.06
553.84	25.75
554.01	23.41
554.17	35.11
554.34	0.00
554.51	77.24
554.67	46.81
554.84	23.41
555.00	11.70
555.17	42.13
555.33	7.02
555.50	0.00
555.67	46.81
555.83	0.00
556.00	58.51
556.16	88.94
556.33	65.54
556.50	32.77
556.66	65.54
556.83	124.05
556.99	58.51
557.16	77.24
557.32	46.81
557.49	11.70
557.65	28.09
557.82	39.79
557.98	67.88
558.15	0.00
558.32	11.70
558.48	51.49
558.65	70.22
558.81	9.36
558.98	4.68
559.14	0.00
559.31	16.38
559.47	60.85
559.64	35.11
559.80	53.83
559.97	23.41
560.13	44.47
560.30	72.56
560.46	0.00
560.63	14.04
560.79	70.22
560.96	46.81
561.12	53.83
561.29	14.04
561.45	56.17
561.61	25.75
561.78	35.11
561.94	0.00
562.11	58.51
562.27	28.09
562.44	135.75
562.60	70.22
562.77	39.79
562.93	93.62
563.10	51.49
563.26	51.49
563.42	28.09
563.59	25.75
563.75	102.98
563.92	81.92
564.08	46.81
564.24	77.24
564.41	28.09
564.57	58.51
564.74	74.90
564.90	51.49
565.07	56.17
565.23	30.43
565.39	25.75
565.56	88.94
565.72	110.01
565.88	0.00
566.05	84.26
566.21	74.90
566.38	0.00
566.54	0.00
566.70	105.32
566.87	51.49
567.03	25.75
567.19	35.11
567.36	9.36
567.52	56.17
567.68	56.17
567.85	117.03
568.01	56.17
568.17	0.00
568.34	0.00
568.50	60.85
568.66	11.70
568.83	0.00
568.99	74.90
569.15	42.13
569.32	65.54
569.48	0.00
569.64	60.85
569.81	0.00
569.97	93.62
570.13	18.72
570.30	56.17
570.46	42.13
570.62	14.04
570.78	65.54
570.95	23.41
571.11	28.09
571.27	79.58
571.43	28.09
571.60	28.09
571.76	0.00
571.92	91.28
572.09	2.34
572.25	58.51
572.41	102.98
572.57	70.22
572.74	39.79
572.90	0.00
573.06	0.00
573.22	58.51
573.38	21.06
573.55	42.13
573.71	9.36
573.87	23.41
574.03	110.01
574.20	39.79
574.36	28.09
574.52	88.94
574.68	79.58
574.84	49.15
575.01	53.83
575.17	44.47
575.33	4.68
575.49	30.43
575.65	63.19
575.82	28.09
575.98	7.02
576.14	0.00
576.30	81.92
576.46	98.30
576.62	0.00
576.79	44.47
576.95	102.98
577.11	0.00
577.27	0.00
577.43	0.00
577.59	30.43
577.75	74.90
577.92	30.43
578.08	53.83
578.24	49.15
578.40	58.51
578.56	18.72
578.72	65.54
578.88	28.09
579.04	88.94
579.21	65.54
579.37	49.15
579.53	105.32
579.69	110.01
579.85	67.88
580.01	60.85
580.17	0.00
580.33	60.85
580.49	0.00
580.65	51.49
580.82	112.35
580.98	16.38
581.14	56.17
581.30	126.39
581.46	65.54
581.62	11.70
581.78	74.90
581.94	28.09
582.10	0.00
582.26	49.15
582.42	32.77
582.58	53.83
582.74	37.45
582.90	14.04
583.06	32.77
583.22	2.34
583.38	70.22
583.54	0.00
583.70	46.81
583.86	37.45
584.02	9.36
584.18	0.00
584.34	32.77
584.50	42.13
584.66	187.24
584.82	407.25
584.98	631.94
585.14	627.26
585.30	351.08
585.46	280.86
585.62	196.60
585.78	114.69
585.94	21.06
586.10	0.00
586.26	28.09
586.42	0.00
586.58	46.81
586.74	32.77
586.90	21.06
587.06	7.02
587.22	35.11
587.38	0.00
587.54	0.00
587.70	46.81
587.86	74.90
588.02	126.39
588.18	135.75
588.34	25.75
588.49	63.19
588.65	14.04
588.81	56.17
588.97	0.00
589.13	0.00
589.29	72.56
589.45	21.06
589.61	88.94
589.77	51.49
589.93	93.62
590.08	25.75
590.24	2.34
590.40	46.81
590.56	9.36
590.72	37.45
590.88	7.02
591.04	23.41
591.20	60.85
591.35	30.43
591.51	0.00
591.67	0.00
591.83	9.36
591.99	9.36
592.15	30.43
592.31	28.09
592.46	58.51
592.62	112.35
592.78	21.06
592.94	16.38
593.10	35.11
593.26	0.00
593.41	56.17
593.57	77.24
593.73	0.00
593.89	88.94
594.05	39.79
594.20	42.13
594.36	142.77
594.52	88.94
594.68	11.70
594.84	9.36
594.99	0.00
595.15	70.22
595.31	58.51
595.47	18.72
595.62	42.13
595.78	102.98
595.94	11.70
596.10	25.75
596.25	35.11
596.41	49.15
596.57	51.49
596.73	18.72
596.88	77.24
597.04	35.11
597.20	74.90
597.36	53.83
597.51	37.45
597.67	56.17
597.83	65.54
597.99	37.45
598.14	145.11
598.30	53.83
598.46	81.92
598.61	84.26
598.77	37.45
598.93	0.00
599.09	74.90
599.24	2.34
599.40	86.60
599.56	42.13
599.71	35.11
599.87	21.06
600.03	28.09
600.18	4.68
600.34	79.58
600.50	14.04
600.65	51.49
600.81	42.13
600.97	65.54
601.12	65.54
601.28	30.43
601.44	100.64
601.59	46.81
601.75	0.00
601.91	37.45
602.06	67.88
602.22	86.60
602.37	9.36
602.53	79.58
602.69	72.56
602.84	93.62
603.00	25.75
603.16	28.09
603.31	0.00
603.47	70.22
603.62	0.00
603.78	74.90
603.94	72.56
604.09	53.83
604.25	53.83
604.40	44.47
604.56	25.75
604.71	42.13
604.87	25.75
605.03	0.00
605.18	30.43
605.34	51.49
605.49	0.00
605.65	77.24
605.80	23.41
605.96	25.75
606.12	53.83
606.27	51.49
606.43	39.79
606.58	25.75
606.74	28.09
606.89	93.62
607.05	117.03
607.20	51.49
607.36	98.30
607.51	60.85
607.67	86.60
607.82	9.36
607.98	140.43
608.13	53.83
608.29	42.13
608.44	30.43
608.60	18.72
608.75	56.17
608.91	79.58
609.06	72.56
609.22	191.92
609.37	168.52
609.53	224.69
609.68	156.82
609.84	74.90
609.99	72.56
610.15	74.90
610.30	105.32
610.46	49.15
610.61	30.43
610.76	37.45
610.92	37.45
611.07	79.58
611.23	42.13
611.38	56.17
611.54	126.39
611.69	53.83
611.84	7.02
612.00	0.00
612.15	72.56
612.31	112.35
612.46	56.17
612.62	56.17
612.77	37.45
612.92	79.58
613.08	23.41
613.23	16.38
613.39	49.15
613.54	0.00
613.69	117.03
613.85	168.52
614.00	170.86
614.15	227.03
614.31	187.24
614.46	152.13
614.62	128.73
614.77	77.24
614.92	58.51
615.08	0.00
615.23	18.72
615.38	53.83
615.54	63.19
615.69	32.77
615.84	0.00
616.00	98.30
616.15	105.32
616.30	114.69
616.46	84.26
616.61	88.94
616.76	65.54
616.92	56.17
617.07	53.83
617.22	44.47
617.37	51.49
617.53	21.06
617.68	30.43
617.83	42.13
617.99	18.72
618.14	30.43
618.29	16.38
618.45	37.45
618.60	121.71
618.75	0.00
618.90	0.00
619.06	37.45
619.21	11.70
619.36	0.00
619.51	39.79
619.67	53.83
619.82	14.04
619.97	23.41
620.12	51.49
620.28	67.88
620.43	16.38
620.58	18.72
620.73	58.51
620.89	4.68
621.04	32.77
621.19	32.77
621.34	70.22
621.49	35.11
621.65	25.75
621.80	77.24
621.95	0.00
622.10	58.51
622.25	0.00
622.41	0.00
622.56	67.88
622.71	93.62
622.86	42.13
623.01	0.00
623.16	25.75
623.32	72.56
623.47	11.70
623.62	110.01
623.77	53.83
623.92	60.85
624.07	49.15
624.23	0.00
624.38	0.00
624.53	11.70
624.68	95.96
624.83	51.49
624.98	49.15
625.13	74.90
625.29	135.75
625.44	63.19
625.59	100.64
625.74	102.98
625.89	37.45
626.04	67.88
626.19	58.51
626.34	121.71
626.49	140.43
626.65	105.32
626.80	23.41
626.95	65.54
627.10	44.47
627.25	56.17
627.40	37.45
627.55	30.43
627.70	91.28
627.85	0.00
628.00	35.11
628.15	63.19
628.30	18.72
628.45	56.17
628.60	65.54
628.76	0.00
628.91	18.72
629.06	63.19
629.21	0.00
629.36	0.00
629.51	16.38
629.66	32.77
629.81	32.77
629.96	25.75
630.11	0.00
630.26	81.92
630.41	42.13
630.56	25.75
630.71	51.49
630.86	35.11
631.01	25.75
631.16	11.70
631.31	21.06
631.46	58.51
631.61	18.72
631.76	32.77
631.91	28.09
632.06	70.22
632.21	25.75
632.36	72.56
632.51	25.75
632.66	93.62
632.81	67.88
632.96	79.58
633.10	88.94
633.25	124.05
633.40	72.56
633.55	126.39
633.70	128.73
633.85	28.09
634.00	16.38
634.15	0.00
634.30	28.09
634.45	11.70
634.60	124.05
634.75	56.17
634.90	18.72
635.05	63.19
635.19	0.00
635.34	37.45
635.49	9.36
635.64	0.00
635.79	46.81
635.94	11.70
636.09	25.75
636.24	0.00
636.39	0.00
636.53	18.72
636.68	0.00
636.83	0.00
636.98	16.38
637.13	14.04
637.28	28.09
637.43	0.00
637.57	42.13
637.72	95.96
637.87	107.66
638.02	77.24
638.17	159.16
638.32	56.17
638.46	93.62
638.61	67.88
638.76	7.02
638.91	44.47
639.06	14.04
639.20	100.64
639.35	18.72
639.50	4.68
639.65	95.96
639.80	114.69
639.94	229.37
640.09	215.33
640.24	140.43
640.39	145.11
640.54	140.43
640.68	63.19
640.83	65.54
640.98	9.36
641.13	44.47
641.27	44.47
641.42	21.06
641.57	35.11
641.72	35.11
641.86	16.38
642.01	0.00
642.16	30.43
642.31	49.15
642.45	42.13
642.60	39.79
642.75	56.17
642.90	0.00
643.04	0.00
643.19	53.83
643.34	0.00
643.48	0.00
643.63	95.96
643.78	72.56
643.93	16.38
644.07	23.41
644.22	30.43
644.37	79.58
644.51	63.19
644.66	28.09
644.81	0.00
644.95	0.00
645.10	135.75
645.25	2.34
645.39	0.00
645.54	0.00
645.69	0.00
645.83	79.58
645.98	81.92
646.13	0.00
646.27	44.47
646.42	42.13
646.57	53.83
646.71	0.00
646.86	14.04
647.00	56.17
647.15	28.09
647.30	7.02
647.44	0.00
647.59	39.79
647.74	72.56
647.88	60.85
648.03	7.02
648.17	44.47
648.32	4.68
648.47	51.49
648.61	93.62
648.76	56.17
648.90	67.88
649.05	37.45
649.20	72.56
649.34	11.70
649.49	0.00
649.63	0.00
649.78	84.26
649.92	74.90
650.07	65.54
650.21	53.83
650.36	121.71
650.51	173.20
650.65	124.05
650.80	128.73
650.94	49.15
651.09	39.79
651.23	84.26
651.38	84.26
651.52	53.83
651.67	49.15
651.81	11.70
651.96	23.41
652.10	23.41
652.25	7.02
652.39	51.49
652.54	0.00
652.68	53.83
652.83	16.38
652.97	32.77
653.12	58.51
653.26	100.64
653.41	32.77
653.55	30.43
653.70	65.54
653.84	88.94
653.99	42.13
654.13	0.00
654.27	25.75
654.42	14.04
654.56	77.24
654.71	0.00
654.85	0.00
655.00	60.85
655.14	16.38
655.29	35.11
655.43	37.45
655.57	28.09
655.72	65.54
655.86	0.00
656.01	14.04
656.15	58.51
656.30	81.92
656.44	42.13
656.58	72.56
656.73	0.00
656.87	9.36
657.01	0.00
657.16	37.45
657.30	49.15
657.45	49.15
657.59	0.00
657.73	0.00
657.88	60.85
658.02	30.43
658.16	0.00
658.31	42.13
658.45	67.88
658.60	39.79
658.74	65.54
658.88	32.77
659.03	72.56
659.17	11.70
659.31	18.72
659.46	65.54
659.60	102.98
659.74	145.11
659.89	98.30
660.03	23.41
660.17	49.15
660.32	110.01
660.46	35.11
660.60	44.47
660.74	128.73
660.89	0.00
661.03	0.00
661.17	56.17
661.32	28.09
661.46	60.85
661.60	9.36
661.74	0.00
661.89	30.43
662.03	37.45
662.17	77.24
662.31	84.26
662.46	72.56
662.60	86.60
662.74	25.75
662.88	67.88
663.03	84.26
663.17	91.28
663.31	30.43
663.45	124.05
663.60	28.09
663.74	79.58
663.88	23.41
664.02	56.17
664.17	42.13
664.31	72.56
664.45	88.94
664.59	44.47
664.73	63.19
664.88	42.13
665.02	32.77
665.16	0.00
665.30	37.45
665.44	23.41
665.59	77.24
665.73	28.09
665.87	21.06
666.01	11.70
666.15	0.00
666.29	14.04
666.44	42.13
666.58	0.00
666.72	98.30
666.86	58.51
667.00	0.00
667.14	0.00
667.28	51.49
667.43	60.85
667.57	105.32
667.71	180.22
667.85	133.41
667.99	124.05
668.13	14.04
668.27	4.68
668.41	56.17
668.56	2.34
668.70	84.26
668.84	0.00
668.98	81.92
669.12	35.11
669.26	0.00
669.40	60.85
669.54	70.22
669.68	56.17
669.82	4.68
669.96	30.43
670.10	79.58
670.25	46.81
670.39	30.43
670.53	14.04
670.67	49.15
670.81	21.06
670.95	0.00
671.09	67.88
671.23	60.85
671.37	23.41
671.51	25.75
671.65	117.03
671.79	44.47
671.93	46.81
672.07	74.90
672.21	7.02
672.35	67.88
672.49	63.19
672.63	51.49
672.77	0.00
672.91	37.45
673.05	7.02
673.19	74.90
673.33	84.26
673.47	117.03
673.61	63.19
673.75	39.79
673.89	135.75
674.03	72.56
674.17	37.45
674.31	81.92
674.45	28.09
674.59	23.41
674.73	11.70
674.87	46.81
675.01	32.77
675.15	67.88
675.29	49.15
675.43	18.72
675.56	28.09
675.70	18.72
675.84	0.00
675.98	105.32
676.12	25.75
676.26	25.75
676.40	23.41
676.54	16.38
676.68	0.00
676.82	63.19
676.96	84.26
677.10	9.36
677.23	49.15
677.37	30.43
677.51	67.88
677.65	16.38
677.79	11.70
677.93	0.00
678.07	14.04
678.21	84.26
678.34	7.02
678.48	95.96
678.62	0.00
678.76	0.00
678.90	28.09
679.04	18.72
679.18	0.00
679.31	84.26
679.45	18.72
679.59	0.00
679.73	0.00
679.87	95.96
680.00	46.81
680.14	35.11
680.28	42.13
680.42	18.72
680.56	0.00
680.70	30.43
680.83	30.43
680.97	18.72
681.11	37.45
681.25	39.79
681.39	72.56
681.52	32.77
681.66	0.00
681.80	4.68
681.94	0.00
682.07	79.58
682.21	2.34
682.35	0.00
682.49	72.56
682.62	0.00
682.76	30.43
682.90	30.43
683.04	79.58
683.17	35.11
683.31	67.88
683.45	46.81
683.59	46.81
683.72	72.56
683.86	23.41
684.00	0.00
684.13	107.66
684.27	0.00
684.41	7.02
684.55	16.38
684.68	7.02
684.82	39.79
684.96	84.26
685.09	0.00
685.23	18.72
685.37	0.00
685.50	32.77
685.64	0.00
685.78	23.41
685.91	35.11
686.05	9.36
686.19	28.09
686.32	14.04
686.46	53.83
686.60	11.70
686.73	0.00
686.87	9.36
687.01	18.72
687.14	7.02
687.28	60.85
687.42	30.43
687.55	23.41
687.69	0.00
687.82	0.00
687.96	44.47
688.10	16.38
688.23	21.06
688.37	60.85
688.50	56.17
688.64	35.11
688.78	14.04
688.91	0.00
689.05	53.83
689.18	44.47
689.32	9.36
689.46	86.60
689.59	2.34
689.73	14.04
689.86	65.54
690.00	7.02
690.13	11.70
690.27	49.15
690.41	93.62
690.54	30.43
690.68	74.90
690.81	25.75
690.95	2.34
691.08	44.47
691.22	44.47
691.35	0.00
691.49	42.13
691.62	0.00
691.76	0.00
691.89	21.06
692.03	0.00
692.16	63.19
692.30	67.88
692.43	11.70
692.57	86.60
692.70	49.15
692.84	126.39
692.97	84.26
693.11	117.03
693.24	44.47
693.38	21.06
693.51	51.49
693.65	0.00
693.78	23.41
693.92	16.38
694.05	28.09
694.19	46.81
694.32	67.88
694.45	37.45
694.59	16.38
694.72	39.79
694.86	46.81
694.99	2.34
695.13	100.64
695.26	0.00
695.39	0.00
695.53	39.79
695.66	46.81
695.80	0.00
695.93	21.06
696.07	9.36
696.20	0.00
696.33	7.02
696.47	39.79
696.60	0.00
696.73	25.75
696.87	0.00
697.00	0.00
697.14	100.64
697.27	35.11
697.40	14.04
697.54	0.00
697.67	25.75
697.80	39.79
697.94	63.19
698.07	21.06
698.21	11.70
698.34	0.00
698.47	63.19
698.61	39.79
698.74	35.11
698.87	0.00
699.01	28.09
699.14	0.00
699.27	37.45
699.40	23.41
699.54	21.06
699.67	32.77
699.80	42.13
699.94	84.26
700.07	42.13
700.20	42.13
700.34	60.85
700.47	23.41
700.60	60.85
700.73	0.00
700.87	72.56
701.00	18.72
701.13	49.15
701.26	88.94
701.40	0.00
701.53	74.90
701.66	0.00
701.79	67.88
701.93	0.00
702.06	58.51
702.19	23.41
702.32	32.77
702.46	11.70
702.59	0.00
702.72	74.90
702.85	28.09
702.99	14.04
703.12	135.75
703.25	152.13
703.38	79.58
703.51	84.26
703.65	46.81
703.78	23.41
703.91	72.56
704.04	21.06
704.17	65.54
704.31	30.43
704.44	23.41
704.57	56.17
704.70	35.11
704.83	42.13
704.96	42.13
705.10	0.00
705.23	0.00
>>>>>End Processed Spectral Data<<<<<
