SpectraSuite Data File
++++++++++++++++++++++++++++++++++++
Date: Fri Oct 04 12:13:32 GMT-05:00 2013
User: price-jones
Dark Spectrum Present: No
Reference Spectrum Present: No
Number of Sampled Component Spectra: 1
Spectrometers: USB2+H05261
Integration Time (usec): 10000 (USB2+H05261)
Spectra Averaged: 1 (USB2+H05261)
Boxcar Smoothing: 0 (USB2+H05261)
Correct for Electrical Dark: No (USB2+H05261)
Strobe/Lamp Enabled: No (USB2+H05261)
Correct for Detector Non-linearity: No (USB2+H05261)
Correct for Stray Light: No (USB2+H05261)
Number of Pixels in Processed Spectrum: 2048
>>>>>Begin Processed Spectral Data<<<<<
365.73	4.68
365.92	4.68
366.12	4.68
366.32	0.00
366.52	0.00
366.72	0.00
366.91	0.00
367.11	0.00
367.31	0.00
367.51	0.00
367.70	0.00
367.90	0.00
368.10	0.00
368.30	0.00
368.49	0.00
368.69	0.00
368.89	0.00
369.09	0.00
369.28	0.00
369.48	0.00
369.68	0.00
369.87	0.00
370.07	0.00
370.27	0.00
370.47	0.00
370.66	0.00
370.86	0.00
371.06	0.00
371.25	21.06
371.45	18.72
371.65	0.00
371.84	0.00
372.04	0.00
372.24	0.00
372.44	0.00
372.63	2.34
372.83	35.11
373.03	44.47
373.22	35.11
373.42	35.11
373.62	30.43
373.81	74.90
374.01	35.11
374.21	0.00
374.40	63.19
374.60	39.79
374.79	32.77
374.99	58.51
375.19	67.88
375.38	98.30
375.58	77.24
375.78	0.00
375.97	79.58
376.17	30.43
376.37	23.41
376.56	37.45
376.76	25.75
376.95	0.00
377.15	44.47
377.35	51.49
377.54	0.00
377.74	25.75
377.93	49.15
378.13	9.36
378.33	0.00
378.52	42.13
378.72	102.98
378.91	49.15
379.11	0.00
379.31	44.47
379.50	0.00
379.70	7.02
379.89	9.36
380.09	16.38
380.28	18.72
380.48	9.36
380.68	0.00
380.87	58.51
381.07	0.00
381.26	0.00
381.46	0.00
381.65	0.00
381.85	51.49
382.04	32.77
382.24	25.75
382.43	35.11
382.63	4.68
382.83	0.00
383.02	37.45
383.22	0.00
383.41	44.47
383.61	42.13
383.80	53.83
384.00	0.00
384.19	74.90
384.39	14.04
384.58	74.90
384.78	0.00
384.97	30.43
385.17	0.00
385.36	102.98
385.56	0.00
385.75	32.77
385.95	49.15
386.14	0.00
386.34	65.54
386.53	65.54
386.72	0.00
386.92	2.34
387.11	18.72
387.31	30.43
387.50	0.00
387.70	2.34
387.89	28.09
388.09	4.68
388.28	0.00
388.48	0.00
388.67	21.06
388.86	32.77
389.06	0.00
389.25	7.02
389.45	0.00
389.64	0.00
389.84	16.38
390.03	65.54
390.22	46.81
390.42	0.00
390.61	28.09
390.81	39.79
391.00	0.00
391.19	0.00
391.39	21.06
391.58	0.00
391.78	110.01
391.97	0.00
392.16	28.09
392.36	44.47
392.55	7.02
392.75	0.00
392.94	25.75
393.13	2.34
393.33	16.38
393.52	0.00
393.71	21.06
393.91	23.41
394.10	7.02
394.29	35.11
394.49	4.68
394.68	77.24
394.88	58.51
395.07	37.45
395.26	0.00
395.46	0.00
395.65	0.00
395.84	11.70
396.04	46.81
396.23	0.00
396.42	35.11
396.62	46.81
396.81	93.62
397.00	4.68
397.19	9.36
397.39	0.00
397.58	2.34
397.77	0.00
397.97	14.04
398.16	0.00
398.35	49.15
398.55	9.36
398.74	0.00
398.93	44.47
399.12	79.58
399.32	28.09
399.51	23.41
399.70	0.00
399.90	49.15
400.09	35.11
400.28	21.06
400.47	56.17
400.67	14.04
400.86	4.68
401.05	63.19
401.24	28.09
401.44	0.00
401.63	0.00
401.82	0.00
402.01	7.02
402.21	23.41
402.40	28.09
402.59	77.24
402.78	0.00
402.97	11.70
403.17	0.00
403.36	37.45
403.55	4.68
403.74	37.45
403.93	49.15
404.13	16.38
404.32	0.00
404.51	0.00
404.70	0.00
404.89	4.68
405.09	4.68
405.28	49.15
405.47	53.83
405.66	0.00
405.85	53.83
406.05	14.04
406.24	39.79
406.43	0.00
406.62	25.75
406.81	0.00
407.00	46.81
407.20	18.72
407.39	23.41
407.58	93.62
407.77	9.36
407.96	4.68
408.15	44.47
408.34	0.00
408.54	46.81
408.73	0.00
408.92	0.00
409.11	0.00
409.30	18.72
409.49	35.11
409.68	72.56
409.87	0.00
410.07	0.00
410.26	37.45
410.45	42.13
410.64	4.68
410.83	0.00
411.02	0.00
411.21	9.36
411.40	0.00
411.59	44.47
411.78	28.09
411.98	30.43
412.17	0.00
412.36	42.13
412.55	0.00
412.74	35.11
412.93	4.68
413.12	9.36
413.31	16.38
413.50	0.00
413.69	58.51
413.88	0.00
414.07	0.00
414.26	9.36
414.45	0.00
414.64	74.90
414.83	65.54
415.02	7.02
415.22	30.43
415.41	0.00
415.60	28.09
415.79	9.36
415.98	2.34
416.17	4.68
416.36	0.00
416.55	0.00
416.74	0.00
416.93	0.00
417.12	88.94
417.31	16.38
417.50	0.00
417.69	65.54
417.88	9.36
418.07	35.11
418.26	32.77
418.45	0.00
418.64	84.26
418.83	63.19
419.02	51.49
419.21	72.56
419.39	9.36
419.58	49.15
419.77	30.43
419.96	35.11
420.15	0.00
420.34	0.00
420.53	51.49
420.72	11.70
420.91	51.49
421.10	42.13
421.29	53.83
421.48	11.70
421.67	21.06
421.86	56.17
422.05	0.00
422.24	49.15
422.43	28.09
422.61	23.41
422.80	30.43
422.99	0.00
423.18	0.00
423.37	9.36
423.56	65.54
423.75	0.00
423.94	84.26
424.13	4.68
424.32	58.51
424.50	0.00
424.69	25.75
424.88	58.51
425.07	0.00
425.26	7.02
425.45	28.09
425.64	28.09
425.83	2.34
426.01	11.70
426.20	35.11
426.39	23.41
426.58	46.81
426.77	170.86
426.96	51.49
427.15	0.00
427.33	35.11
427.52	51.49
427.71	18.72
427.90	0.00
428.09	4.68
428.28	7.02
428.46	0.00
428.65	102.98
428.84	81.92
429.03	14.04
429.22	39.79
429.40	51.49
429.59	39.79
429.78	0.00
429.97	0.00
430.16	67.88
430.34	16.38
430.53	37.45
430.72	18.72
430.91	110.01
431.10	28.09
431.28	32.77
431.47	2.34
431.66	0.00
431.85	0.00
432.03	28.09
432.22	42.13
432.41	23.41
432.60	93.62
432.79	0.00
432.97	21.06
433.16	35.11
433.35	0.00
433.54	23.41
433.72	65.54
433.91	58.51
434.10	65.54
434.28	11.70
434.47	18.72
434.66	56.17
434.85	72.56
435.03	37.45
435.22	60.85
435.41	0.00
435.59	0.00
435.78	79.58
435.97	60.85
436.16	91.28
436.34	4.68
436.53	23.41
436.72	44.47
436.90	65.54
437.09	46.81
437.28	0.00
437.46	107.66
437.65	32.77
437.84	53.83
438.02	7.02
438.21	58.51
438.40	44.47
438.58	35.11
438.77	0.00
438.96	58.51
439.14	30.43
439.33	23.41
439.52	44.47
439.70	44.47
439.89	30.43
440.08	100.64
440.26	44.47
440.45	32.77
440.63	35.11
440.82	28.09
441.01	46.81
441.19	60.85
441.38	93.62
441.57	60.85
441.75	79.58
441.94	70.22
442.12	95.96
442.31	18.72
442.50	16.38
442.68	0.00
442.87	126.39
443.05	114.69
443.24	4.68
443.43	0.00
443.61	86.60
443.80	44.47
443.98	100.64
444.17	28.09
444.35	60.85
444.54	39.79
444.73	0.00
444.91	23.41
445.10	74.90
445.28	91.28
445.47	0.00
445.65	79.58
445.84	46.81
446.02	0.00
446.21	21.06
446.39	4.68
446.58	105.32
446.77	18.72
446.95	21.06
447.14	16.38
447.32	0.00
447.51	56.17
447.69	0.00
447.88	67.88
448.06	93.62
448.25	37.45
448.43	11.70
448.62	67.88
448.80	37.45
448.99	14.04
449.17	9.36
449.36	21.06
449.54	14.04
449.73	46.81
449.91	0.00
450.10	35.11
450.28	53.83
450.46	98.30
450.65	0.00
450.83	14.04
451.02	4.68
451.20	28.09
451.39	21.06
451.57	65.54
451.76	93.62
451.94	72.56
452.13	0.00
452.31	0.00
452.49	93.62
452.68	32.77
452.86	25.75
453.05	81.92
453.23	35.11
453.42	30.43
453.60	0.00
453.78	81.92
453.97	21.06
454.15	0.00
454.34	14.04
454.52	44.47
454.70	0.00
454.89	9.36
455.07	23.41
455.26	0.00
455.44	2.34
455.62	21.06
455.81	0.00
455.99	4.68
456.17	0.00
456.36	35.11
456.54	81.92
456.73	0.00
456.91	0.00
457.09	14.04
457.28	0.00
457.46	7.02
457.64	4.68
457.83	42.13
458.01	37.45
458.19	67.88
458.38	70.22
458.56	51.49
458.74	0.00
458.93	0.00
459.11	63.19
459.29	77.24
459.48	74.90
459.66	128.73
459.84	79.58
460.03	95.96
460.21	46.81
460.39	28.09
460.57	63.19
460.76	0.00
460.94	14.04
461.12	72.56
461.31	56.17
461.49	124.05
461.67	0.00
461.85	25.75
462.04	0.00
462.22	105.32
462.40	0.00
462.59	77.24
462.77	44.47
462.95	49.15
463.13	107.66
463.32	32.77
463.50	18.72
463.68	53.83
463.86	67.88
464.05	0.00
464.23	86.60
464.41	39.79
464.59	42.13
464.78	74.90
464.96	44.47
465.14	4.68
465.32	88.94
465.50	0.00
465.69	11.70
465.87	51.49
466.05	135.75
466.23	25.75
466.41	11.70
466.60	0.00
466.78	0.00
466.96	37.45
467.14	16.38
467.32	79.58
467.51	77.24
467.69	16.38
467.87	0.00
468.05	65.54
468.23	0.00
468.41	7.02
468.60	49.15
468.78	25.75
468.96	30.43
469.14	28.09
469.32	9.36
469.50	42.13
469.69	7.02
469.87	30.43
470.05	0.00
470.23	56.17
470.41	0.00
470.59	25.75
470.77	37.45
470.95	18.72
471.14	32.77
471.32	0.00
471.50	42.13
471.68	102.98
471.86	60.85
472.04	21.06
472.22	2.34
472.40	9.36
472.58	0.00
472.77	124.05
472.95	21.06
473.13	0.00
473.31	0.00
473.49	0.00
473.67	23.41
473.85	11.70
474.03	14.04
474.21	0.00
474.39	4.68
474.57	79.58
474.75	32.77
474.93	16.38
475.12	0.00
475.30	39.79
475.48	14.04
475.66	39.79
475.84	44.47
476.02	23.41
476.20	0.00
476.38	28.09
476.56	32.77
476.74	32.77
476.92	25.75
477.10	16.38
477.28	51.49
477.46	56.17
477.64	114.69
477.82	70.22
478.00	46.81
478.18	72.56
478.36	21.06
478.54	0.00
478.72	42.13
478.90	77.24
479.08	77.24
479.26	67.88
479.44	35.11
479.62	84.26
479.80	39.79
479.98	0.00
480.16	18.72
480.34	0.00
480.52	39.79
480.70	18.72
480.88	9.36
481.06	35.11
481.24	16.38
481.41	65.54
481.59	58.51
481.77	9.36
481.95	0.00
482.13	30.43
482.31	58.51
482.49	0.00
482.67	46.81
482.85	25.75
483.03	2.34
483.21	114.69
483.39	65.54
483.57	60.85
483.74	25.75
483.92	7.02
484.10	51.49
484.28	56.17
484.46	30.43
484.64	65.54
484.82	56.17
485.00	32.77
485.18	46.81
485.35	44.47
485.53	28.09
485.71	42.13
485.89	79.58
486.07	0.00
486.25	0.00
486.43	23.41
486.61	0.00
486.78	58.51
486.96	67.88
487.14	67.88
487.32	32.77
487.50	23.41
487.68	0.00
487.85	74.90
488.03	0.00
488.21	0.00
488.39	42.13
488.57	0.00
488.75	0.00
488.92	128.73
489.10	60.85
489.28	2.34
489.46	4.68
489.64	35.11
489.81	0.00
489.99	16.38
490.17	25.75
490.35	63.19
490.53	0.00
490.70	42.13
490.88	117.03
491.06	0.00
491.24	112.35
491.41	0.00
491.59	51.49
491.77	0.00
491.95	112.35
492.13	23.41
492.30	51.49
492.48	0.00
492.66	105.32
492.84	39.79
493.01	60.85
493.19	88.94
493.37	79.58
493.54	28.09
493.72	91.28
493.90	0.00
494.08	63.19
494.25	51.49
494.43	23.41
494.61	25.75
494.79	56.17
494.96	0.00
495.14	32.77
495.32	98.30
495.49	37.45
495.67	0.00
495.85	51.49
496.02	4.68
496.20	25.75
496.38	91.28
496.55	37.45
496.73	74.90
496.91	25.75
497.09	18.72
497.26	21.06
497.44	63.19
497.62	21.06
497.79	79.58
497.97	72.56
498.14	91.28
498.32	28.09
498.50	25.75
498.67	79.58
498.85	23.41
499.03	7.02
499.20	32.77
499.38	35.11
499.56	74.90
499.73	21.06
499.91	42.13
500.08	74.90
500.26	121.71
500.44	16.38
500.61	18.72
500.79	28.09
500.97	14.04
501.14	28.09
501.32	0.00
501.49	95.96
501.67	91.28
501.84	35.11
502.02	91.28
502.20	65.54
502.37	4.68
502.55	25.75
502.72	39.79
502.90	7.02
503.07	77.24
503.25	53.83
503.43	23.41
503.60	84.26
503.78	0.00
503.95	0.00
504.13	0.00
504.30	70.22
504.48	30.43
504.65	21.06
504.83	74.90
505.01	25.75
505.18	77.24
505.36	44.47
505.53	39.79
505.71	77.24
505.88	51.49
506.06	28.09
506.23	4.68
506.41	39.79
506.58	30.43
506.76	107.66
506.93	152.13
507.11	56.17
507.28	91.28
507.46	121.71
507.63	100.64
507.81	30.43
507.98	28.09
508.16	18.72
508.33	23.41
508.50	114.69
508.68	25.75
508.85	9.36
509.03	91.28
509.20	0.00
509.38	95.96
509.55	88.94
509.73	49.15
509.90	117.03
510.08	18.72
510.25	35.11
510.42	35.11
510.60	42.13
510.77	56.17
510.95	0.00
511.12	56.17
511.30	72.56
511.47	53.83
511.64	93.62
511.82	56.17
511.99	30.43
512.17	16.38
512.34	32.77
512.51	0.00
512.69	51.49
512.86	44.47
513.04	21.06
513.21	18.72
513.38	95.96
513.56	28.09
513.73	72.56
513.90	98.30
514.08	30.43
514.25	0.00
514.43	21.06
514.60	4.68
514.77	63.19
514.95	39.79
515.12	0.00
515.29	86.60
515.47	0.00
515.64	7.02
515.81	9.36
515.99	81.92
516.16	0.00
516.33	98.30
516.51	114.69
516.68	95.96
516.85	60.85
517.03	0.00
517.20	0.00
517.37	9.36
517.54	81.92
517.72	7.02
517.89	44.47
518.06	56.17
518.24	60.85
518.41	44.47
518.58	67.88
518.75	72.56
518.93	100.64
519.10	18.72
519.27	28.09
519.45	84.26
519.62	11.70
519.79	49.15
519.96	7.02
520.14	42.13
520.31	23.41
520.48	65.54
520.65	65.54
520.83	51.49
521.00	39.79
521.17	102.98
521.34	32.77
521.52	14.04
521.69	30.43
521.86	37.45
522.03	23.41
522.20	18.72
522.38	72.56
522.55	63.19
522.72	23.41
522.89	91.28
523.07	25.75
523.24	56.17
523.41	25.75
523.58	39.79
523.75	51.49
523.92	4.68
524.10	0.00
524.27	124.05
524.44	60.85
524.61	35.11
524.78	32.77
524.96	100.64
525.13	14.04
525.30	42.13
525.47	0.00
525.64	60.85
525.81	4.68
525.98	30.43
526.16	25.75
526.33	21.06
526.50	65.54
526.67	35.11
526.84	0.00
527.01	11.70
527.18	44.47
527.36	11.70
527.53	72.56
527.70	11.70
527.87	4.68
528.04	2.34
528.21	77.24
528.38	18.72
528.55	37.45
528.72	95.96
528.89	51.49
529.07	7.02
529.24	112.35
529.41	0.00
529.58	32.77
529.75	51.49
529.92	84.26
530.09	93.62
530.26	77.24
530.43	60.85
530.60	0.00
530.77	102.98
530.94	39.79
531.11	11.70
531.28	0.00
531.46	91.28
531.63	88.94
531.80	37.45
531.97	39.79
532.14	32.77
532.31	37.45
532.48	49.15
532.65	32.77
532.82	58.51
532.99	0.00
533.16	23.41
533.33	84.26
533.50	49.15
533.67	21.06
533.84	42.13
534.01	56.17
534.18	0.00
534.35	2.34
534.52	9.36
534.69	0.00
534.86	0.00
535.03	46.81
535.20	91.28
535.37	42.13
535.54	105.32
535.71	0.00
535.88	102.98
536.05	32.77
536.22	53.83
536.38	56.17
536.55	35.11
536.72	149.79
536.89	72.56
537.06	98.30
537.23	4.68
537.40	107.66
537.57	74.90
537.74	35.11
537.91	9.36
538.08	30.43
538.25	44.47
538.42	53.83
538.59	58.51
538.75	0.00
538.92	0.00
539.09	110.01
539.26	49.15
539.43	67.88
539.60	21.06
539.77	35.11
539.94	28.09
540.11	37.45
540.28	23.41
540.44	63.19
540.61	53.83
540.78	88.94
540.95	2.34
541.12	126.39
541.29	37.45
541.46	35.11
541.62	39.79
541.79	32.77
541.96	39.79
542.13	23.41
542.30	79.58
542.47	42.13
542.63	72.56
542.80	77.24
542.97	51.49
543.14	28.09
543.31	9.36
543.48	91.28
543.64	84.26
543.81	37.45
543.98	23.41
544.15	25.75
544.32	0.00
544.48	32.77
544.65	0.00
544.82	14.04
544.99	2.34
545.16	28.09
545.32	49.15
545.49	35.11
545.66	0.00
545.83	53.83
546.00	65.54
546.16	91.28
546.33	56.17
546.50	63.19
546.67	32.77
546.83	42.13
547.00	16.38
547.17	14.04
547.34	11.70
547.50	9.36
547.67	124.05
547.84	86.60
548.00	37.45
548.17	32.77
548.34	65.54
548.51	37.45
548.67	18.72
548.84	44.47
549.01	84.26
549.18	58.51
549.34	28.09
549.51	46.81
549.68	79.58
549.84	98.30
550.01	9.36
550.18	72.56
550.34	30.43
550.51	0.00
550.68	18.72
550.84	39.79
551.01	0.00
551.18	81.92
551.34	0.00
551.51	95.96
551.68	72.56
551.84	110.01
552.01	72.56
552.18	56.17
552.34	79.58
552.51	0.00
552.68	70.22
552.84	0.00
553.01	58.51
553.18	0.00
553.34	72.56
553.51	102.98
553.67	28.09
553.84	60.85
554.01	46.81
554.17	49.15
554.34	18.72
554.51	32.77
554.67	100.64
554.84	79.58
555.00	0.00
555.17	95.96
555.33	0.00
555.50	2.34
555.67	79.58
555.83	53.83
556.00	65.54
556.16	79.58
556.33	58.51
556.50	28.09
556.66	58.51
556.83	7.02
556.99	0.00
557.16	16.38
557.32	46.81
557.49	39.79
557.65	32.77
557.82	77.24
557.98	102.98
558.15	0.00
558.32	9.36
558.48	4.68
558.65	79.58
558.81	74.90
558.98	37.45
559.14	25.75
559.31	4.68
559.47	7.02
559.64	84.26
559.80	65.54
559.97	0.00
560.13	72.56
560.30	112.35
560.46	37.45
560.63	81.92
560.79	16.38
560.96	9.36
561.12	28.09
561.29	70.22
561.45	30.43
561.61	84.26
561.78	51.49
561.94	11.70
562.11	7.02
562.27	72.56
562.44	63.19
562.60	23.41
562.77	0.00
562.93	56.17
563.10	39.79
563.26	30.43
563.42	18.72
563.59	102.98
563.75	95.96
563.92	35.11
564.08	4.68
564.24	16.38
564.41	77.24
564.57	37.45
564.74	93.62
564.90	58.51
565.07	30.43
565.23	88.94
565.39	23.41
565.56	11.70
565.72	0.00
565.88	65.54
566.05	35.11
566.21	16.38
566.38	0.00
566.54	42.13
566.70	51.49
566.87	30.43
567.03	14.04
567.19	23.41
567.36	44.47
567.52	35.11
567.68	23.41
567.85	35.11
568.01	72.56
568.17	25.75
568.34	46.81
568.50	56.17
568.66	0.00
568.83	51.49
568.99	63.19
569.15	60.85
569.32	67.88
569.48	42.13
569.64	35.11
569.81	0.00
569.97	7.02
570.13	124.05
570.30	0.00
570.46	107.66
570.62	53.83
570.78	39.79
570.95	9.36
571.11	9.36
571.27	84.26
571.43	44.47
571.60	46.81
571.76	65.54
571.92	58.51
572.09	72.56
572.25	81.92
572.41	21.06
572.57	72.56
572.74	0.00
572.90	18.72
573.06	51.49
573.22	142.77
573.38	0.00
573.55	51.49
573.71	32.77
573.87	0.00
574.03	49.15
574.20	100.64
574.36	58.51
574.52	28.09
574.68	32.77
574.84	49.15
575.01	79.58
575.17	0.00
575.33	37.45
575.49	30.43
575.65	21.06
575.82	25.75
575.98	42.13
576.14	23.41
576.30	23.41
576.46	21.06
576.62	77.24
576.79	25.75
576.95	25.75
577.11	51.49
577.27	28.09
577.43	25.75
577.59	0.00
577.75	39.79
577.92	18.72
578.08	60.85
578.24	67.88
578.40	60.85
578.56	72.56
578.72	131.07
578.88	21.06
579.04	14.04
579.21	42.13
579.37	39.79
579.53	60.85
579.69	16.38
579.85	14.04
580.01	7.02
580.17	74.90
580.33	67.88
580.49	58.51
580.65	2.34
580.82	4.68
580.98	11.70
581.14	60.85
581.30	44.47
581.46	51.49
581.62	11.70
581.78	16.38
581.94	0.00
582.10	86.60
582.26	105.32
582.42	42.13
582.58	28.09
582.74	14.04
582.90	37.45
583.06	35.11
583.22	86.60
583.38	11.70
583.54	30.43
583.70	74.90
583.86	79.58
584.02	105.32
584.18	16.38
584.34	74.90
584.50	0.00
584.66	60.85
584.82	84.26
584.98	51.49
585.14	60.85
585.30	0.00
585.46	25.75
585.62	86.60
585.78	39.79
585.94	25.75
586.10	42.13
586.26	72.56
586.42	0.00
586.58	21.06
586.74	0.00
586.90	9.36
587.06	0.00
587.22	91.28
587.38	0.00
587.54	7.02
587.70	16.38
587.86	49.15
588.02	32.77
588.18	86.60
588.34	0.00
588.49	0.00
588.65	0.00
588.81	25.75
588.97	72.56
589.13	0.00
589.29	74.90
589.45	49.15
589.61	32.77
589.77	65.54
589.93	0.00
590.08	11.70
590.24	2.34
590.40	0.00
590.56	84.26
590.72	72.56
590.88	70.22
591.04	72.56
591.20	0.00
591.35	119.37
591.51	2.34
591.67	56.17
591.83	56.17
591.99	79.58
592.15	32.77
592.31	60.85
592.46	84.26
592.62	63.19
592.78	0.00
592.94	39.79
593.10	16.38
593.26	42.13
593.41	58.51
593.57	53.83
593.73	72.56
593.89	107.66
594.05	0.00
594.20	2.34
594.36	0.00
594.52	0.00
594.68	72.56
594.84	16.38
594.99	28.09
595.15	0.00
595.31	21.06
595.47	95.96
595.62	79.58
595.78	44.47
595.94	142.77
596.10	102.98
596.25	0.00
596.41	102.98
596.57	74.90
596.73	56.17
596.88	46.81
597.04	63.19
597.20	28.09
597.36	42.13
597.51	58.51
597.67	56.17
597.83	79.58
597.99	0.00
598.14	88.94
598.30	18.72
598.46	0.00
598.61	9.36
598.77	2.34
598.93	11.70
599.09	74.90
599.24	0.00
599.40	32.77
599.56	95.96
599.71	81.92
599.87	32.77
600.03	49.15
600.18	16.38
600.34	7.02
600.50	0.00
600.65	98.30
600.81	0.00
600.97	56.17
601.12	63.19
601.28	2.34
601.44	63.19
601.59	18.72
601.75	35.11
601.91	0.00
602.06	9.36
602.22	95.96
602.37	30.43
602.53	44.47
602.69	74.90
602.84	100.64
603.00	70.22
603.16	0.00
603.31	67.88
603.47	21.06
603.62	72.56
603.78	49.15
603.94	32.77
604.09	16.38
604.25	58.51
604.40	56.17
604.56	86.60
604.71	11.70
604.87	42.13
605.03	44.47
605.18	51.49
605.34	32.77
605.49	102.98
605.65	42.13
605.80	21.06
605.96	86.60
606.12	32.77
606.27	72.56
606.43	9.36
606.58	72.56
606.74	107.66
606.89	81.92
607.05	9.36
607.20	84.26
607.36	88.94
607.51	4.68
607.67	0.00
607.82	77.24
607.98	79.58
608.13	11.70
608.29	11.70
608.44	21.06
608.60	44.47
608.75	0.00
608.91	65.54
609.06	44.47
609.22	32.77
609.37	56.17
609.53	35.11
609.68	46.81
609.84	72.56
609.99	35.11
610.15	119.37
610.30	81.92
610.46	49.15
610.61	35.11
610.76	35.11
610.92	0.00
611.07	0.00
611.23	65.54
611.38	39.79
611.54	0.00
611.69	60.85
611.84	93.62
612.00	0.00
612.15	35.11
612.31	46.81
612.46	14.04
612.62	37.45
612.77	0.00
612.92	79.58
613.08	63.19
613.23	128.73
613.39	28.09
613.54	88.94
613.69	0.00
613.85	72.56
614.00	60.85
614.15	23.41
614.31	79.58
614.46	53.83
614.62	0.00
614.77	65.54
614.92	42.13
615.08	100.64
615.23	81.92
615.38	81.92
615.54	0.00
615.69	39.79
615.84	14.04
616.00	112.35
616.15	0.00
616.30	14.04
616.46	14.04
616.61	23.41
616.76	49.15
616.92	30.43
617.07	14.04
617.22	0.00
617.37	77.24
617.53	2.34
617.68	79.58
617.83	74.90
617.99	91.28
618.14	42.13
618.29	2.34
618.45	0.00
618.60	51.49
618.75	0.00
618.90	39.79
619.06	42.13
619.21	56.17
619.36	25.75
619.51	23.41
619.67	93.62
619.82	84.26
619.97	0.00
620.12	0.00
620.28	37.45
620.43	21.06
620.58	44.47
620.73	30.43
620.89	39.79
621.04	30.43
621.19	14.04
621.34	70.22
621.49	74.90
621.65	39.79
621.80	86.60
621.95	46.81
622.10	81.92
622.25	100.64
622.41	63.19
622.56	95.96
622.71	117.03
622.86	49.15
623.01	79.58
623.16	56.17
623.32	0.00
623.47	32.77
623.62	51.49
623.77	58.51
623.92	44.47
624.07	70.22
624.23	0.00
624.38	0.00
624.53	18.72
624.68	79.58
624.83	74.90
624.98	65.54
625.13	16.38
625.29	39.79
625.44	0.00
625.59	30.43
625.74	86.60
625.89	35.11
626.04	0.00
626.19	37.45
626.34	60.85
626.49	0.00
626.65	7.02
626.80	0.00
626.95	0.00
627.10	0.00
627.25	93.62
627.40	110.01
627.55	56.17
627.70	84.26
627.85	0.00
628.00	0.00
628.15	58.51
628.30	46.81
628.45	58.51
628.60	0.00
628.76	67.88
628.91	58.51
629.06	0.00
629.21	81.92
629.36	44.47
629.51	30.43
629.66	46.81
629.81	49.15
629.96	81.92
630.11	91.28
630.26	46.81
630.41	9.36
630.56	60.85
630.71	74.90
630.86	37.45
631.01	0.00
631.16	65.54
631.31	32.77
631.46	72.56
631.61	56.17
631.76	25.75
631.91	0.00
632.06	32.77
632.21	21.06
632.36	84.26
632.51	0.00
632.66	51.49
632.81	58.51
632.96	74.90
633.10	161.50
633.25	67.88
633.40	23.41
633.55	42.13
633.70	37.45
633.85	86.60
634.00	0.00
634.15	35.11
634.30	28.09
634.45	60.85
634.60	81.92
634.75	74.90
634.90	44.47
635.05	16.38
635.19	91.28
635.34	93.62
635.49	86.60
635.64	0.00
635.79	4.68
635.94	39.79
636.09	72.56
636.24	60.85
636.39	0.00
636.53	11.70
636.68	67.88
636.83	42.13
636.98	128.73
637.13	42.13
637.28	0.00
637.43	74.90
637.57	65.54
637.72	67.88
637.87	16.38
638.02	35.11
638.17	53.83
638.32	91.28
638.46	0.00
638.61	18.72
638.76	35.11
638.91	46.81
639.06	2.34
639.20	65.54
639.35	16.38
639.50	23.41
639.65	23.41
639.80	30.43
639.94	70.22
640.09	28.09
640.24	67.88
640.39	58.51
640.54	21.06
640.68	28.09
640.83	0.00
640.98	0.00
641.13	53.83
641.27	0.00
641.42	14.04
641.57	0.00
641.72	81.92
641.86	7.02
642.01	11.70
642.16	28.09
642.31	25.75
642.45	14.04
642.60	49.15
642.75	58.51
642.90	51.49
643.04	63.19
643.19	0.00
643.34	93.62
643.48	2.34
643.63	37.45
643.78	14.04
643.93	25.75
644.07	9.36
644.22	18.72
644.37	60.85
644.51	32.77
644.66	28.09
644.81	18.72
644.95	7.02
645.10	53.83
645.25	72.56
645.39	119.37
645.54	53.83
645.69	32.77
645.83	63.19
645.98	39.79
646.13	0.00
646.27	112.35
646.42	39.79
646.57	16.38
646.71	21.06
646.86	65.54
647.00	32.77
647.15	88.94
647.30	46.81
647.44	81.92
647.59	51.49
647.74	0.00
647.88	51.49
648.03	46.81
648.17	51.49
648.32	58.51
648.47	72.56
648.61	0.00
648.76	114.69
648.90	16.38
649.05	133.41
649.20	0.00
649.34	4.68
649.49	0.00
649.63	70.22
649.78	0.00
649.92	67.88
650.07	28.09
650.21	14.04
650.36	60.85
650.51	63.19
650.65	42.13
650.80	93.62
650.94	88.94
651.09	25.75
651.23	32.77
651.38	23.41
651.52	9.36
651.67	49.15
651.81	14.04
651.96	60.85
652.10	0.00
652.25	18.72
652.39	0.00
652.54	49.15
652.68	102.98
652.83	30.43
652.97	0.00
653.12	11.70
653.26	28.09
653.41	14.04
653.55	0.00
653.70	0.00
653.84	37.45
653.99	7.02
654.13	37.45
654.27	37.45
654.42	32.77
654.56	32.77
654.71	30.43
654.85	42.13
655.00	77.24
655.14	0.00
655.29	35.11
655.43	16.38
655.57	53.83
655.72	39.79
655.86	44.47
656.01	60.85
656.15	23.41
656.30	102.98
656.44	49.15
656.58	21.06
656.73	53.83
656.87	0.00
657.01	35.11
657.16	49.15
657.30	23.41
657.45	32.77
657.59	7.02
657.73	65.54
657.88	0.00
658.02	21.06
658.16	79.58
658.31	35.11
658.45	0.00
658.60	25.75
658.74	7.02
658.88	0.00
659.03	42.13
659.17	0.00
659.31	4.68
659.46	9.36
659.60	0.00
659.74	9.36
659.89	30.43
660.03	14.04
660.17	70.22
660.32	32.77
660.46	2.34
660.60	88.94
660.74	16.38
660.89	110.01
661.03	9.36
661.17	46.81
661.32	23.41
661.46	0.00
661.60	0.00
661.74	46.81
661.89	28.09
662.03	0.00
662.17	42.13
662.31	98.30
662.46	0.00
662.60	42.13
662.74	0.00
662.88	95.96
663.03	0.00
663.17	18.72
663.31	58.51
663.45	16.38
663.60	0.00
663.74	46.81
663.88	46.81
664.02	14.04
664.17	44.47
664.31	49.15
664.45	37.45
664.59	23.41
664.73	46.81
664.88	95.96
665.02	11.70
665.16	60.85
665.30	117.03
665.44	58.51
665.59	49.15
665.73	32.77
665.87	16.38
666.01	77.24
666.15	35.11
666.29	0.00
666.44	32.77
666.58	0.00
666.72	0.00
666.86	0.00
667.00	84.26
667.14	7.02
667.28	35.11
667.43	60.85
667.57	65.54
667.71	30.43
667.85	32.77
667.99	42.13
668.13	74.90
668.27	60.85
668.41	35.11
668.56	30.43
668.70	0.00
668.84	65.54
668.98	18.72
669.12	0.00
669.26	46.81
669.40	46.81
669.54	67.88
669.68	0.00
669.82	28.09
669.96	0.00
670.10	84.26
670.25	28.09
670.39	77.24
670.53	0.00
670.67	4.68
670.81	16.38
670.95	21.06
671.09	11.70
671.23	30.43
671.37	39.79
671.51	70.22
671.65	32.77
671.79	0.00
671.93	65.54
672.07	14.04
672.21	7.02
672.35	112.35
672.49	0.00
672.63	58.51
672.77	70.22
672.91	32.77
673.05	60.85
673.19	77.24
673.33	0.00
673.47	56.17
673.61	14.04
673.75	18.72
673.89	37.45
674.03	91.28
674.17	28.09
674.31	11.70
674.45	14.04
674.59	0.00
674.73	21.06
674.87	0.00
675.01	58.51
675.15	11.70
675.29	88.94
675.43	0.00
675.56	0.00
675.70	11.70
675.84	60.85
675.98	25.75
676.12	25.75
676.26	0.00
676.40	0.00
676.54	58.51
676.68	67.88
676.82	0.00
676.96	84.26
677.10	37.45
677.23	100.64
677.37	77.24
677.51	30.43
677.65	28.09
677.79	14.04
677.93	30.43
678.07	110.01
678.21	46.81
678.34	32.77
678.48	0.00
678.62	51.49
678.76	14.04
678.90	35.11
679.04	0.00
679.18	93.62
679.31	86.60
679.45	0.00
679.59	0.00
679.73	110.01
679.87	88.94
680.00	65.54
680.14	0.00
680.28	60.85
680.42	0.00
680.56	0.00
680.70	72.56
680.83	42.13
680.97	16.38
681.11	37.45
681.25	53.83
681.39	107.66
681.52	23.41
681.66	0.00
681.80	2.34
681.94	16.38
682.07	0.00
682.21	0.00
682.35	65.54
682.49	9.36
682.62	51.49
682.76	44.47
682.90	9.36
683.04	42.13
683.17	58.51
683.31	2.34
683.45	70.22
683.59	0.00
683.72	25.75
683.86	88.94
684.00	9.36
684.13	0.00
684.27	98.30
684.41	51.49
684.55	21.06
684.68	56.17
684.82	0.00
684.96	21.06
685.09	49.15
685.23	42.13
685.37	0.00
685.50	107.66
685.64	28.09
685.78	0.00
685.91	56.17
686.05	114.69
686.19	18.72
686.32	25.75
686.46	0.00
686.60	28.09
686.73	23.41
686.87	28.09
687.01	18.72
687.14	14.04
687.28	70.22
687.42	91.28
687.55	77.24
687.69	49.15
687.82	0.00
687.96	53.83
688.10	84.26
688.23	37.45
688.37	84.26
688.50	81.92
688.64	44.47
688.78	28.09
688.91	11.70
689.05	102.98
689.18	30.43
689.32	0.00
689.46	79.58
689.59	67.88
689.73	56.17
689.86	9.36
690.00	49.15
690.13	0.00
690.27	0.00
690.41	91.28
690.54	56.17
690.68	23.41
690.81	74.90
690.95	0.00
691.08	18.72
691.22	35.11
691.35	0.00
691.49	11.70
691.62	32.77
691.76	0.00
691.89	9.36
692.03	58.51
692.16	49.15
692.30	98.30
692.43	0.00
692.57	14.04
692.70	46.81
692.84	42.13
692.97	0.00
693.11	0.00
693.24	95.96
693.38	74.90
693.51	49.15
693.65	11.70
693.78	49.15
693.92	56.17
694.05	18.72
694.19	51.49
694.32	32.77
694.45	0.00
694.59	72.56
694.72	74.90
694.86	35.11
694.99	56.17
695.13	30.43
695.26	0.00
695.39	7.02
695.53	0.00
695.66	9.36
695.80	23.41
695.93	51.49
696.07	56.17
696.20	70.22
696.33	51.49
696.47	56.17
696.60	18.72
696.73	35.11
696.87	0.00
697.00	37.45
697.14	84.26
697.27	28.09
697.40	42.13
697.54	14.04
697.67	0.00
697.80	9.36
697.94	0.00
698.07	63.19
698.21	0.00
698.34	9.36
698.47	65.54
698.61	0.00
698.74	18.72
698.87	0.00
699.01	30.43
699.14	63.19
699.27	39.79
699.40	46.81
699.54	23.41
699.67	28.09
699.80	79.58
699.94	0.00
700.07	4.68
700.20	0.00
700.34	2.34
700.47	4.68
700.60	25.75
700.73	4.68
700.87	65.54
701.00	0.00
701.13	0.00
701.26	30.43
701.40	16.38
701.53	11.70
701.66	30.43
701.79	42.13
701.93	0.00
702.06	0.00
702.19	32.77
702.32	11.70
702.46	86.60
702.59	25.75
702.72	0.00
702.85	32.77
702.99	16.38
703.12	60.85
703.25	0.00
703.38	86.60
703.51	95.96
703.65	42.13
703.78	72.56
703.91	37.45
704.04	0.00
704.17	128.73
704.31	0.00
704.44	46.81
704.57	65.54
704.70	14.04
704.83	0.00
704.96	18.72
705.10	44.47
705.23	0.00
>>>>>End Processed Spectral Data<<<<<
