SpectraSuite Data File
++++++++++++++++++++++++++++++++++++
Date: Fri Oct 04 12:13:29 GMT-05:00 2013
User: price-jones
Dark Spectrum Present: No
Reference Spectrum Present: No
Number of Sampled Component Spectra: 1
Spectrometers: USB2+H05261
Integration Time (usec): 10000 (USB2+H05261)
Spectra Averaged: 1 (USB2+H05261)
Boxcar Smoothing: 0 (USB2+H05261)
Correct for Electrical Dark: No (USB2+H05261)
Strobe/Lamp Enabled: No (USB2+H05261)
Correct for Detector Non-linearity: No (USB2+H05261)
Correct for Stray Light: No (USB2+H05261)
Number of Pixels in Processed Spectrum: 2048
>>>>>Begin Processed Spectral Data<<<<<
365.73	0.00
365.92	0.00
366.12	0.00
366.32	0.00
366.52	0.00
366.72	0.00
366.91	0.00
367.11	0.00
367.31	0.00
367.51	0.00
367.70	0.00
367.90	0.00
368.10	0.00
368.30	0.00
368.49	0.00
368.69	0.00
368.89	0.00
369.09	0.00
369.28	0.00
369.48	0.00
369.68	0.00
369.87	0.00
370.07	0.00
370.27	0.00
370.47	0.00
370.66	0.00
370.86	0.00
371.06	0.00
371.25	0.00
371.45	0.00
371.65	2.34
371.84	11.70
372.04	0.00
372.24	25.75
372.44	39.79
372.63	7.02
372.83	0.00
373.03	79.58
373.22	4.68
373.42	60.85
373.62	0.00
373.81	14.04
374.01	14.04
374.21	86.60
374.40	84.26
374.60	67.88
374.79	46.81
374.99	102.98
375.19	21.06
375.38	56.17
375.58	74.90
375.78	95.96
375.97	140.43
376.17	70.22
376.37	84.26
376.56	65.54
376.76	42.13
376.95	0.00
377.15	0.00
377.35	14.04
377.54	39.79
377.74	60.85
377.93	0.00
378.13	0.00
378.33	100.64
378.52	0.00
378.72	18.72
378.91	39.79
379.11	39.79
379.31	0.00
379.50	28.09
379.70	21.06
379.89	0.00
380.09	7.02
380.28	37.45
380.48	63.19
380.68	39.79
380.87	0.00
381.07	14.04
381.26	0.00
381.46	0.00
381.65	0.00
381.85	65.54
382.04	44.47
382.24	35.11
382.43	35.11
382.63	16.38
382.83	65.54
383.02	37.45
383.22	14.04
383.41	35.11
383.61	32.77
383.80	39.79
384.00	51.49
384.19	4.68
384.39	74.90
384.58	0.00
384.78	35.11
384.97	11.70
385.17	49.15
385.36	77.24
385.56	32.77
385.75	16.38
385.95	35.11
386.14	44.47
386.34	9.36
386.53	0.00
386.72	28.09
386.92	25.75
387.11	25.75
387.31	0.00
387.50	0.00
387.70	30.43
387.89	2.34
388.09	53.83
388.28	30.43
388.48	18.72
388.67	23.41
388.86	35.11
389.06	37.45
389.25	74.90
389.45	67.88
389.64	32.77
389.84	21.06
390.03	16.38
390.22	14.04
390.42	39.79
390.61	44.47
390.81	77.24
391.00	32.77
391.19	63.19
391.39	16.38
391.58	0.00
391.78	0.00
391.97	21.06
392.16	63.19
392.36	42.13
392.55	0.00
392.75	86.60
392.94	65.54
393.13	46.81
393.33	58.51
393.52	18.72
393.71	0.00
393.91	53.83
394.10	91.28
394.29	37.45
394.49	70.22
394.68	46.81
394.88	37.45
395.07	0.00
395.26	74.90
395.46	18.72
395.65	0.00
395.84	0.00
396.04	11.70
396.23	39.79
396.42	35.11
396.62	0.00
396.81	9.36
397.00	84.26
397.19	4.68
397.39	39.79
397.58	49.15
397.77	0.00
397.97	65.54
398.16	46.81
398.35	7.02
398.55	77.24
398.74	0.00
398.93	0.00
399.12	0.00
399.32	46.81
399.51	2.34
399.70	93.62
399.90	65.54
400.09	67.88
400.28	86.60
400.47	21.06
400.67	4.68
400.86	37.45
401.05	39.79
401.24	88.94
401.44	18.72
401.63	30.43
401.82	79.58
402.01	44.47
402.21	0.00
402.40	65.54
402.59	16.38
402.78	7.02
402.97	44.47
403.17	23.41
403.36	0.00
403.55	23.41
403.74	28.09
403.93	16.38
404.13	0.00
404.32	23.41
404.51	0.00
404.70	4.68
404.89	49.15
405.09	25.75
405.28	37.45
405.47	60.85
405.66	32.77
405.85	21.06
406.05	32.77
406.24	0.00
406.43	0.00
406.62	84.26
406.81	23.41
407.00	0.00
407.20	51.49
407.39	44.47
407.58	53.83
407.77	2.34
407.96	37.45
408.15	18.72
408.34	23.41
408.54	49.15
408.73	70.22
408.92	42.13
409.11	39.79
409.30	72.56
409.49	0.00
409.68	0.00
409.87	9.36
410.07	28.09
410.26	0.00
410.45	67.88
410.64	30.43
410.83	74.90
411.02	30.43
411.21	0.00
411.40	2.34
411.59	0.00
411.78	0.00
411.98	46.81
412.17	37.45
412.36	138.09
412.55	46.81
412.74	16.38
412.93	32.77
413.12	0.00
413.31	21.06
413.50	84.26
413.69	42.13
413.88	102.98
414.07	67.88
414.26	51.49
414.45	14.04
414.64	67.88
414.83	84.26
415.02	46.81
415.22	65.54
415.41	37.45
415.60	23.41
415.79	42.13
415.98	58.51
416.17	65.54
416.36	25.75
416.55	0.00
416.74	16.38
416.93	37.45
417.12	25.75
417.31	65.54
417.50	16.38
417.69	124.05
417.88	37.45
418.07	63.19
418.26	21.06
418.45	53.83
418.64	39.79
418.83	14.04
419.02	44.47
419.21	0.00
419.39	135.75
419.58	42.13
419.77	11.70
419.96	30.43
420.15	44.47
420.34	0.00
420.53	14.04
420.72	23.41
420.91	16.38
421.10	0.00
421.29	11.70
421.48	25.75
421.67	67.88
421.86	0.00
422.05	16.38
422.24	2.34
422.43	14.04
422.61	0.00
422.80	46.81
422.99	11.70
423.18	84.26
423.37	79.58
423.56	32.77
423.75	46.81
423.94	35.11
424.13	14.04
424.32	58.51
424.50	42.13
424.69	49.15
424.88	91.28
425.07	63.19
425.26	23.41
425.45	91.28
425.64	105.32
425.83	16.38
426.01	16.38
426.20	37.45
426.39	49.15
426.58	35.11
426.77	63.19
426.96	9.36
427.15	4.68
427.33	70.22
427.52	86.60
427.71	21.06
427.90	51.49
428.09	49.15
428.28	35.11
428.46	46.81
428.65	0.00
428.84	0.00
429.03	65.54
429.22	32.77
429.40	0.00
429.59	21.06
429.78	74.90
429.97	30.43
430.16	18.72
430.34	0.00
430.53	0.00
430.72	56.17
430.91	18.72
431.10	0.00
431.28	0.00
431.47	7.02
431.66	0.00
431.85	93.62
432.03	65.54
432.22	44.47
432.41	42.13
432.60	0.00
432.79	46.81
432.97	84.26
433.16	7.02
433.35	63.19
433.54	51.49
433.72	98.30
433.91	39.79
434.10	37.45
434.28	72.56
434.47	28.09
434.66	53.83
434.85	42.13
435.03	28.09
435.22	0.00
435.41	65.54
435.59	37.45
435.78	7.02
435.97	91.28
436.16	98.30
436.34	32.77
436.53	0.00
436.72	60.85
436.90	9.36
437.09	149.79
437.28	35.11
437.46	0.00
437.65	46.81
437.84	53.83
438.02	28.09
438.21	56.17
438.40	72.56
438.58	0.00
438.77	37.45
438.96	49.15
439.14	84.26
439.33	23.41
439.52	11.70
439.70	42.13
439.89	72.56
440.08	23.41
440.26	53.83
440.45	11.70
440.63	0.00
440.82	32.77
441.01	39.79
441.19	117.03
441.38	63.19
441.57	11.70
441.75	37.45
441.94	0.00
442.12	0.00
442.31	0.00
442.50	0.00
442.68	98.30
442.87	0.00
443.05	0.00
443.24	91.28
443.43	0.00
443.61	60.85
443.80	39.79
443.98	60.85
444.17	72.56
444.35	65.54
444.54	7.02
444.73	39.79
444.91	84.26
445.10	49.15
445.28	9.36
445.47	2.34
445.65	63.19
445.84	37.45
446.02	11.70
446.21	0.00
446.39	98.30
446.58	58.51
446.77	23.41
446.95	42.13
447.14	0.00
447.32	46.81
447.51	56.17
447.69	105.32
447.88	60.85
448.06	32.77
448.25	39.79
448.43	0.00
448.62	0.00
448.80	0.00
448.99	0.00
449.17	0.00
449.36	30.43
449.54	25.75
449.73	4.68
449.91	67.88
450.10	28.09
450.28	28.09
450.46	0.00
450.65	37.45
450.83	0.00
451.02	98.30
451.20	77.24
451.39	0.00
451.57	11.70
451.76	16.38
451.94	0.00
452.13	124.05
452.31	60.85
452.49	70.22
452.68	35.11
452.86	42.13
453.05	0.00
453.23	23.41
453.42	16.38
453.60	0.00
453.78	0.00
453.97	42.13
454.15	0.00
454.34	0.00
454.52	42.13
454.70	42.13
454.89	0.00
455.07	0.00
455.26	81.92
455.44	107.66
455.62	0.00
455.81	28.09
455.99	0.00
456.17	74.90
456.36	88.94
456.54	7.02
456.73	0.00
456.91	0.00
457.09	0.00
457.28	42.13
457.46	0.00
457.64	63.19
457.83	30.43
458.01	72.56
458.19	56.17
458.38	11.70
458.56	102.98
458.74	79.58
458.93	0.00
459.11	32.77
459.29	77.24
459.48	14.04
459.66	18.72
459.84	51.49
460.03	72.56
460.21	119.37
460.39	74.90
460.57	28.09
460.76	0.00
460.94	30.43
461.12	56.17
461.31	63.19
461.49	23.41
461.67	98.30
461.85	46.81
462.04	56.17
462.22	49.15
462.40	0.00
462.59	16.38
462.77	32.77
462.95	23.41
463.13	49.15
463.32	0.00
463.50	117.03
463.68	53.83
463.86	0.00
464.05	0.00
464.23	0.00
464.41	51.49
464.59	70.22
464.78	25.75
464.96	86.60
465.14	28.09
465.32	39.79
465.50	0.00
465.69	44.47
465.87	51.49
466.05	0.00
466.23	0.00
466.41	2.34
466.60	58.51
466.78	56.17
466.96	14.04
467.14	37.45
467.32	14.04
467.51	39.79
467.69	0.00
467.87	35.11
468.05	70.22
468.23	98.30
468.41	0.00
468.60	49.15
468.78	35.11
468.96	0.00
469.14	70.22
469.32	0.00
469.50	0.00
469.69	0.00
469.87	60.85
470.05	39.79
470.23	88.94
470.41	88.94
470.59	56.17
470.77	0.00
470.95	58.51
471.14	58.51
471.32	65.54
471.50	53.83
471.68	37.45
471.86	11.70
472.04	65.54
472.22	16.38
472.40	65.54
472.58	4.68
472.77	0.00
472.95	18.72
473.13	0.00
473.31	2.34
473.49	32.77
473.67	16.38
473.85	53.83
474.03	42.13
474.21	16.38
474.39	44.47
474.57	16.38
474.75	28.09
474.93	58.51
475.12	28.09
475.30	0.00
475.48	0.00
475.66	9.36
475.84	0.00
476.02	51.49
476.20	67.88
476.38	44.47
476.56	0.00
476.74	30.43
476.92	84.26
477.10	58.51
477.28	42.13
477.46	39.79
477.64	58.51
477.82	107.66
478.00	0.00
478.18	7.02
478.36	42.13
478.54	35.11
478.72	23.41
478.90	56.17
479.08	25.75
479.26	16.38
479.44	0.00
479.62	23.41
479.80	72.56
479.98	67.88
480.16	42.13
480.34	37.45
480.52	0.00
480.70	72.56
480.88	21.06
481.06	86.60
481.24	18.72
481.41	0.00
481.59	11.70
481.77	25.75
481.95	0.00
482.13	21.06
482.31	72.56
482.49	58.51
482.67	39.79
482.85	30.43
483.03	46.81
483.21	32.77
483.39	30.43
483.57	70.22
483.74	39.79
483.92	112.35
484.10	95.96
484.28	32.77
484.46	46.81
484.64	25.75
484.82	60.85
485.00	28.09
485.18	9.36
485.35	37.45
485.53	0.00
485.71	63.19
485.89	21.06
486.07	65.54
486.25	77.24
486.43	102.98
486.61	0.00
486.78	86.60
486.96	53.83
487.14	7.02
487.32	72.56
487.50	56.17
487.68	9.36
487.85	77.24
488.03	0.00
488.21	60.85
488.39	0.00
488.57	42.13
488.75	21.06
488.92	72.56
489.10	0.00
489.28	86.60
489.46	102.98
489.64	0.00
489.81	18.72
489.99	114.69
490.17	0.00
490.35	42.13
490.53	30.43
490.70	0.00
490.88	4.68
491.06	0.00
491.24	42.13
491.41	16.38
491.59	32.77
491.77	30.43
491.95	91.28
492.13	100.64
492.30	46.81
492.48	0.00
492.66	42.13
492.84	0.00
493.01	79.58
493.19	56.17
493.37	112.35
493.54	39.79
493.72	53.83
493.90	51.49
494.08	14.04
494.25	0.00
494.43	88.94
494.61	42.13
494.79	18.72
494.96	18.72
495.14	42.13
495.32	23.41
495.49	0.00
495.67	23.41
495.85	39.79
496.02	39.79
496.20	0.00
496.38	2.34
496.55	60.85
496.73	18.72
496.91	72.56
497.09	37.45
497.26	79.58
497.44	18.72
497.62	67.88
497.79	7.02
497.97	23.41
498.14	63.19
498.32	16.38
498.50	79.58
498.67	14.04
498.85	63.19
499.03	44.47
499.20	60.85
499.38	58.51
499.56	114.69
499.73	79.58
499.91	35.11
500.08	32.77
500.26	70.22
500.44	2.34
500.61	0.00
500.79	95.96
500.97	65.54
501.14	110.01
501.32	77.24
501.49	72.56
501.67	46.81
501.84	9.36
502.02	28.09
502.20	81.92
502.37	56.17
502.55	100.64
502.72	35.11
502.90	145.11
503.07	72.56
503.25	37.45
503.43	14.04
503.60	49.15
503.78	0.00
503.95	11.70
504.13	0.00
504.30	35.11
504.48	9.36
504.65	51.49
504.83	28.09
505.01	46.81
505.18	18.72
505.36	32.77
505.53	77.24
505.71	39.79
505.88	86.60
506.06	42.13
506.23	67.88
506.41	32.77
506.58	63.19
506.76	39.79
506.93	133.41
507.11	35.11
507.28	16.38
507.46	128.73
507.63	56.17
507.81	77.24
507.98	51.49
508.16	65.54
508.33	95.96
508.50	7.02
508.68	18.72
508.85	28.09
509.03	98.30
509.20	37.45
509.38	30.43
509.55	60.85
509.73	0.00
509.90	112.35
510.08	58.51
510.25	0.00
510.42	91.28
510.60	95.96
510.77	28.09
510.95	0.00
511.12	35.11
511.30	14.04
511.47	77.24
511.64	58.51
511.82	49.15
511.99	95.96
512.17	65.54
512.34	11.70
512.51	14.04
512.69	9.36
512.86	42.13
513.04	35.11
513.21	42.13
513.38	42.13
513.56	21.06
513.73	23.41
513.90	51.49
514.08	72.56
514.25	63.19
514.43	14.04
514.60	60.85
514.77	4.68
514.95	0.00
515.12	102.98
515.29	81.92
515.47	28.09
515.64	0.00
515.81	32.77
515.99	98.30
516.16	2.34
516.33	133.41
516.51	25.75
516.68	44.47
516.85	0.00
517.03	56.17
517.20	9.36
517.37	72.56
517.54	0.00
517.72	14.04
517.89	11.70
518.06	53.83
518.24	0.00
518.41	51.49
518.58	63.19
518.75	49.15
518.93	0.00
519.10	72.56
519.27	51.49
519.45	0.00
519.62	65.54
519.79	70.22
519.96	74.90
520.14	0.00
520.31	39.79
520.48	14.04
520.65	14.04
520.83	63.19
521.00	65.54
521.17	7.02
521.34	0.00
521.52	0.00
521.69	7.02
521.86	67.88
522.03	4.68
522.20	18.72
522.38	46.81
522.55	21.06
522.72	63.19
522.89	0.00
523.07	32.77
523.24	70.22
523.41	63.19
523.58	7.02
523.75	37.45
523.92	53.83
524.10	65.54
524.27	9.36
524.44	0.00
524.61	46.81
524.78	86.60
524.96	30.43
525.13	51.49
525.30	0.00
525.47	0.00
525.64	74.90
525.81	25.75
525.98	32.77
526.16	53.83
526.33	0.00
526.50	58.51
526.67	102.98
526.84	77.24
527.01	37.45
527.18	63.19
527.36	21.06
527.53	16.38
527.70	72.56
527.87	49.15
528.04	102.98
528.21	60.85
528.38	25.75
528.55	14.04
528.72	65.54
528.89	124.05
529.07	0.00
529.24	72.56
529.41	0.00
529.58	25.75
529.75	63.19
529.92	121.71
530.09	37.45
530.26	42.13
530.43	79.58
530.60	74.90
530.77	30.43
530.94	0.00
531.11	21.06
531.28	88.94
531.46	0.00
531.63	49.15
531.80	32.77
531.97	51.49
532.14	11.70
532.31	88.94
532.48	46.81
532.65	102.98
532.82	0.00
532.99	114.69
533.16	65.54
533.33	53.83
533.50	0.00
533.67	21.06
533.84	0.00
534.01	100.64
534.18	93.62
534.35	74.90
534.52	30.43
534.69	65.54
534.86	53.83
535.03	25.75
535.20	23.41
535.37	32.77
535.54	0.00
535.71	0.00
535.88	49.15
536.05	42.13
536.22	0.00
536.38	98.30
536.55	39.79
536.72	70.22
536.89	56.17
537.06	21.06
537.23	0.00
537.40	79.58
537.57	74.90
537.74	93.62
537.91	63.19
538.08	49.15
538.25	25.75
538.42	0.00
538.59	2.34
538.75	63.19
538.92	84.26
539.09	0.00
539.26	28.09
539.43	79.58
539.60	110.01
539.77	191.92
539.94	210.65
540.11	149.79
540.28	95.96
540.44	77.24
540.61	44.47
540.78	65.54
540.95	32.77
541.12	79.58
541.29	98.30
541.46	7.02
541.62	7.02
541.79	51.49
541.96	23.41
542.13	65.54
542.30	2.34
542.47	119.37
542.63	65.54
542.80	0.00
542.97	56.17
543.14	25.75
543.31	70.22
543.48	49.15
543.64	65.54
543.81	0.00
543.98	18.72
544.15	74.90
544.32	60.85
544.48	0.00
544.65	0.00
544.82	81.92
544.99	65.54
545.16	11.70
545.32	0.00
545.49	0.00
545.66	39.79
545.83	0.00
546.00	0.00
546.16	65.54
546.33	63.19
546.50	51.49
546.67	35.11
546.83	49.15
547.00	23.41
547.17	46.81
547.34	79.58
547.50	81.92
547.67	74.90
547.84	56.17
548.00	135.75
548.17	0.00
548.34	18.72
548.51	49.15
548.67	74.90
548.84	58.51
549.01	18.72
549.18	37.45
549.34	39.79
549.51	21.06
549.68	135.75
549.84	35.11
550.01	63.19
550.18	35.11
550.34	79.58
550.51	51.49
550.68	18.72
550.84	37.45
551.01	84.26
551.18	18.72
551.34	56.17
551.51	72.56
551.68	0.00
551.84	39.79
552.01	11.70
552.18	100.64
552.34	4.68
552.51	42.13
552.68	63.19
552.84	53.83
553.01	37.45
553.18	42.13
553.34	42.13
553.51	32.77
553.67	53.83
553.84	51.49
554.01	25.75
554.17	60.85
554.34	4.68
554.51	49.15
554.67	2.34
554.84	37.45
555.00	18.72
555.17	16.38
555.33	28.09
555.50	100.64
555.67	117.03
555.83	7.02
556.00	23.41
556.16	51.49
556.33	28.09
556.50	53.83
556.66	16.38
556.83	70.22
556.99	23.41
557.16	58.51
557.32	0.00
557.49	93.62
557.65	25.75
557.82	30.43
557.98	23.41
558.15	70.22
558.32	107.66
558.48	28.09
558.65	4.68
558.81	0.00
558.98	28.09
559.14	56.17
559.31	16.38
559.47	2.34
559.64	32.77
559.80	16.38
559.97	0.00
560.13	23.41
560.30	56.17
560.46	28.09
560.63	51.49
560.79	91.28
560.96	93.62
561.12	42.13
561.29	0.00
561.45	25.75
561.61	58.51
561.78	32.77
561.94	70.22
562.11	2.34
562.27	93.62
562.44	25.75
562.60	9.36
562.77	49.15
562.93	77.24
563.10	53.83
563.26	56.17
563.42	51.49
563.59	77.24
563.75	0.00
563.92	28.09
564.08	11.70
564.24	9.36
564.41	28.09
564.57	119.37
564.74	0.00
564.90	23.41
565.07	95.96
565.23	70.22
565.39	86.60
565.56	0.00
565.72	58.51
565.88	93.62
566.05	60.85
566.21	88.94
566.38	0.00
566.54	25.75
566.70	0.00
566.87	58.51
567.03	95.96
567.19	44.47
567.36	0.00
567.52	23.41
567.68	30.43
567.85	86.60
568.01	18.72
568.17	0.00
568.34	88.94
568.50	21.06
568.66	14.04
568.83	14.04
568.99	81.92
569.15	46.81
569.32	74.90
569.48	0.00
569.64	0.00
569.81	0.00
569.97	21.06
570.13	30.43
570.30	67.88
570.46	25.75
570.62	88.94
570.78	16.38
570.95	28.09
571.11	95.96
571.27	25.75
571.43	18.72
571.60	86.60
571.76	51.49
571.92	56.17
572.09	0.00
572.25	4.68
572.41	16.38
572.57	9.36
572.74	77.24
572.90	0.00
573.06	0.00
573.22	67.88
573.38	32.77
573.55	88.94
573.71	44.47
573.87	100.64
574.03	98.30
574.20	25.75
574.36	30.43
574.52	79.58
574.68	14.04
574.84	23.41
575.01	37.45
575.17	65.54
575.33	18.72
575.49	58.51
575.65	23.41
575.82	74.90
575.98	46.81
576.14	110.01
576.30	102.98
576.46	95.96
576.62	0.00
576.79	32.77
576.95	70.22
577.11	63.19
577.27	46.81
577.43	0.00
577.59	0.00
577.75	14.04
577.92	91.28
578.08	86.60
578.24	39.79
578.40	91.28
578.56	65.54
578.72	58.51
578.88	30.43
579.04	70.22
579.21	117.03
579.37	30.43
579.53	121.71
579.69	74.90
579.85	0.00
580.01	23.41
580.17	133.41
580.33	42.13
580.49	14.04
580.65	60.85
580.82	0.00
580.98	2.34
581.14	44.47
581.30	84.26
581.46	135.75
581.62	84.26
581.78	60.85
581.94	140.43
582.10	124.05
582.26	88.94
582.42	105.32
582.58	126.39
582.74	88.94
582.90	35.11
583.06	44.47
583.22	0.00
583.38	25.75
583.54	58.51
583.70	72.56
583.86	74.90
584.02	126.39
584.18	105.32
584.34	159.16
584.50	358.10
584.66	2544.16
584.82	6293.70
584.98	9062.55
585.14	7960.16
585.30	4975.98
585.46	2925.67
585.62	1846.68
585.78	858.98
585.94	360.44
586.10	229.37
586.26	39.79
586.42	110.01
586.58	102.98
586.74	86.60
586.90	95.96
587.06	128.73
587.22	107.66
587.38	70.22
587.54	177.88
587.70	397.89
587.86	634.29
588.02	650.67
588.18	428.32
588.34	362.78
588.49	259.80
588.65	191.92
588.81	35.11
588.97	72.56
589.13	7.02
589.29	28.09
589.45	91.28
589.61	58.51
589.77	11.70
589.93	91.28
590.08	7.02
590.24	77.24
590.40	63.19
590.56	65.54
590.72	2.34
590.88	81.92
591.04	21.06
591.20	100.64
591.35	119.37
591.51	49.15
591.67	63.19
591.83	67.88
591.99	2.34
592.15	46.81
592.31	46.81
592.46	95.96
592.62	88.94
592.78	35.11
592.94	95.96
593.10	39.79
593.26	0.00
593.41	60.85
593.57	105.32
593.73	102.98
593.89	327.68
594.05	873.02
594.20	1179.63
594.36	1205.38
594.52	763.01
594.68	524.28
594.84	304.27
594.99	285.55
595.15	140.43
595.31	72.56
595.47	0.00
595.62	51.49
595.78	107.66
595.94	77.24
596.10	21.06
596.25	51.49
596.41	65.54
596.57	23.41
596.73	21.06
596.88	119.37
597.04	152.13
597.20	327.68
597.36	379.17
597.51	257.46
597.67	163.84
597.83	114.69
597.99	44.47
598.14	58.51
598.30	79.58
598.46	30.43
598.61	149.79
598.77	0.00
598.93	35.11
599.09	81.92
599.24	60.85
599.40	53.83
599.56	49.15
599.71	67.88
599.87	4.68
600.03	63.19
600.18	39.79
600.34	67.88
600.50	67.88
600.65	16.38
600.81	7.02
600.97	21.06
601.12	67.88
601.28	74.90
601.44	35.11
601.59	11.70
601.75	140.43
601.91	42.13
602.06	124.05
602.22	37.45
602.37	42.13
602.53	210.65
602.69	332.36
602.84	248.10
603.00	231.71
603.16	241.08
603.31	142.77
603.47	149.79
603.62	91.28
603.78	67.88
603.94	81.92
604.09	77.24
604.25	37.45
604.40	51.49
604.56	0.00
604.71	60.85
604.87	88.94
605.03	0.00
605.18	14.04
605.34	37.45
605.49	14.04
605.65	58.51
605.80	32.77
605.96	25.75
606.12	91.28
606.27	60.85
606.43	93.62
606.58	23.41
606.74	140.43
606.89	313.63
607.05	732.59
607.20	976.00
607.36	753.65
607.51	557.05
607.67	379.17
607.82	220.01
607.98	100.64
608.13	74.90
608.29	112.35
608.44	39.79
608.60	7.02
608.75	0.00
608.91	159.16
609.06	554.71
609.22	1245.16
609.37	1701.57
609.53	1441.77
609.68	1020.47
609.84	638.97
609.99	526.62
610.15	276.18
610.30	110.01
610.46	117.03
610.61	11.70
610.76	21.06
610.92	0.00
611.07	35.11
611.23	0.00
611.38	0.00
611.54	65.54
611.69	110.01
611.84	51.49
612.00	95.96
612.15	112.35
612.31	98.30
612.46	117.03
612.62	84.26
612.77	98.30
612.92	112.35
613.08	102.98
613.23	70.22
613.39	49.15
613.54	81.92
613.69	554.71
613.85	1619.65
614.00	2427.14
614.15	2717.36
614.31	1874.77
614.46	1277.93
614.62	840.25
614.77	521.94
614.92	257.46
615.08	128.73
615.23	70.22
615.38	67.88
615.54	56.17
615.69	131.07
615.84	348.74
616.00	622.58
616.15	795.78
616.30	535.98
616.46	320.65
616.61	278.52
616.76	196.60
616.92	117.03
617.07	65.54
617.22	30.43
617.37	37.45
617.53	32.77
617.68	4.68
617.83	2.34
617.99	23.41
618.14	128.73
618.29	77.24
618.45	7.02
618.60	44.47
618.75	74.90
618.90	30.43
619.06	77.24
619.21	28.09
619.36	74.90
619.51	88.94
619.67	37.45
619.82	67.88
619.97	51.49
620.12	79.58
620.28	35.11
620.43	37.45
620.58	39.79
620.73	21.06
620.89	0.00
621.04	16.38
621.19	131.07
621.34	372.15
621.49	475.13
621.65	451.72
621.80	264.48
621.95	201.29
622.10	93.62
622.25	131.07
622.41	39.79
622.56	0.00
622.71	56.17
622.86	21.06
623.01	44.47
623.16	21.06
623.32	0.00
623.47	77.24
623.62	70.22
623.77	72.56
623.92	0.00
624.07	0.00
624.23	37.45
624.38	121.71
624.53	49.15
624.68	28.09
624.83	0.00
624.98	0.00
625.13	30.43
625.29	0.00
625.44	7.02
625.59	35.11
625.74	35.11
625.89	124.05
626.04	386.19
626.19	786.42
626.34	1296.66
626.49	1535.39
626.65	1069.62
626.80	774.72
626.95	561.73
627.10	355.76
627.25	147.45
627.40	60.85
627.55	86.60
627.70	84.26
627.85	14.04
628.00	0.00
628.15	60.85
628.30	9.36
628.45	79.58
628.60	0.00
628.76	44.47
628.91	35.11
629.06	79.58
629.21	37.45
629.36	30.43
629.51	0.00
629.66	32.77
629.81	44.47
629.96	107.66
630.11	308.95
630.26	416.62
630.41	344.06
630.56	273.84
630.71	187.24
630.86	159.16
631.01	79.58
631.16	65.54
631.31	25.75
631.46	53.83
631.61	11.70
631.76	44.47
631.91	14.04
632.06	35.11
632.21	18.72
632.36	0.00
632.51	65.54
632.66	77.24
632.81	224.69
632.96	458.74
633.10	807.48
633.25	1001.75
633.40	772.38
633.55	519.60
633.70	418.96
633.85	250.44
634.00	135.75
634.15	119.37
634.30	119.37
634.45	23.41
634.60	23.41
634.75	86.60
634.90	100.64
635.05	16.38
635.19	14.04
635.34	0.00
635.49	23.41
635.64	30.43
635.79	30.43
635.94	44.47
636.09	46.81
636.24	37.45
636.39	84.26
636.53	91.28
636.68	86.60
636.83	119.37
636.98	98.30
637.13	25.75
637.28	58.51
637.43	39.79
637.57	133.41
637.72	400.23
637.87	1086.01
638.02	1692.21
638.17	1879.45
638.32	1296.66
638.46	952.60
638.61	636.63
638.76	425.98
638.91	187.24
639.06	140.43
639.20	81.92
639.35	77.24
639.50	140.43
639.65	587.47
639.80	1544.75
639.94	2410.75
640.09	2731.41
640.24	2059.67
640.39	1401.98
640.54	950.26
640.68	615.56
640.83	360.44
640.98	124.05
641.13	65.54
641.27	91.28
641.42	91.28
641.57	105.32
641.72	56.17
641.86	28.09
642.01	102.98
642.16	74.90
642.31	53.83
642.45	72.56
642.60	77.24
642.75	7.02
642.90	23.41
643.04	30.43
643.19	44.47
643.34	32.77
643.48	93.62
643.63	0.00
643.78	25.75
643.93	30.43
644.07	4.68
644.22	51.49
644.37	28.09
644.51	0.00
644.66	56.17
644.81	11.70
644.95	131.07
645.10	74.90
645.25	0.00
645.39	0.00
645.54	60.85
645.69	112.35
645.83	37.45
645.98	84.26
646.13	28.09
646.27	72.56
646.42	18.72
646.57	35.11
646.71	56.17
646.86	67.88
647.00	67.88
647.15	23.41
647.30	56.17
647.44	56.17
647.59	74.90
647.74	51.49
647.88	0.00
648.03	9.36
648.17	60.85
648.32	58.51
648.47	63.19
648.61	95.96
648.76	16.38
648.90	86.60
649.05	39.79
649.20	0.00
649.34	67.88
649.49	126.39
649.63	25.75
649.78	81.92
649.92	53.83
650.07	243.42
650.21	720.88
650.36	1200.69
650.51	1401.98
650.65	1184.31
650.80	863.66
650.94	622.58
651.09	290.23
651.23	215.33
651.38	77.24
651.52	56.17
651.67	51.49
651.81	126.39
651.96	70.22
652.10	42.13
652.25	0.00
652.39	67.88
652.54	100.64
652.68	53.83
652.83	271.50
652.97	393.21
653.12	552.37
653.26	435.34
653.41	365.12
653.55	266.82
653.70	142.77
653.84	53.83
653.99	93.62
654.13	56.17
654.27	25.75
654.42	28.09
654.56	25.75
654.71	7.02
654.85	51.49
655.00	42.13
655.14	14.04
655.29	4.68
655.43	0.00
655.57	23.41
655.72	46.81
655.86	30.43
656.01	117.03
656.15	37.45
656.30	88.94
656.44	0.00
656.58	0.00
656.73	0.00
656.87	56.17
657.01	0.00
657.16	0.00
657.30	0.00
657.45	42.13
657.59	30.43
657.73	51.49
657.88	70.22
658.02	2.34
658.16	16.38
658.31	53.83
658.45	16.38
658.60	14.04
658.74	0.00
658.88	39.79
659.03	0.00
659.17	51.49
659.31	93.62
659.46	278.52
659.60	564.07
659.74	727.91
659.89	667.05
660.03	517.26
660.17	313.63
660.32	147.45
660.46	201.29
660.60	72.56
660.74	51.49
660.89	0.00
661.03	58.51
661.17	21.06
661.32	23.41
661.46	49.15
661.60	0.00
661.74	0.00
661.89	0.00
662.03	32.77
662.17	72.56
662.31	60.85
662.46	23.41
662.60	30.43
662.74	25.75
662.88	49.15
663.03	88.94
663.17	9.36
663.31	46.81
663.45	21.06
663.60	0.00
663.74	42.13
663.88	0.00
664.02	30.43
664.17	46.81
664.31	117.03
664.45	28.09
664.59	60.85
664.73	0.00
664.88	28.09
665.02	0.00
665.16	0.00
665.30	32.77
665.44	72.56
665.59	16.38
665.73	21.06
665.87	74.90
666.01	18.72
666.15	23.41
666.29	16.38
666.44	102.98
666.58	77.24
666.72	81.92
666.86	21.06
667.00	72.56
667.14	37.45
667.28	198.95
667.43	629.60
667.57	936.21
667.71	1345.81
667.85	1074.31
667.99	844.93
668.13	526.62
668.27	313.63
668.41	212.99
668.56	86.60
668.70	114.69
668.84	0.00
668.98	102.98
669.12	39.79
669.26	88.94
669.40	28.09
669.54	98.30
669.68	0.00
669.82	58.51
669.96	32.77
670.10	44.47
670.25	46.81
670.39	21.06
670.53	105.32
670.67	84.26
670.81	37.45
670.95	67.88
671.09	112.35
671.23	301.93
671.37	507.90
671.51	716.20
671.65	837.91
671.79	685.78
671.93	507.90
672.07	212.99
672.21	147.45
672.35	28.09
672.49	28.09
672.63	0.00
672.77	0.00
672.91	0.00
673.05	16.38
673.19	42.13
673.33	28.09
673.47	53.83
673.61	0.00
673.75	65.54
673.89	35.11
674.03	72.56
674.17	0.00
674.31	51.49
674.45	37.45
674.59	32.77
674.73	56.17
674.87	46.81
675.01	2.34
675.15	0.00
675.29	42.13
675.43	63.19
675.56	65.54
675.70	11.70
675.84	65.54
675.98	21.06
676.12	4.68
676.26	21.06
676.40	51.49
676.54	32.77
676.68	4.68
676.82	46.81
676.96	18.72
677.10	56.17
677.23	0.00
677.37	4.68
677.51	51.49
677.65	56.17
677.79	39.79
677.93	98.30
678.07	0.00
678.21	84.26
678.34	0.00
678.48	46.81
678.62	25.75
678.76	0.00
678.90	9.36
679.04	63.19
679.18	0.00
679.31	60.85
679.45	56.17
679.59	18.72
679.73	53.83
679.87	28.09
680.00	28.09
680.14	37.45
680.28	28.09
680.42	7.02
680.56	0.00
680.70	7.02
680.83	74.90
680.97	23.41
681.11	117.03
681.25	28.09
681.39	35.11
681.52	2.34
681.66	0.00
681.80	46.81
681.94	42.13
682.07	25.75
682.21	9.36
682.35	18.72
682.49	7.02
682.62	42.13
682.76	100.64
682.90	140.43
683.04	0.00
683.17	39.79
683.31	30.43
683.45	77.24
683.59	49.15
683.72	65.54
683.86	46.81
684.00	56.17
684.13	84.26
684.27	107.66
684.41	32.77
684.55	81.92
684.68	0.00
684.82	23.41
684.96	67.88
685.09	37.45
685.23	14.04
685.37	53.83
685.50	35.11
685.64	56.17
685.78	0.00
685.91	60.85
686.05	65.54
686.19	42.13
686.32	0.00
686.46	42.13
686.60	53.83
686.73	49.15
686.87	84.26
687.01	95.96
687.14	18.72
687.28	2.34
687.42	53.83
687.55	25.75
687.69	74.90
687.82	39.79
687.96	98.30
688.10	0.00
688.23	39.79
688.37	30.43
688.50	7.02
688.64	70.22
688.78	70.22
688.91	23.41
689.05	44.47
689.18	44.47
689.32	42.13
689.46	72.56
689.59	23.41
689.73	0.00
689.86	0.00
690.00	46.81
690.13	37.45
690.27	21.06
690.41	30.43
690.54	49.15
690.68	0.00
690.81	35.11
690.95	0.00
691.08	70.22
691.22	56.17
691.35	9.36
691.49	56.17
691.62	21.06
691.76	0.00
691.89	7.02
692.03	0.00
692.16	0.00
692.30	91.28
692.43	74.90
692.57	250.44
692.70	430.66
692.84	554.71
692.97	571.09
693.11	433.00
693.24	330.02
693.38	220.01
693.51	191.92
693.65	100.64
693.78	44.47
693.92	18.72
694.05	72.56
694.19	49.15
694.32	42.13
694.45	0.00
694.59	58.51
694.72	30.43
694.86	7.02
694.99	23.41
695.13	42.13
695.26	7.02
695.39	49.15
695.53	79.58
695.66	11.70
695.80	37.45
695.93	79.58
696.07	37.45
696.20	72.56
696.33	60.85
696.47	114.69
696.60	95.96
696.73	56.17
696.87	84.26
697.00	70.22
697.14	30.43
697.27	9.36
697.40	70.22
697.54	18.72
697.67	0.00
697.80	28.09
697.94	25.75
698.07	39.79
698.21	28.09
698.34	16.38
698.47	0.00
698.61	0.00
698.74	32.77
698.87	30.43
699.01	23.41
699.14	4.68
699.27	30.43
699.40	53.83
699.54	2.34
699.67	91.28
699.80	0.00
699.94	58.51
700.07	56.17
700.20	51.49
700.34	18.72
700.47	0.00
700.60	32.77
700.73	46.81
700.87	74.90
701.00	0.00
701.13	58.51
701.26	9.36
701.40	51.49
701.53	30.43
701.66	60.85
701.79	74.90
701.93	65.54
702.06	88.94
702.19	44.47
702.32	91.28
702.46	0.00
702.59	39.79
702.72	95.96
702.85	304.27
702.99	727.91
703.12	950.26
703.25	1057.92
703.38	896.43
703.51	779.40
703.65	603.86
703.78	425.98
703.91	301.93
704.04	131.07
704.17	81.92
704.31	140.43
704.44	37.45
704.57	58.51
704.70	65.54
704.83	44.47
704.96	60.85
705.10	21.06
705.23	35.11
>>>>>End Processed Spectral Data<<<<<
