SpectraSuite Data File
++++++++++++++++++++++++++++++++++++
Date: Fri Oct 04 11:51:07 GMT-05:00 2013
User: price-jones
Dark Spectrum Present: No
Reference Spectrum Present: No
Number of Sampled Component Spectra: 1
Spectrometers: USB2+H05261
Integration Time (usec): 100000 (USB2+H05261)
Spectra Averaged: 1 (USB2+H05261)
Boxcar Smoothing: 0 (USB2+H05261)
Correct for Electrical Dark: No (USB2+H05261)
Strobe/Lamp Enabled: No (USB2+H05261)
Correct for Detector Non-linearity: No (USB2+H05261)
Correct for Stray Light: No (USB2+H05261)
Number of Pixels in Processed Spectrum: 2048
>>>>>Begin Processed Spectral Data<<<<<
365.73	4.68
365.92	4.68
366.12	4.68
366.32	0.00
366.52	0.00
366.72	0.00
366.91	0.00
367.11	0.00
367.31	0.00
367.51	0.00
367.70	0.00
367.90	0.00
368.10	0.00
368.30	0.00
368.49	0.00
368.69	0.00
368.89	0.00
369.09	0.00
369.28	0.00
369.48	0.00
369.68	0.00
369.87	0.00
370.07	0.00
370.27	0.00
370.47	30.43
370.66	35.11
370.86	37.45
371.06	25.75
371.25	65.54
371.45	46.81
371.65	84.26
371.84	0.00
372.04	0.00
372.24	84.26
372.44	0.00
372.63	28.09
372.83	65.54
373.03	70.22
373.22	105.32
373.42	81.92
373.62	100.64
373.81	166.18
374.01	74.90
374.21	56.17
374.40	173.20
374.60	117.03
374.79	95.96
374.99	105.32
375.19	100.64
375.38	49.15
375.58	72.56
375.78	117.03
375.97	79.58
376.17	152.13
376.37	189.58
376.56	133.41
376.76	77.24
376.95	81.92
377.15	91.28
377.35	91.28
377.54	60.85
377.74	114.69
377.93	107.66
378.13	56.17
378.33	86.60
378.52	112.35
378.72	102.98
378.91	147.45
379.11	14.04
379.31	58.51
379.50	56.17
379.70	145.11
379.89	46.81
380.09	100.64
380.28	46.81
380.48	135.75
380.68	51.49
380.87	16.38
381.07	46.81
381.26	124.05
381.46	49.15
381.65	58.51
381.85	119.37
382.04	46.81
382.24	86.60
382.43	42.13
382.63	98.30
382.83	37.45
383.02	84.26
383.22	95.96
383.41	81.92
383.61	100.64
383.80	25.75
384.00	110.01
384.19	39.79
384.39	128.73
384.58	49.15
384.78	117.03
384.97	63.19
385.17	42.13
385.36	28.09
385.56	51.49
385.75	63.19
385.95	131.07
386.14	161.50
386.34	147.45
386.53	46.81
386.72	107.66
386.92	135.75
387.11	42.13
387.31	128.73
387.50	30.43
387.70	152.13
387.89	65.54
388.09	79.58
388.28	112.35
388.48	93.62
388.67	46.81
388.86	65.54
389.06	117.03
389.25	142.77
389.45	117.03
389.64	21.06
389.84	135.75
390.03	25.75
390.22	95.96
390.42	84.26
390.61	93.62
390.81	25.75
391.00	23.41
391.19	67.88
391.39	79.58
391.58	95.96
391.78	44.47
391.97	16.38
392.16	28.09
392.36	107.66
392.55	91.28
392.75	9.36
392.94	30.43
393.13	86.60
393.33	131.07
393.52	86.60
393.71	112.35
393.91	114.69
394.10	58.51
394.29	124.05
394.49	84.26
394.68	102.98
394.88	124.05
395.07	81.92
395.26	72.56
395.46	163.84
395.65	107.66
395.84	39.79
396.04	173.20
396.23	88.94
396.42	77.24
396.62	128.73
396.81	74.90
397.00	182.56
397.19	126.39
397.39	51.49
397.58	152.13
397.77	149.79
397.97	128.73
398.16	121.71
398.35	152.13
398.55	95.96
398.74	149.79
398.93	93.62
399.12	133.41
399.32	100.64
399.51	133.41
399.70	91.28
399.90	98.30
400.09	95.96
400.28	110.01
400.47	0.00
400.67	121.71
400.86	117.03
401.05	131.07
401.24	147.45
401.44	110.01
401.63	131.07
401.82	147.45
402.01	100.64
402.21	49.15
402.40	35.11
402.59	93.62
402.78	32.77
402.97	86.60
403.17	86.60
403.36	121.71
403.55	67.88
403.74	86.60
403.93	138.09
404.13	102.98
404.32	60.85
404.51	70.22
404.70	95.96
404.89	119.37
405.09	142.77
405.28	102.98
405.47	39.79
405.66	173.20
405.85	191.92
406.05	133.41
406.24	60.85
406.43	74.90
406.62	159.16
406.81	110.01
407.00	112.35
407.20	187.24
407.39	65.54
407.58	81.92
407.77	110.01
407.96	88.94
408.15	72.56
408.34	91.28
408.54	114.69
408.73	86.60
408.92	81.92
409.11	110.01
409.30	131.07
409.49	77.24
409.68	126.39
409.87	70.22
410.07	102.98
410.26	79.58
410.45	95.96
410.64	114.69
410.83	154.48
411.02	91.28
411.21	114.69
411.40	149.79
411.59	110.01
411.78	46.81
411.98	86.60
412.17	91.28
412.36	84.26
412.55	84.26
412.74	67.88
412.93	124.05
413.12	131.07
413.31	95.96
413.50	117.03
413.69	135.75
413.88	159.16
414.07	98.30
414.26	140.43
414.45	98.30
414.64	44.47
414.83	131.07
415.02	93.62
415.22	60.85
415.41	100.64
415.60	112.35
415.79	56.17
415.98	140.43
416.17	110.01
416.36	86.60
416.55	70.22
416.74	126.39
416.93	135.75
417.12	102.98
417.31	100.64
417.50	70.22
417.69	112.35
417.88	166.18
418.07	70.22
418.26	140.43
418.45	63.19
418.64	215.33
418.83	135.75
419.02	128.73
419.21	93.62
419.39	135.75
419.58	60.85
419.77	133.41
419.96	236.39
420.15	124.05
420.34	117.03
420.53	100.64
420.72	102.98
420.91	72.56
421.10	112.35
421.29	170.86
421.48	79.58
421.67	147.45
421.86	102.98
422.05	81.92
422.24	70.22
422.43	133.41
422.61	124.05
422.80	84.26
422.99	149.79
423.18	93.62
423.37	107.66
423.56	121.71
423.75	124.05
423.94	117.03
424.13	168.52
424.32	105.32
424.50	124.05
424.69	93.62
424.88	145.11
425.07	105.32
425.26	102.98
425.45	124.05
425.64	42.13
425.83	114.69
426.01	126.39
426.20	156.82
426.39	79.58
426.58	93.62
426.77	114.69
426.96	156.82
427.15	126.39
427.33	39.79
427.52	86.60
427.71	77.24
427.90	114.69
428.09	84.26
428.28	159.16
428.46	142.77
428.65	84.26
428.84	166.18
429.03	177.88
429.22	133.41
429.40	112.35
429.59	149.79
429.78	208.31
429.97	124.05
430.16	161.50
430.34	126.39
430.53	175.54
430.72	147.45
430.91	114.69
431.10	79.58
431.28	121.71
431.47	149.79
431.66	119.37
431.85	126.39
432.03	77.24
432.22	152.13
432.41	74.90
432.60	156.82
432.79	77.24
432.97	100.64
433.16	119.37
433.35	84.26
433.54	37.45
433.72	86.60
433.91	140.43
434.10	81.92
434.28	154.48
434.47	145.11
434.66	145.11
434.85	100.64
435.03	140.43
435.22	184.90
435.41	147.45
435.59	84.26
435.78	145.11
435.97	65.54
436.16	91.28
436.34	86.60
436.53	81.92
436.72	149.79
436.90	212.99
437.09	81.92
437.28	84.26
437.46	102.98
437.65	152.13
437.84	140.43
438.02	128.73
438.21	142.77
438.40	114.69
438.58	86.60
438.77	112.35
438.96	131.07
439.14	100.64
439.33	119.37
439.52	81.92
439.70	217.67
439.89	152.13
440.08	110.01
440.26	112.35
440.45	100.64
440.63	119.37
440.82	67.88
441.01	79.58
441.19	107.66
441.38	88.94
441.57	124.05
441.75	145.11
441.94	161.50
442.12	112.35
442.31	79.58
442.50	147.45
442.68	159.16
442.87	121.71
443.05	117.03
443.24	70.22
443.43	147.45
443.61	149.79
443.80	95.96
443.98	124.05
444.17	196.60
444.35	196.60
444.54	147.45
444.73	131.07
444.91	168.52
445.10	142.77
445.28	145.11
445.47	124.05
445.65	84.26
445.84	119.37
446.02	126.39
446.21	138.09
446.39	79.58
446.58	161.50
446.77	121.71
446.95	119.37
447.14	119.37
447.32	70.22
447.51	152.13
447.69	166.18
447.88	107.66
448.06	159.16
448.25	145.11
448.43	126.39
448.62	128.73
448.80	105.32
448.99	191.92
449.17	77.24
449.36	88.94
449.54	194.26
449.73	166.18
449.91	145.11
450.10	88.94
450.28	198.95
450.46	135.75
450.65	170.86
450.83	65.54
451.02	60.85
451.20	124.05
451.39	128.73
451.57	138.09
451.76	119.37
451.94	107.66
452.13	152.13
452.31	212.99
452.49	105.32
452.68	126.39
452.86	196.60
453.05	215.33
453.23	98.30
453.42	173.20
453.60	212.99
453.78	147.45
453.97	140.43
454.15	163.84
454.34	161.50
454.52	175.54
454.70	135.75
454.89	65.54
455.07	95.96
455.26	152.13
455.44	184.90
455.62	100.64
455.81	131.07
455.99	133.41
456.17	159.16
456.36	16.38
456.54	156.82
456.73	119.37
456.91	138.09
457.09	67.88
457.28	191.92
457.46	49.15
457.64	124.05
457.83	114.69
458.01	173.20
458.19	189.58
458.38	81.92
458.56	95.96
458.74	58.51
458.93	102.98
459.11	86.60
459.29	88.94
459.48	161.50
459.66	201.29
459.84	91.28
460.03	241.08
460.21	126.39
460.39	163.84
460.57	159.16
460.76	124.05
460.94	93.62
461.12	149.79
461.31	126.39
461.49	81.92
461.67	102.98
461.85	138.09
462.04	128.73
462.22	671.73
462.40	112.35
462.59	166.18
462.77	110.01
462.95	189.58
463.13	147.45
463.32	156.82
463.50	72.56
463.68	147.45
463.86	152.13
464.05	56.17
464.23	194.26
464.41	102.98
464.59	77.24
464.78	124.05
464.96	147.45
465.14	102.98
465.32	117.03
465.50	163.84
465.69	163.84
465.87	70.22
466.05	149.79
466.23	196.60
466.41	124.05
466.60	121.71
466.78	156.82
466.96	189.58
467.14	198.95
467.32	161.50
467.51	205.97
467.69	117.03
467.87	191.92
468.05	135.75
468.23	161.50
468.41	133.41
468.60	126.39
468.78	105.32
468.96	107.66
469.14	112.35
469.32	58.51
469.50	112.35
469.69	149.79
469.87	126.39
470.05	133.41
470.23	126.39
470.41	98.30
470.59	124.05
470.77	102.98
470.95	84.26
471.14	119.37
471.32	110.01
471.50	152.13
471.68	72.56
471.86	194.26
472.04	175.54
472.22	105.32
472.40	168.52
472.58	81.92
472.77	180.22
472.95	107.66
473.13	201.29
473.31	117.03
473.49	74.90
473.67	133.41
473.85	168.52
474.03	168.52
474.21	194.26
474.39	124.05
474.57	159.16
474.75	117.03
474.93	124.05
475.12	152.13
475.30	161.50
475.48	175.54
475.66	105.32
475.84	133.41
476.02	170.86
476.20	180.22
476.38	114.69
476.56	180.22
476.74	133.41
476.92	138.09
477.10	145.11
477.28	173.20
477.46	156.82
477.64	210.65
477.82	138.09
478.00	128.73
478.18	159.16
478.36	86.60
478.54	180.22
478.72	95.96
478.90	133.41
479.08	154.48
479.26	201.29
479.44	170.86
479.62	145.11
479.80	201.29
479.98	159.16
480.16	173.20
480.34	152.13
480.52	142.77
480.70	133.41
480.88	173.20
481.06	131.07
481.24	189.58
481.41	170.86
481.59	173.20
481.77	70.22
481.95	128.73
482.13	124.05
482.31	121.71
482.49	154.48
482.67	166.18
482.85	161.50
483.03	159.16
483.21	147.45
483.39	135.75
483.57	152.13
483.74	217.67
483.92	173.20
484.10	131.07
484.28	194.26
484.46	131.07
484.64	194.26
484.82	147.45
485.00	145.11
485.18	187.24
485.35	177.88
485.53	86.60
485.71	110.01
485.89	72.56
486.07	166.18
486.25	250.44
486.43	271.50
486.61	201.29
486.78	194.26
486.96	140.43
487.14	140.43
487.32	100.64
487.50	149.79
487.68	227.03
487.85	156.82
488.03	208.31
488.21	229.37
488.39	154.48
488.57	161.50
488.75	191.92
488.92	411.93
489.10	201.29
489.28	177.88
489.46	163.84
489.64	205.97
489.81	154.48
489.99	138.09
490.17	203.63
490.35	227.03
490.53	149.79
490.70	110.01
490.88	189.58
491.06	100.64
491.24	203.63
491.41	135.75
491.59	163.84
491.77	205.97
491.95	180.22
492.13	152.13
492.30	224.69
492.48	140.43
492.66	168.52
492.84	138.09
493.01	107.66
493.19	177.88
493.37	220.01
493.54	196.60
493.72	128.73
493.90	210.65
494.08	156.82
494.25	189.58
494.43	227.03
494.61	154.48
494.79	156.82
494.96	140.43
495.14	241.08
495.32	208.31
495.49	128.73
495.67	154.48
495.85	215.33
496.02	173.20
496.20	177.88
496.38	224.69
496.55	241.08
496.73	222.35
496.91	173.20
497.09	182.56
497.26	154.48
497.44	121.71
497.62	234.05
497.79	196.60
497.97	170.86
498.14	236.39
498.32	154.48
498.50	196.60
498.67	173.20
498.85	182.56
499.03	112.35
499.20	231.71
499.38	175.54
499.56	198.95
499.73	252.78
499.91	205.97
500.08	182.56
500.26	166.18
500.44	135.75
500.61	184.90
500.79	112.35
500.97	159.16
501.14	229.37
501.32	126.39
501.49	196.60
501.67	166.18
501.84	147.45
502.02	201.29
502.20	154.48
502.37	180.22
502.55	248.10
502.72	201.29
502.90	173.20
503.07	173.20
503.25	217.67
503.43	163.84
503.60	255.12
503.78	234.05
503.95	208.31
504.13	166.18
504.30	203.63
504.48	212.99
504.65	210.65
504.83	236.39
505.01	210.65
505.18	189.58
505.36	182.56
505.53	245.76
505.71	173.20
505.88	210.65
506.06	168.52
506.23	152.13
506.41	145.11
506.58	154.48
506.76	215.33
506.93	128.73
507.11	245.76
507.28	184.90
507.46	287.89
507.63	222.35
507.81	117.03
507.98	198.95
508.16	175.54
508.33	177.88
508.50	194.26
508.68	98.30
508.85	133.41
509.03	205.97
509.20	210.65
509.38	234.05
509.55	243.42
509.73	212.99
509.90	154.48
510.08	238.73
510.25	205.97
510.42	259.80
510.60	112.35
510.77	245.76
510.95	222.35
511.12	182.56
511.30	168.52
511.47	201.29
511.64	264.48
511.82	170.86
511.99	135.75
512.17	154.48
512.34	196.60
512.51	142.77
512.69	212.99
512.86	266.82
513.04	191.92
513.21	238.73
513.38	170.86
513.56	124.05
513.73	159.16
513.90	168.52
514.08	217.67
514.25	285.55
514.43	208.31
514.60	173.20
514.77	189.58
514.95	227.03
515.12	205.97
515.29	180.22
515.47	210.65
515.64	243.42
515.81	117.03
515.99	234.05
516.16	210.65
516.33	201.29
516.51	147.45
516.68	222.35
516.85	133.41
517.03	140.43
517.20	191.92
517.37	205.97
517.54	145.11
517.72	208.31
517.89	159.16
518.06	152.13
518.24	248.10
518.41	227.03
518.58	205.97
518.75	266.82
518.93	238.73
519.10	184.90
519.27	142.77
519.45	173.20
519.62	222.35
519.79	154.48
519.96	201.29
520.14	241.08
520.31	203.63
520.48	138.09
520.65	227.03
520.83	217.67
521.00	191.92
521.17	187.24
521.34	149.79
521.52	252.78
521.69	208.31
521.86	276.18
522.03	187.24
522.20	259.80
522.38	154.48
522.55	168.52
522.72	168.52
522.89	222.35
523.07	175.54
523.24	245.76
523.41	208.31
523.58	180.22
523.75	229.37
523.92	191.92
524.10	128.73
524.27	173.20
524.44	159.16
524.61	271.50
524.78	133.41
524.96	156.82
525.13	227.03
525.30	173.20
525.47	271.50
525.64	236.39
525.81	203.63
525.98	250.44
526.16	196.60
526.33	152.13
526.50	175.54
526.67	117.03
526.84	180.22
527.01	196.60
527.18	224.69
527.36	93.62
527.53	194.26
527.70	208.31
527.87	248.10
528.04	222.35
528.21	252.78
528.38	250.44
528.55	245.76
528.72	278.52
528.89	241.08
529.07	184.90
529.24	264.48
529.41	245.76
529.58	177.88
529.75	189.58
529.92	135.75
530.09	177.88
530.26	306.61
530.43	215.33
530.60	229.37
530.77	166.18
530.94	229.37
531.11	259.80
531.28	259.80
531.46	168.52
531.63	252.78
531.80	283.20
531.97	271.50
532.14	198.95
532.31	170.86
532.48	182.56
532.65	234.05
532.82	189.58
532.99	243.42
533.16	220.01
533.33	241.08
533.50	227.03
533.67	154.48
533.84	168.52
534.01	147.45
534.18	212.99
534.35	241.08
534.52	276.18
534.69	278.52
534.86	217.67
535.03	154.48
535.20	238.73
535.37	344.06
535.54	212.99
535.71	220.01
535.88	271.50
536.05	168.52
536.22	259.80
536.38	72.56
536.55	243.42
536.72	182.56
536.89	191.92
537.06	212.99
537.23	194.26
537.40	175.54
537.57	255.12
537.74	250.44
537.91	194.26
538.08	161.50
538.25	215.33
538.42	236.39
538.59	196.60
538.75	175.54
538.92	231.71
539.09	243.42
539.26	173.20
539.43	264.48
539.60	224.69
539.77	159.16
539.94	156.82
540.11	241.08
540.28	222.35
540.44	245.76
540.61	236.39
540.78	264.48
540.95	163.84
541.12	198.95
541.29	252.78
541.46	196.60
541.62	241.08
541.79	196.60
541.96	236.39
542.13	229.37
542.30	212.99
542.47	224.69
542.63	205.97
542.80	257.46
542.97	255.12
543.14	215.33
543.31	217.67
543.48	215.33
543.64	229.37
543.81	262.14
543.98	187.24
544.15	189.58
544.32	229.37
544.48	184.90
544.65	276.18
544.82	215.33
544.99	189.58
545.16	210.65
545.32	205.97
545.49	201.29
545.66	140.43
545.83	196.60
546.00	135.75
546.16	245.76
546.33	248.10
546.50	182.56
546.67	245.76
546.83	224.69
547.00	201.29
547.17	236.39
547.34	180.22
547.50	159.16
547.67	241.08
547.84	170.86
548.00	285.55
548.17	168.52
548.34	243.42
548.51	229.37
548.67	175.54
548.84	112.35
549.01	255.12
549.18	180.22
549.34	217.67
549.51	241.08
549.68	201.29
549.84	168.52
550.01	168.52
550.18	325.33
550.34	290.23
550.51	114.69
550.68	290.23
550.84	145.11
551.01	154.48
551.18	262.14
551.34	229.37
551.51	156.82
551.68	173.20
551.84	217.67
552.01	177.88
552.18	264.48
552.34	234.05
552.51	243.42
552.68	238.73
552.84	173.20
553.01	212.99
553.18	212.99
553.34	191.92
553.51	255.12
553.67	262.14
553.84	299.59
554.01	220.01
554.17	184.90
554.34	170.86
554.51	191.92
554.67	201.29
554.84	201.29
555.00	208.31
555.17	215.33
555.33	203.63
555.50	278.52
555.67	210.65
555.83	259.80
556.00	182.56
556.16	337.04
556.33	250.44
556.50	241.08
556.66	184.90
556.83	203.63
556.99	212.99
557.16	210.65
557.32	257.46
557.49	145.11
557.65	121.71
557.82	205.97
557.98	276.18
558.15	140.43
558.32	163.84
558.48	217.67
558.65	248.10
558.81	250.44
558.98	163.84
559.14	161.50
559.31	166.18
559.47	238.73
559.64	231.71
559.80	252.78
559.97	217.67
560.13	168.52
560.30	210.65
560.46	145.11
560.63	133.41
560.79	182.56
560.96	224.69
561.12	187.24
561.29	166.18
561.45	208.31
561.61	217.67
561.78	304.27
561.94	257.46
562.11	180.22
562.27	166.18
562.44	184.90
562.60	245.76
562.77	173.20
562.93	250.44
563.10	177.88
563.26	220.01
563.42	220.01
563.59	208.31
563.75	191.92
563.92	229.37
564.08	180.22
564.24	231.71
564.41	248.10
564.57	241.08
564.74	140.43
564.90	222.35
565.07	339.38
565.23	191.92
565.39	191.92
565.56	241.08
565.72	187.24
565.88	161.50
566.05	194.26
566.21	215.33
566.38	222.35
566.54	222.35
566.70	259.80
566.87	177.88
567.03	205.97
567.19	259.80
567.36	217.67
567.52	98.30
567.68	224.69
567.85	182.56
568.01	133.41
568.17	210.65
568.34	175.54
568.50	278.52
568.66	173.20
568.83	276.18
568.99	215.33
569.15	208.31
569.32	201.29
569.48	191.92
569.64	196.60
569.81	173.20
569.97	152.13
570.13	250.44
570.30	203.63
570.46	175.54
570.62	201.29
570.78	231.71
570.95	140.43
571.11	231.71
571.27	304.27
571.43	259.80
571.60	201.29
571.76	198.95
571.92	142.77
572.09	177.88
572.25	196.60
572.41	154.48
572.57	220.01
572.74	301.93
572.90	201.29
573.06	243.42
573.22	168.52
573.38	220.01
573.55	234.05
573.71	234.05
573.87	194.26
574.03	140.43
574.20	177.88
574.36	280.86
574.52	147.45
574.68	149.79
574.84	236.39
575.01	173.20
575.17	152.13
575.33	138.09
575.49	229.37
575.65	236.39
575.82	180.22
575.98	177.88
576.14	124.05
576.30	187.24
576.46	224.69
576.62	229.37
576.79	217.67
576.95	222.35
577.11	142.77
577.27	168.52
577.43	238.73
577.59	208.31
577.75	201.29
577.92	191.92
578.08	184.90
578.24	203.63
578.40	205.97
578.56	297.25
578.72	276.18
578.88	159.16
579.04	217.67
579.21	210.65
579.37	156.82
579.53	212.99
579.69	243.42
579.85	212.99
580.01	156.82
580.17	287.89
580.33	196.60
580.49	285.55
580.65	243.42
580.82	77.24
580.98	140.43
581.14	269.16
581.30	187.24
581.46	170.86
581.62	140.43
581.78	194.26
581.94	177.88
582.10	229.37
582.26	222.35
582.42	203.63
582.58	250.44
582.74	187.24
582.90	231.71
583.06	229.37
583.22	236.39
583.38	191.92
583.54	229.37
583.70	210.65
583.86	180.22
584.02	184.90
584.18	308.95
584.34	201.29
584.50	229.37
584.66	250.44
584.82	198.95
584.98	220.01
585.14	149.79
585.30	140.43
585.46	245.76
585.62	189.58
585.78	128.73
585.94	159.16
586.10	250.44
586.26	159.16
586.42	231.71
586.58	332.36
586.74	135.75
586.90	259.80
587.06	262.14
587.22	152.13
587.38	198.95
587.54	191.92
587.70	194.26
587.86	229.37
588.02	166.18
588.18	175.54
588.34	163.84
588.49	135.75
588.65	156.82
588.81	149.79
588.97	124.05
589.13	215.33
589.29	145.11
589.45	189.58
589.61	224.69
589.77	262.14
589.93	131.07
590.08	166.18
590.24	168.52
590.40	196.60
590.56	215.33
590.72	189.58
590.88	210.65
591.04	229.37
591.20	159.16
591.35	152.13
591.51	180.22
591.67	133.41
591.83	189.58
591.99	138.09
592.15	126.39
592.31	189.58
592.46	135.75
592.62	194.26
592.78	248.10
592.94	250.44
593.10	257.46
593.26	177.88
593.41	222.35
593.57	182.56
593.73	98.30
593.89	208.31
594.05	248.10
594.20	159.16
594.36	201.29
594.52	138.09
594.68	156.82
594.84	182.56
594.99	152.13
595.15	166.18
595.31	266.82
595.47	135.75
595.62	227.03
595.78	220.01
595.94	180.22
596.10	198.95
596.25	222.35
596.41	196.60
596.57	161.50
596.73	184.90
596.88	152.13
597.04	210.65
597.20	145.11
597.36	264.48
597.51	154.48
597.67	212.99
597.83	250.44
597.99	234.05
598.14	163.84
598.30	173.20
598.46	161.50
598.61	184.90
598.77	152.13
598.93	131.07
599.09	142.77
599.24	161.50
599.40	177.88
599.56	114.69
599.71	175.54
599.87	161.50
600.03	189.58
600.18	177.88
600.34	121.71
600.50	166.18
600.65	163.84
600.81	184.90
600.97	135.75
601.12	161.50
601.28	285.55
601.44	166.18
601.59	180.22
601.75	201.29
601.91	194.26
602.06	229.37
602.22	266.82
602.37	203.63
602.53	222.35
602.69	189.58
602.84	166.18
603.00	145.11
603.16	182.56
603.31	250.44
603.47	156.82
603.62	135.75
603.78	135.75
603.94	184.90
604.09	124.05
604.25	184.90
604.40	231.71
604.56	187.24
604.71	191.92
604.87	187.24
605.03	203.63
605.18	189.58
605.34	170.86
605.49	114.69
605.65	140.43
605.80	156.82
605.96	248.10
606.12	175.54
606.27	180.22
606.43	180.22
606.58	163.84
606.74	152.13
606.89	234.05
607.05	86.60
607.20	220.01
607.36	152.13
607.51	175.54
607.67	182.56
607.82	198.95
607.98	189.58
608.13	145.11
608.29	98.30
608.44	203.63
608.60	182.56
608.75	208.31
608.91	198.95
609.06	194.26
609.22	194.26
609.37	84.26
609.53	124.05
609.68	145.11
609.84	180.22
609.99	145.11
610.15	231.71
610.30	208.31
610.46	159.16
610.61	194.26
610.76	198.95
610.92	229.37
611.07	149.79
611.23	243.42
611.38	201.29
611.54	138.09
611.69	154.48
611.84	198.95
612.00	203.63
612.15	168.52
612.31	175.54
612.46	182.56
612.62	102.98
612.77	168.52
612.92	187.24
613.08	189.58
613.23	177.88
613.39	140.43
613.54	196.60
613.69	238.73
613.85	175.54
614.00	259.80
614.15	100.64
614.31	229.37
614.46	189.58
614.62	182.56
614.77	119.37
614.92	145.11
615.08	168.52
615.23	241.08
615.38	147.45
615.54	187.24
615.69	135.75
615.84	117.03
616.00	140.43
616.15	205.97
616.30	135.75
616.46	152.13
616.61	149.79
616.76	140.43
616.92	154.48
617.07	154.48
617.22	81.92
617.37	102.98
617.53	177.88
617.68	147.45
617.83	212.99
617.99	154.48
618.14	201.29
618.29	250.44
618.45	241.08
618.60	145.11
618.75	229.37
618.90	201.29
619.06	93.62
619.21	173.20
619.36	273.84
619.51	217.67
619.67	161.50
619.82	182.56
619.97	220.01
620.12	187.24
620.28	217.67
620.43	191.92
620.58	138.09
620.73	154.48
620.89	152.13
621.04	215.33
621.19	241.08
621.34	145.11
621.49	126.39
621.65	163.84
621.80	215.33
621.95	182.56
622.10	189.58
622.25	147.45
622.41	117.03
622.56	145.11
622.71	149.79
622.86	257.46
623.01	91.28
623.16	212.99
623.32	86.60
623.47	72.56
623.62	105.32
623.77	124.05
623.92	140.43
624.07	145.11
624.23	180.22
624.38	107.66
624.53	168.52
624.68	147.45
624.83	212.99
624.98	145.11
625.13	154.48
625.29	114.69
625.44	133.41
625.59	121.71
625.74	159.16
625.89	126.39
626.04	156.82
626.19	119.37
626.34	161.50
626.49	189.58
626.65	147.45
626.80	95.96
626.95	105.32
627.10	147.45
627.25	128.73
627.40	95.96
627.55	222.35
627.70	175.54
627.85	154.48
628.00	84.26
628.15	121.71
628.30	163.84
628.45	191.92
628.60	152.13
628.76	182.56
628.91	49.15
629.06	72.56
629.21	234.05
629.36	159.16
629.51	161.50
629.66	138.09
629.81	149.79
629.96	166.18
630.11	177.88
630.26	135.75
630.41	98.30
630.56	212.99
630.71	152.13
630.86	147.45
631.01	175.54
631.16	140.43
631.31	271.50
631.46	182.56
631.61	168.52
631.76	163.84
631.91	170.86
632.06	121.71
632.21	126.39
632.36	231.71
632.51	142.77
632.66	142.77
632.81	98.30
632.96	138.09
633.10	177.88
633.25	180.22
633.40	105.32
633.55	95.96
633.70	140.43
633.85	231.71
634.00	175.54
634.15	170.86
634.30	81.92
634.45	114.69
634.60	149.79
634.75	149.79
634.90	102.98
635.05	84.26
635.19	163.84
635.34	201.29
635.49	203.63
635.64	147.45
635.79	170.86
635.94	166.18
636.09	182.56
636.24	149.79
636.39	180.22
636.53	217.67
636.68	98.30
636.83	95.96
636.98	154.48
637.13	147.45
637.28	156.82
637.43	133.41
637.57	140.43
637.72	149.79
637.87	121.71
638.02	196.60
638.17	63.19
638.32	126.39
638.46	280.86
638.61	180.22
638.76	177.88
638.91	173.20
639.06	119.37
639.20	140.43
639.35	198.95
639.50	140.43
639.65	212.99
639.80	170.86
639.94	215.33
640.09	196.60
640.24	145.11
640.39	177.88
640.54	119.37
640.68	114.69
640.83	175.54
640.98	128.73
641.13	154.48
641.27	184.90
641.42	131.07
641.57	105.32
641.72	173.20
641.86	138.09
642.01	187.24
642.16	138.09
642.31	173.20
642.45	201.29
642.60	166.18
642.75	208.31
642.90	166.18
643.04	180.22
643.19	135.75
643.34	159.16
643.48	196.60
643.63	119.37
643.78	177.88
643.93	147.45
644.07	79.58
644.22	121.71
644.37	126.39
644.51	177.88
644.66	145.11
644.81	110.01
644.95	191.92
645.10	147.45
645.25	166.18
645.39	152.13
645.54	168.52
645.69	196.60
645.83	110.01
645.98	187.24
646.13	114.69
646.27	156.82
646.42	133.41
646.57	95.96
646.71	147.45
646.86	128.73
647.00	156.82
647.15	170.86
647.30	168.52
647.44	208.31
647.59	112.35
647.74	133.41
647.88	154.48
648.03	117.03
648.17	168.52
648.32	117.03
648.47	166.18
648.61	184.90
648.76	138.09
648.90	156.82
649.05	88.94
649.20	119.37
649.34	95.96
649.49	126.39
649.63	168.52
649.78	124.05
649.92	194.26
650.07	131.07
650.21	138.09
650.36	173.20
650.51	88.94
650.65	86.60
650.80	124.05
650.94	145.11
651.09	72.56
651.23	126.39
651.38	124.05
651.52	131.07
651.67	140.43
651.81	142.77
651.96	152.13
652.10	203.63
652.25	145.11
652.39	121.71
652.54	124.05
652.68	161.50
652.83	86.60
652.97	210.65
653.12	140.43
653.26	191.92
653.41	180.22
653.55	184.90
653.70	159.16
653.84	140.43
653.99	56.17
654.13	177.88
654.27	175.54
654.42	79.58
654.56	161.50
654.71	117.03
654.85	110.01
655.00	140.43
655.14	147.45
655.29	142.77
655.43	149.79
655.57	131.07
655.72	194.26
655.86	114.69
656.01	95.96
656.15	117.03
656.30	135.75
656.44	25.75
656.58	124.05
656.73	107.66
656.87	117.03
657.01	70.22
657.16	163.84
657.30	173.20
657.45	212.99
657.59	119.37
657.73	63.19
657.88	128.73
658.02	264.48
658.16	86.60
658.31	182.56
658.45	166.18
658.60	133.41
658.74	70.22
658.88	70.22
659.03	119.37
659.17	175.54
659.31	126.39
659.46	107.66
659.60	173.20
659.74	51.49
659.89	145.11
660.03	203.63
660.17	234.05
660.32	135.75
660.46	128.73
660.60	91.28
660.74	173.20
660.89	161.50
661.03	138.09
661.17	72.56
661.32	173.20
661.46	126.39
661.60	149.79
661.74	133.41
661.89	187.24
662.03	205.97
662.17	138.09
662.31	147.45
662.46	189.58
662.60	215.33
662.74	135.75
662.88	105.32
663.03	135.75
663.17	126.39
663.31	119.37
663.45	180.22
663.60	117.03
663.74	74.90
663.88	114.69
664.02	229.37
664.17	86.60
664.31	135.75
664.45	182.56
664.59	189.58
664.73	196.60
664.88	133.41
665.02	166.18
665.16	53.83
665.30	138.09
665.44	131.07
665.59	135.75
665.73	168.52
665.87	121.71
666.01	124.05
666.15	67.88
666.29	100.64
666.44	227.03
666.58	243.42
666.72	147.45
666.86	100.64
667.00	220.01
667.14	166.18
667.28	100.64
667.43	72.56
667.57	119.37
667.71	93.62
667.85	124.05
667.99	126.39
668.13	152.13
668.27	147.45
668.41	140.43
668.56	163.84
668.70	191.92
668.84	145.11
668.98	131.07
669.12	156.82
669.26	81.92
669.40	203.63
669.54	105.32
669.68	161.50
669.82	135.75
669.96	100.64
670.10	128.73
670.25	147.45
670.39	147.45
670.53	145.11
670.67	166.18
670.81	140.43
670.95	159.16
671.09	161.50
671.23	203.63
671.37	184.90
671.51	175.54
671.65	156.82
671.79	72.56
671.93	110.01
672.07	182.56
672.21	142.77
672.35	110.01
672.49	91.28
672.63	182.56
672.77	114.69
672.91	180.22
673.05	117.03
673.19	140.43
673.33	124.05
673.47	126.39
673.61	173.20
673.75	110.01
673.89	110.01
674.03	173.20
674.17	65.54
674.31	133.41
674.45	182.56
674.59	159.16
674.73	191.92
674.87	184.90
675.01	88.94
675.15	114.69
675.29	154.48
675.43	208.31
675.56	138.09
675.70	128.73
675.84	128.73
675.98	93.62
676.12	117.03
676.26	234.05
676.40	86.60
676.54	70.22
676.68	126.39
676.82	114.69
676.96	105.32
677.10	56.17
677.23	126.39
677.37	84.26
677.51	173.20
677.65	201.29
677.79	147.45
677.93	112.35
678.07	152.13
678.21	112.35
678.34	39.79
678.48	121.71
678.62	133.41
678.76	9.36
678.90	175.54
679.04	201.29
679.18	191.92
679.31	102.98
679.45	46.81
679.59	168.52
679.73	56.17
679.87	121.71
680.00	173.20
680.14	166.18
680.28	154.48
680.42	119.37
680.56	77.24
680.70	84.26
680.83	91.28
680.97	131.07
681.11	79.58
681.25	110.01
681.39	95.96
681.52	142.77
681.66	72.56
681.80	112.35
681.94	95.96
682.07	163.84
682.21	112.35
682.35	102.98
682.49	177.88
682.62	124.05
682.76	107.66
682.90	93.62
683.04	107.66
683.17	133.41
683.31	102.98
683.45	194.26
683.59	170.86
683.72	189.58
683.86	154.48
684.00	81.92
684.13	210.65
684.27	117.03
684.41	189.58
684.55	140.43
684.68	98.30
684.82	53.83
684.96	98.30
685.09	182.56
685.23	77.24
685.37	16.38
685.50	88.94
685.64	149.79
685.78	105.32
685.91	149.79
686.05	159.16
686.19	70.22
686.32	140.43
686.46	147.45
686.60	81.92
686.73	86.60
686.87	81.92
687.01	112.35
687.14	119.37
687.28	65.54
687.42	93.62
687.55	100.64
687.69	166.18
687.82	79.58
687.96	119.37
688.10	161.50
688.23	114.69
688.37	154.48
688.50	124.05
688.64	173.20
688.78	95.96
688.91	121.71
689.05	117.03
689.18	95.96
689.32	112.35
689.46	67.88
689.59	147.45
689.73	65.54
689.86	77.24
690.00	81.92
690.13	51.49
690.27	39.79
690.41	44.47
690.54	145.11
690.68	102.98
690.81	147.45
690.95	88.94
691.08	128.73
691.22	173.20
691.35	86.60
691.49	63.19
691.62	79.58
691.76	107.66
691.89	198.95
692.03	121.71
692.16	44.47
692.30	102.98
692.43	133.41
692.57	98.30
692.70	105.32
692.84	133.41
692.97	70.22
693.11	98.30
693.24	147.45
693.38	56.17
693.51	23.41
693.65	117.03
693.78	74.90
693.92	133.41
694.05	88.94
694.19	98.30
694.32	114.69
694.45	124.05
694.59	102.98
694.72	114.69
694.86	107.66
694.99	154.48
695.13	131.07
695.26	72.56
695.39	128.73
695.53	159.16
695.66	168.52
695.80	133.41
695.93	100.64
696.07	119.37
696.20	70.22
696.33	70.22
696.47	42.13
696.60	105.32
696.73	133.41
696.87	86.60
697.00	189.58
697.14	105.32
697.27	133.41
697.40	121.71
697.54	35.11
697.67	51.49
697.80	102.98
697.94	0.00
698.07	121.71
698.21	51.49
698.34	112.35
698.47	91.28
698.61	86.60
698.74	180.22
698.87	154.48
699.01	86.60
699.14	131.07
699.27	117.03
699.40	201.29
699.54	145.11
699.67	135.75
699.80	79.58
699.94	184.90
700.07	156.82
700.20	128.73
700.34	133.41
700.47	53.83
700.60	112.35
700.73	95.96
700.87	177.88
701.00	135.75
701.13	58.51
701.26	168.52
701.40	138.09
701.53	93.62
701.66	81.92
701.79	58.51
701.93	98.30
702.06	126.39
702.19	81.92
702.32	220.01
702.46	37.45
702.59	84.26
702.72	86.60
702.85	168.52
702.99	77.24
703.12	102.98
703.25	77.24
703.38	65.54
703.51	72.56
703.65	114.69
703.78	49.15
703.91	114.69
704.04	203.63
704.17	133.41
704.31	28.09
704.44	35.11
704.57	100.64
704.70	105.32
704.83	79.58
704.96	72.56
705.10	121.71
705.23	107.66
>>>>>End Processed Spectral Data<<<<<
