SpectraSuite Data File
++++++++++++++++++++++++++++++++++++
Date: Fri Oct 04 11:51:08 GMT-05:00 2013
User: price-jones
Dark Spectrum Present: No
Reference Spectrum Present: No
Number of Sampled Component Spectra: 1
Spectrometers: USB2+H05261
Integration Time (usec): 100000 (USB2+H05261)
Spectra Averaged: 1 (USB2+H05261)
Boxcar Smoothing: 0 (USB2+H05261)
Correct for Electrical Dark: No (USB2+H05261)
Strobe/Lamp Enabled: No (USB2+H05261)
Correct for Detector Non-linearity: No (USB2+H05261)
Correct for Stray Light: No (USB2+H05261)
Number of Pixels in Processed Spectrum: 2048
>>>>>Begin Processed Spectral Data<<<<<
365.73	0.00
365.92	0.00
366.12	0.00
366.32	0.00
366.52	0.00
366.72	0.00
366.91	0.00
367.11	0.00
367.31	0.00
367.51	0.00
367.70	0.00
367.90	0.00
368.10	0.00
368.30	0.00
368.49	0.00
368.69	0.00
368.89	0.00
369.09	0.00
369.28	0.00
369.48	0.00
369.68	0.00
369.87	0.00
370.07	0.00
370.27	0.00
370.47	0.00
370.66	0.00
370.86	77.24
371.06	51.49
371.25	28.09
371.45	16.38
371.65	42.13
371.84	18.72
372.04	25.75
372.24	107.66
372.44	25.75
372.63	42.13
372.83	138.09
373.03	67.88
373.22	42.13
373.42	93.62
373.62	84.26
373.81	112.35
374.01	107.66
374.21	145.11
374.40	163.84
374.60	79.58
374.79	117.03
374.99	102.98
375.19	112.35
375.38	98.30
375.58	35.11
375.78	35.11
375.97	93.62
376.17	102.98
376.37	117.03
376.56	30.43
376.76	58.51
376.95	91.28
377.15	84.26
377.35	121.71
377.54	98.30
377.74	112.35
377.93	0.00
378.13	117.03
378.33	138.09
378.52	84.26
378.72	149.79
378.91	170.86
379.11	67.88
379.31	32.77
379.50	67.88
379.70	95.96
379.89	131.07
380.09	58.51
380.28	119.37
380.48	44.47
380.68	60.85
380.87	0.00
381.07	44.47
381.26	156.82
381.46	105.32
381.65	49.15
381.85	102.98
382.04	98.30
382.24	107.66
382.43	166.18
382.63	93.62
382.83	51.49
383.02	21.06
383.22	135.75
383.41	117.03
383.61	110.01
383.80	37.45
384.00	25.75
384.19	81.92
384.39	138.09
384.58	102.98
384.78	154.48
384.97	74.90
385.17	21.06
385.36	133.41
385.56	93.62
385.75	72.56
385.95	124.05
386.14	93.62
386.34	152.13
386.53	131.07
386.72	86.60
386.92	98.30
387.11	140.43
387.31	112.35
387.50	16.38
387.70	70.22
387.89	100.64
388.09	121.71
388.28	70.22
388.48	37.45
388.67	114.69
388.86	42.13
389.06	110.01
389.25	149.79
389.45	98.30
389.64	163.84
389.84	184.90
390.03	49.15
390.22	112.35
390.42	86.60
390.61	145.11
390.81	39.79
391.00	91.28
391.19	140.43
391.39	74.90
391.58	70.22
391.78	117.03
391.97	77.24
392.16	112.35
392.36	100.64
392.55	79.58
392.75	46.81
392.94	135.75
393.13	70.22
393.33	60.85
393.52	51.49
393.71	112.35
393.91	124.05
394.10	37.45
394.29	67.88
394.49	135.75
394.68	51.49
394.88	124.05
395.07	126.39
395.26	30.43
395.46	91.28
395.65	128.73
395.84	16.38
396.04	140.43
396.23	100.64
396.42	119.37
396.62	44.47
396.81	124.05
397.00	110.01
397.19	93.62
397.39	105.32
397.58	161.50
397.77	147.45
397.97	51.49
398.16	95.96
398.35	124.05
398.55	37.45
398.74	74.90
398.93	126.39
399.12	65.54
399.32	131.07
399.51	74.90
399.70	67.88
399.90	63.19
400.09	60.85
400.28	119.37
400.47	63.19
400.67	117.03
400.86	63.19
401.05	93.62
401.24	79.58
401.44	102.98
401.63	142.77
401.82	105.32
402.01	0.00
402.21	131.07
402.40	173.20
402.59	124.05
402.78	63.19
402.97	147.45
403.17	67.88
403.36	117.03
403.55	72.56
403.74	124.05
403.93	105.32
404.13	93.62
404.32	53.83
404.51	131.07
404.70	117.03
404.89	121.71
405.09	102.98
405.28	58.51
405.47	105.32
405.66	110.01
405.85	175.54
406.05	140.43
406.24	133.41
406.43	65.54
406.62	30.43
406.81	250.44
407.00	154.48
407.20	30.43
407.39	126.39
407.58	149.79
407.77	126.39
407.96	149.79
408.15	32.77
408.34	30.43
408.54	100.64
408.73	149.79
408.92	53.83
409.11	184.90
409.30	170.86
409.49	131.07
409.68	95.96
409.87	72.56
410.07	98.30
410.26	60.85
410.45	166.18
410.64	110.01
410.83	124.05
411.02	170.86
411.21	126.39
411.40	84.26
411.59	63.19
411.78	140.43
411.98	114.69
412.17	42.13
412.36	79.58
412.55	110.01
412.74	128.73
412.93	121.71
413.12	70.22
413.31	182.56
413.50	175.54
413.69	107.66
413.88	126.39
414.07	51.49
414.26	126.39
414.45	70.22
414.64	70.22
414.83	124.05
415.02	95.96
415.22	154.48
415.41	107.66
415.60	93.62
415.79	56.17
415.98	166.18
416.17	84.26
416.36	56.17
416.55	191.92
416.74	168.52
416.93	163.84
417.12	145.11
417.31	65.54
417.50	119.37
417.69	100.64
417.88	131.07
418.07	107.66
418.26	133.41
418.45	51.49
418.64	105.32
418.83	173.20
419.02	110.01
419.21	102.98
419.39	23.41
419.58	16.38
419.77	98.30
419.96	86.60
420.15	126.39
420.34	91.28
420.53	60.85
420.72	154.48
420.91	63.19
421.10	131.07
421.29	93.62
421.48	72.56
421.67	23.41
421.86	126.39
422.05	166.18
422.24	58.51
422.43	128.73
422.61	138.09
422.80	173.20
422.99	170.86
423.18	65.54
423.37	142.77
423.56	133.41
423.75	135.75
423.94	121.71
424.13	154.48
424.32	201.29
424.50	117.03
424.69	145.11
424.88	84.26
425.07	77.24
425.26	93.62
425.45	166.18
425.64	79.58
425.83	126.39
426.01	142.77
426.20	110.01
426.39	46.81
426.58	142.77
426.77	95.96
426.96	114.69
427.15	74.90
427.33	88.94
427.52	70.22
427.71	124.05
427.90	95.96
428.09	74.90
428.28	98.30
428.46	100.64
428.65	98.30
428.84	168.52
429.03	140.43
429.22	100.64
429.40	119.37
429.59	117.03
429.78	149.79
429.97	16.38
430.16	102.98
430.34	128.73
430.53	51.49
430.72	93.62
430.91	170.86
431.10	166.18
431.28	112.35
431.47	126.39
431.66	175.54
431.85	114.69
432.03	159.16
432.22	138.09
432.41	112.35
432.60	91.28
432.79	86.60
432.97	142.77
433.16	126.39
433.35	77.24
433.54	60.85
433.72	135.75
433.91	126.39
434.10	177.88
434.28	56.17
434.47	86.60
434.66	147.45
434.85	58.51
435.03	149.79
435.22	126.39
435.41	173.20
435.59	220.01
435.78	74.90
435.97	124.05
436.16	117.03
436.34	67.88
436.53	51.49
436.72	119.37
436.90	117.03
437.09	152.13
437.28	21.06
437.46	149.79
437.65	126.39
437.84	170.86
438.02	152.13
438.21	124.05
438.40	84.26
438.58	37.45
438.77	124.05
438.96	102.98
439.14	88.94
439.33	135.75
439.52	128.73
439.70	170.86
439.89	133.41
440.08	28.09
440.26	166.18
440.45	194.26
440.63	175.54
440.82	145.11
441.01	72.56
441.19	194.26
441.38	128.73
441.57	142.77
441.75	142.77
441.94	250.44
442.12	166.18
442.31	147.45
442.50	105.32
442.68	212.99
442.87	173.20
443.05	74.90
443.24	77.24
443.43	266.82
443.61	110.01
443.80	152.13
443.98	60.85
444.17	112.35
444.35	149.79
444.54	161.50
444.73	149.79
444.91	114.69
445.10	112.35
445.28	53.83
445.47	98.30
445.65	110.01
445.84	198.95
446.02	124.05
446.21	133.41
446.39	142.77
446.58	173.20
446.77	147.45
446.95	84.26
447.14	142.77
447.32	208.31
447.51	156.82
447.69	133.41
447.88	198.95
448.06	67.88
448.25	135.75
448.43	138.09
448.62	86.60
448.80	112.35
448.99	168.52
449.17	220.01
449.36	63.19
449.54	126.39
449.73	163.84
449.91	124.05
450.10	138.09
450.28	152.13
450.46	107.66
450.65	124.05
450.83	128.73
451.02	198.95
451.20	191.92
451.39	81.92
451.57	142.77
451.76	98.30
451.94	138.09
452.13	149.79
452.31	184.90
452.49	152.13
452.68	42.13
452.86	105.32
453.05	98.30
453.23	159.16
453.42	140.43
453.60	121.71
453.78	194.26
453.97	18.72
454.15	149.79
454.34	180.22
454.52	170.86
454.70	173.20
454.89	110.01
455.07	156.82
455.26	163.84
455.44	187.24
455.62	140.43
455.81	67.88
455.99	191.92
456.17	180.22
456.36	112.35
456.54	131.07
456.73	177.88
456.91	180.22
457.09	161.50
457.28	119.37
457.46	131.07
457.64	159.16
457.83	107.66
458.01	131.07
458.19	74.90
458.38	105.32
458.56	135.75
458.74	140.43
458.93	145.11
459.11	25.75
459.29	140.43
459.48	224.69
459.66	187.24
459.84	98.30
460.03	280.86
460.21	161.50
460.39	105.32
460.57	152.13
460.76	126.39
460.94	236.39
461.12	81.92
461.31	173.20
461.49	37.45
461.67	149.79
461.85	131.07
462.04	149.79
462.22	615.56
462.40	163.84
462.59	154.48
462.77	131.07
462.95	145.11
463.13	147.45
463.32	147.45
463.50	166.18
463.68	121.71
463.86	119.37
464.05	126.39
464.23	156.82
464.41	187.24
464.59	121.71
464.78	166.18
464.96	32.77
465.14	159.16
465.32	149.79
465.50	81.92
465.69	205.97
465.87	79.58
466.05	147.45
466.23	102.98
466.41	121.71
466.60	170.86
466.78	131.07
466.96	184.90
467.14	98.30
467.32	184.90
467.51	161.50
467.69	173.20
467.87	173.20
468.05	184.90
468.23	156.82
468.41	126.39
468.60	117.03
468.78	124.05
468.96	126.39
469.14	98.30
469.32	79.58
469.50	58.51
469.69	156.82
469.87	182.56
470.05	163.84
470.23	133.41
470.41	107.66
470.59	77.24
470.77	86.60
470.95	128.73
471.14	168.52
471.32	163.84
471.50	124.05
471.68	152.13
471.86	93.62
472.04	163.84
472.22	133.41
472.40	133.41
472.58	149.79
472.77	72.56
472.95	142.77
473.13	163.84
473.31	170.86
473.49	152.13
473.67	149.79
473.85	196.60
474.03	175.54
474.21	156.82
474.39	189.58
474.57	203.63
474.75	126.39
474.93	98.30
475.12	117.03
475.30	161.50
475.48	138.09
475.66	105.32
475.84	184.90
476.02	184.90
476.20	184.90
476.38	58.51
476.56	257.46
476.74	163.84
476.92	182.56
477.10	135.75
477.28	201.29
477.46	152.13
477.64	252.78
477.82	93.62
478.00	161.50
478.18	201.29
478.36	187.24
478.54	189.58
478.72	159.16
478.90	227.03
479.08	187.24
479.26	135.75
479.44	145.11
479.62	100.64
479.80	60.85
479.98	105.32
480.16	161.50
480.34	166.18
480.52	142.77
480.70	152.13
480.88	166.18
481.06	95.96
481.24	56.17
481.41	135.75
481.59	145.11
481.77	175.54
481.95	114.69
482.13	110.01
482.31	175.54
482.49	187.24
482.67	121.71
482.85	205.97
483.03	133.41
483.21	140.43
483.39	156.82
483.57	194.26
483.74	140.43
483.92	187.24
484.10	173.20
484.28	210.65
484.46	156.82
484.64	168.52
484.82	142.77
485.00	114.69
485.18	159.16
485.35	182.56
485.53	74.90
485.71	159.16
485.89	79.58
486.07	189.58
486.25	243.42
486.43	217.67
486.61	177.88
486.78	173.20
486.96	173.20
487.14	147.45
487.32	131.07
487.50	175.54
487.68	191.92
487.85	105.32
488.03	72.56
488.21	203.63
488.39	220.01
488.57	194.26
488.75	133.41
488.92	472.79
489.10	156.82
489.28	180.22
489.46	112.35
489.64	133.41
489.81	191.92
489.99	140.43
490.17	255.12
490.35	252.78
490.53	248.10
490.70	227.03
490.88	168.52
491.06	133.41
491.24	241.08
491.41	231.71
491.59	138.09
491.77	163.84
491.95	177.88
492.13	133.41
492.30	194.26
492.48	149.79
492.66	208.31
492.84	205.97
493.01	189.58
493.19	138.09
493.37	231.71
493.54	227.03
493.72	241.08
493.90	128.73
494.08	184.90
494.25	159.16
494.43	154.48
494.61	198.95
494.79	205.97
494.96	168.52
495.14	175.54
495.32	182.56
495.49	252.78
495.67	110.01
495.85	166.18
496.02	114.69
496.20	222.35
496.38	187.24
496.55	187.24
496.73	154.48
496.91	182.56
497.09	243.42
497.26	159.16
497.44	168.52
497.62	149.79
497.79	156.82
497.97	198.95
498.14	215.33
498.32	166.18
498.50	180.22
498.67	173.20
498.85	189.58
499.03	212.99
499.20	170.86
499.38	95.96
499.56	154.48
499.73	201.29
499.91	210.65
500.08	252.78
500.26	149.79
500.44	177.88
500.61	149.79
500.79	238.73
500.97	182.56
501.14	205.97
501.32	191.92
501.49	180.22
501.67	170.86
501.84	142.77
502.02	210.65
502.20	184.90
502.37	149.79
502.55	91.28
502.72	112.35
502.90	196.60
503.07	215.33
503.25	227.03
503.43	177.88
503.60	248.10
503.78	114.69
503.95	163.84
504.13	163.84
504.30	229.37
504.48	250.44
504.65	203.63
504.83	145.11
505.01	168.52
505.18	215.33
505.36	191.92
505.53	201.29
505.71	124.05
505.88	126.39
506.06	133.41
506.23	126.39
506.41	191.92
506.58	182.56
506.76	152.13
506.93	142.77
507.11	227.03
507.28	224.69
507.46	180.22
507.63	170.86
507.81	149.79
507.98	210.65
508.16	152.13
508.33	189.58
508.50	217.67
508.68	224.69
508.85	184.90
509.03	161.50
509.20	210.65
509.38	208.31
509.55	194.26
509.73	180.22
509.90	276.18
510.08	161.50
510.25	229.37
510.42	208.31
510.60	196.60
510.77	229.37
510.95	259.80
511.12	215.33
511.30	215.33
511.47	220.01
511.64	236.39
511.82	182.56
511.99	222.35
512.17	212.99
512.34	121.71
512.51	203.63
512.69	173.20
512.86	269.16
513.04	166.18
513.21	255.12
513.38	201.29
513.56	234.05
513.73	149.79
513.90	133.41
514.08	210.65
514.25	203.63
514.43	154.48
514.60	145.11
514.77	168.52
514.95	128.73
515.12	238.73
515.29	201.29
515.47	220.01
515.64	163.84
515.81	234.05
515.99	224.69
516.16	220.01
516.33	191.92
516.51	252.78
516.68	128.73
516.85	255.12
517.03	159.16
517.20	234.05
517.37	163.84
517.54	215.33
517.72	147.45
517.89	149.79
518.06	182.56
518.24	283.20
518.41	245.76
518.58	255.12
518.75	163.84
518.93	222.35
519.10	152.13
519.27	184.90
519.45	241.08
519.62	196.60
519.79	205.97
519.96	229.37
520.14	234.05
520.31	241.08
520.48	177.88
520.65	241.08
520.83	245.76
521.00	105.32
521.17	196.60
521.34	210.65
521.52	205.97
521.69	236.39
521.86	285.55
522.03	234.05
522.20	238.73
522.38	138.09
522.55	266.82
522.72	243.42
522.89	283.20
523.07	234.05
523.24	248.10
523.41	262.14
523.58	191.92
523.75	224.69
523.92	189.58
524.10	252.78
524.27	229.37
524.44	124.05
524.61	208.31
524.78	220.01
524.96	238.73
525.13	187.24
525.30	210.65
525.47	147.45
525.64	229.37
525.81	203.63
525.98	224.69
526.16	215.33
526.33	145.11
526.50	194.26
526.67	194.26
526.84	191.92
527.01	238.73
527.18	156.82
527.36	170.86
527.53	191.92
527.70	250.44
527.87	201.29
528.04	262.14
528.21	154.48
528.38	257.46
528.55	257.46
528.72	287.89
528.89	203.63
529.07	229.37
529.24	215.33
529.41	299.59
529.58	315.97
529.75	191.92
529.92	177.88
530.09	196.60
530.26	250.44
530.43	133.41
530.60	175.54
530.77	175.54
530.94	217.67
531.11	196.60
531.28	149.79
531.46	217.67
531.63	271.50
531.80	175.54
531.97	203.63
532.14	191.92
532.31	201.29
532.48	198.95
532.65	203.63
532.82	152.13
532.99	227.03
533.16	196.60
533.33	187.24
533.50	168.52
533.67	191.92
533.84	231.71
534.01	184.90
534.18	248.10
534.35	168.52
534.52	205.97
534.69	234.05
534.86	154.48
535.03	196.60
535.20	189.58
535.37	241.08
535.54	224.69
535.71	222.35
535.88	259.80
536.05	255.12
536.22	241.08
536.38	234.05
536.55	208.31
536.72	271.50
536.89	156.82
537.06	222.35
537.23	196.60
537.40	234.05
537.57	191.92
537.74	292.57
537.91	177.88
538.08	201.29
538.25	217.67
538.42	222.35
538.59	252.78
538.75	184.90
538.92	229.37
539.09	231.71
539.26	196.60
539.43	238.73
539.60	220.01
539.77	182.56
539.94	290.23
540.11	166.18
540.28	194.26
540.44	231.71
540.61	201.29
540.78	196.60
540.95	117.03
541.12	217.67
541.29	177.88
541.46	231.71
541.62	210.65
541.79	227.03
541.96	227.03
542.13	177.88
542.30	220.01
542.47	177.88
542.63	236.39
542.80	217.67
542.97	245.76
543.14	210.65
543.31	189.58
543.48	184.90
543.64	201.29
543.81	170.86
543.98	215.33
544.15	227.03
544.32	126.39
544.48	231.71
544.65	163.84
544.82	187.24
544.99	290.23
545.16	229.37
545.32	161.50
545.49	222.35
545.66	191.92
545.83	156.82
546.00	168.52
546.16	180.22
546.33	107.66
546.50	245.76
546.67	170.86
546.83	248.10
547.00	208.31
547.17	196.60
547.34	161.50
547.50	229.37
547.67	184.90
547.84	177.88
548.00	243.42
548.17	180.22
548.34	184.90
548.51	255.12
548.67	203.63
548.84	170.86
549.01	105.32
549.18	212.99
549.34	231.71
549.51	212.99
549.68	201.29
549.84	191.92
550.01	212.99
550.18	264.48
550.34	278.52
550.51	227.03
550.68	231.71
550.84	234.05
551.01	187.24
551.18	259.80
551.34	227.03
551.51	154.48
551.68	182.56
551.84	241.08
552.01	166.18
552.18	191.92
552.34	243.42
552.51	187.24
552.68	182.56
552.84	180.22
553.01	163.84
553.18	320.65
553.34	147.45
553.51	208.31
553.67	231.71
553.84	308.95
554.01	257.46
554.17	250.44
554.34	257.46
554.51	250.44
554.67	229.37
554.84	177.88
555.00	210.65
555.17	128.73
555.33	266.82
555.50	201.29
555.67	189.58
555.83	215.33
556.00	217.67
556.16	362.78
556.33	196.60
556.50	166.18
556.66	177.88
556.83	154.48
556.99	159.16
557.16	196.60
557.32	203.63
557.49	196.60
557.65	196.60
557.82	250.44
557.98	198.95
558.15	110.01
558.32	210.65
558.48	177.88
558.65	241.08
558.81	175.54
558.98	248.10
559.14	203.63
559.31	142.77
559.47	227.03
559.64	318.31
559.80	191.92
559.97	184.90
560.13	173.20
560.30	210.65
560.46	177.88
560.63	248.10
560.79	194.26
560.96	203.63
561.12	161.50
561.29	243.42
561.45	184.90
561.61	203.63
561.78	318.31
561.94	208.31
562.11	170.86
562.27	205.97
562.44	131.07
562.60	198.95
562.77	114.69
562.93	313.63
563.10	149.79
563.26	194.26
563.42	220.01
563.59	210.65
563.75	194.26
563.92	243.42
564.08	217.67
564.24	301.93
564.41	189.58
564.57	234.05
564.74	177.88
564.90	222.35
565.07	231.71
565.23	173.20
565.39	203.63
565.56	189.58
565.72	140.43
565.88	248.10
566.05	142.77
566.21	189.58
566.38	212.99
566.54	147.45
566.70	187.24
566.87	159.16
567.03	159.16
567.19	301.93
567.36	241.08
567.52	194.26
567.68	220.01
567.85	236.39
568.01	248.10
568.17	189.58
568.34	177.88
568.50	212.99
568.66	222.35
568.83	248.10
568.99	191.92
569.15	231.71
569.32	182.56
569.48	205.97
569.64	220.01
569.81	194.26
569.97	280.86
570.13	212.99
570.30	217.67
570.46	205.97
570.62	215.33
570.78	191.92
570.95	276.18
571.11	236.39
571.27	227.03
571.43	112.35
571.60	170.86
571.76	156.82
571.92	196.60
572.09	156.82
572.25	140.43
572.41	149.79
572.57	112.35
572.74	243.42
572.90	203.63
573.06	182.56
573.22	229.37
573.38	205.97
573.55	234.05
573.71	182.56
573.87	259.80
574.03	189.58
574.20	196.60
574.36	215.33
574.52	173.20
574.68	205.97
574.84	184.90
575.01	259.80
575.17	255.12
575.33	154.48
575.49	196.60
575.65	266.82
575.82	238.73
575.98	283.20
576.14	145.11
576.30	121.71
576.46	234.05
576.62	191.92
576.79	208.31
576.95	236.39
577.11	177.88
577.27	224.69
577.43	198.95
577.59	255.12
577.75	163.84
577.92	187.24
578.08	182.56
578.24	126.39
578.40	227.03
578.56	208.31
578.72	269.16
578.88	271.50
579.04	166.18
579.21	159.16
579.37	168.52
579.53	198.95
579.69	262.14
579.85	220.01
580.01	145.11
580.17	203.63
580.33	257.46
580.49	175.54
580.65	175.54
580.82	154.48
580.98	196.60
581.14	201.29
581.30	177.88
581.46	138.09
581.62	189.58
581.78	166.18
581.94	217.67
582.10	159.16
582.26	222.35
582.42	245.76
582.58	301.93
582.74	154.48
582.90	201.29
583.06	210.65
583.22	196.60
583.38	175.54
583.54	180.22
583.70	262.14
583.86	245.76
584.02	222.35
584.18	217.67
584.34	168.52
584.50	222.35
584.66	182.56
584.82	184.90
584.98	142.77
585.14	315.97
585.30	201.29
585.46	142.77
585.62	161.50
585.78	299.59
585.94	276.18
586.10	145.11
586.26	135.75
586.42	224.69
586.58	205.97
586.74	184.90
586.90	173.20
587.06	194.26
587.22	184.90
587.38	191.92
587.54	173.20
587.70	182.56
587.86	175.54
588.02	184.90
588.18	203.63
588.34	222.35
588.49	117.03
588.65	163.84
588.81	175.54
588.97	140.43
589.13	203.63
589.29	133.41
589.45	201.29
589.61	154.48
589.77	170.86
589.93	191.92
590.08	138.09
590.24	191.92
590.40	257.46
590.56	194.26
590.72	236.39
590.88	140.43
591.04	278.52
591.20	198.95
591.35	212.99
591.51	170.86
591.67	194.26
591.83	210.65
591.99	159.16
592.15	135.75
592.31	128.73
592.46	205.97
592.62	189.58
592.78	149.79
592.94	107.66
593.10	184.90
593.26	161.50
593.41	173.20
593.57	175.54
593.73	273.84
593.89	138.09
594.05	210.65
594.20	175.54
594.36	194.26
594.52	156.82
594.68	231.71
594.84	266.82
594.99	217.67
595.15	245.76
595.31	215.33
595.47	124.05
595.62	131.07
595.78	154.48
595.94	149.79
596.10	163.84
596.25	147.45
596.41	243.42
596.57	163.84
596.73	208.31
596.88	243.42
597.04	126.39
597.20	180.22
597.36	203.63
597.51	124.05
597.67	135.75
597.83	119.37
597.99	149.79
598.14	210.65
598.30	212.99
598.46	126.39
598.61	255.12
598.77	168.52
598.93	156.82
599.09	154.48
599.24	161.50
599.40	257.46
599.56	220.01
599.71	198.95
599.87	117.03
600.03	241.08
600.18	173.20
600.34	210.65
600.50	107.66
600.65	93.62
600.81	201.29
600.97	168.52
601.12	259.80
601.28	210.65
601.44	276.18
601.59	147.45
601.75	191.92
601.91	112.35
602.06	177.88
602.22	241.08
602.37	194.26
602.53	166.18
602.69	236.39
602.84	189.58
603.00	180.22
603.16	215.33
603.31	198.95
603.47	182.56
603.62	119.37
603.78	217.67
603.94	224.69
604.09	180.22
604.25	234.05
604.40	203.63
604.56	182.56
604.71	180.22
604.87	161.50
605.03	145.11
605.18	163.84
605.34	212.99
605.49	149.79
605.65	250.44
605.80	147.45
605.96	262.14
606.12	208.31
606.27	222.35
606.43	210.65
606.58	278.52
606.74	72.56
606.89	147.45
607.05	159.16
607.20	231.71
607.36	131.07
607.51	220.01
607.67	161.50
607.82	252.78
607.98	210.65
608.13	173.20
608.29	154.48
608.44	196.60
608.60	208.31
608.75	212.99
608.91	220.01
609.06	257.46
609.22	149.79
609.37	175.54
609.53	154.48
609.68	191.92
609.84	191.92
609.99	250.44
610.15	182.56
610.30	135.75
610.46	177.88
610.61	238.73
610.76	156.82
610.92	238.73
611.07	128.73
611.23	269.16
611.38	187.24
611.54	224.69
611.69	135.75
611.84	159.16
612.00	112.35
612.15	84.26
612.31	189.58
612.46	231.71
612.62	128.73
612.77	227.03
612.92	184.90
613.08	243.42
613.23	222.35
613.39	189.58
613.54	177.88
613.69	243.42
613.85	212.99
614.00	198.95
614.15	182.56
614.31	147.45
614.46	194.26
614.62	269.16
614.77	222.35
614.92	128.73
615.08	238.73
615.23	86.60
615.38	198.95
615.54	180.22
615.69	194.26
615.84	166.18
616.00	210.65
616.15	135.75
616.30	102.98
616.46	170.86
616.61	168.52
616.76	138.09
616.92	154.48
617.07	196.60
617.22	133.41
617.37	210.65
617.53	74.90
617.68	212.99
617.83	224.69
617.99	264.48
618.14	269.16
618.29	241.08
618.45	224.69
618.60	149.79
618.75	126.39
618.90	175.54
619.06	147.45
619.21	198.95
619.36	224.69
619.51	149.79
619.67	212.99
619.82	138.09
619.97	173.20
620.12	140.43
620.28	184.90
620.43	131.07
620.58	135.75
620.73	220.01
620.89	231.71
621.04	187.24
621.19	217.67
621.34	210.65
621.49	215.33
621.65	182.56
621.80	194.26
621.95	142.77
622.10	177.88
622.25	170.86
622.41	231.71
622.56	152.13
622.71	177.88
622.86	201.29
623.01	121.71
623.16	154.48
623.32	154.48
623.47	166.18
623.62	110.01
623.77	159.16
623.92	215.33
624.07	212.99
624.23	166.18
624.38	152.13
624.53	194.26
624.68	117.03
624.83	203.63
624.98	238.73
625.13	149.79
625.29	161.50
625.44	93.62
625.59	145.11
625.74	145.11
625.89	180.22
626.04	152.13
626.19	140.43
626.34	84.26
626.49	201.29
626.65	135.75
626.80	131.07
626.95	198.95
627.10	107.66
627.25	112.35
627.40	133.41
627.55	278.52
627.70	180.22
627.85	140.43
628.00	196.60
628.15	156.82
628.30	67.88
628.45	161.50
628.60	102.98
628.76	180.22
628.91	114.69
629.06	149.79
629.21	110.01
629.36	156.82
629.51	114.69
629.66	236.39
629.81	227.03
629.96	149.79
630.11	142.77
630.26	138.09
630.41	102.98
630.56	114.69
630.71	93.62
630.86	124.05
631.01	77.24
631.16	234.05
631.31	161.50
631.46	208.31
631.61	182.56
631.76	245.76
631.91	196.60
632.06	182.56
632.21	208.31
632.36	189.58
632.51	198.95
632.66	168.52
632.81	102.98
632.96	133.41
633.10	182.56
633.25	236.39
633.40	180.22
633.55	152.13
633.70	196.60
633.85	194.26
634.00	100.64
634.15	98.30
634.30	187.24
634.45	154.48
634.60	147.45
634.75	81.92
634.90	124.05
635.05	140.43
635.19	114.69
635.34	194.26
635.49	100.64
635.64	201.29
635.79	105.32
635.94	168.52
636.09	145.11
636.24	180.22
636.39	81.92
636.53	98.30
636.68	126.39
636.83	140.43
636.98	241.08
637.13	149.79
637.28	156.82
637.43	196.60
637.57	114.69
637.72	152.13
637.87	166.18
638.02	145.11
638.17	142.77
638.32	198.95
638.46	196.60
638.61	198.95
638.76	163.84
638.91	110.01
639.06	135.75
639.20	180.22
639.35	250.44
639.50	149.79
639.65	133.41
639.80	135.75
639.94	177.88
640.09	250.44
640.24	184.90
640.39	126.39
640.54	93.62
640.68	189.58
640.83	177.88
640.98	112.35
641.13	152.13
641.27	154.48
641.42	112.35
641.57	175.54
641.72	152.13
641.86	198.95
642.01	196.60
642.16	168.52
642.31	196.60
642.45	203.63
642.60	229.37
642.75	203.63
642.90	187.24
643.04	208.31
643.19	131.07
643.34	191.92
643.48	138.09
643.63	161.50
643.78	198.95
643.93	145.11
644.07	182.56
644.22	154.48
644.37	53.83
644.51	149.79
644.66	126.39
644.81	182.56
644.95	227.03
645.10	133.41
645.25	105.32
645.39	159.16
645.54	133.41
645.69	212.99
645.83	91.28
645.98	220.01
646.13	161.50
646.27	159.16
646.42	112.35
646.57	37.45
646.71	177.88
646.86	154.48
647.00	184.90
647.15	145.11
647.30	84.26
647.44	105.32
647.59	121.71
647.74	112.35
647.88	133.41
648.03	32.77
648.17	145.11
648.32	138.09
648.47	173.20
648.61	173.20
648.76	91.28
648.90	170.86
649.05	159.16
649.20	112.35
649.34	95.96
649.49	67.88
649.63	194.26
649.78	173.20
649.92	124.05
650.07	156.82
650.21	135.75
650.36	163.84
650.51	161.50
650.65	98.30
650.80	77.24
650.94	138.09
651.09	124.05
651.23	95.96
651.38	133.41
651.52	135.75
651.67	177.88
651.81	168.52
651.96	112.35
652.10	194.26
652.25	86.60
652.39	161.50
652.54	142.77
652.68	133.41
652.83	196.60
652.97	163.84
653.12	194.26
653.26	156.82
653.41	156.82
653.55	203.63
653.70	166.18
653.84	91.28
653.99	175.54
654.13	161.50
654.27	70.22
654.42	201.29
654.56	198.95
654.71	187.24
654.85	0.00
655.00	98.30
655.14	170.86
655.29	124.05
655.43	189.58
655.57	133.41
655.72	114.69
655.86	119.37
656.01	131.07
656.15	117.03
656.30	210.65
656.44	173.20
656.58	107.66
656.73	128.73
656.87	126.39
657.01	222.35
657.16	142.77
657.30	81.92
657.45	114.69
657.59	131.07
657.73	105.32
657.88	81.92
658.02	224.69
658.16	114.69
658.31	81.92
658.45	58.51
658.60	77.24
658.74	217.67
658.88	138.09
659.03	117.03
659.17	147.45
659.31	163.84
659.46	110.01
659.60	210.65
659.74	133.41
659.89	117.03
660.03	154.48
660.17	152.13
660.32	180.22
660.46	131.07
660.60	138.09
660.74	126.39
660.89	168.52
661.03	117.03
661.17	128.73
661.32	121.71
661.46	98.30
661.60	149.79
661.74	117.03
661.89	147.45
662.03	184.90
662.17	147.45
662.31	100.64
662.46	154.48
662.60	220.01
662.74	133.41
662.88	149.79
663.03	161.50
663.17	128.73
663.31	112.35
663.45	161.50
663.60	49.15
663.74	98.30
663.88	95.96
664.02	121.71
664.17	86.60
664.31	180.22
664.45	182.56
664.59	98.30
664.73	107.66
664.88	201.29
665.02	173.20
665.16	117.03
665.30	145.11
665.44	156.82
665.59	189.58
665.73	100.64
665.87	159.16
666.01	163.84
666.15	84.26
666.29	175.54
666.44	217.67
666.58	159.16
666.72	140.43
666.86	126.39
667.00	166.18
667.14	147.45
667.28	145.11
667.43	126.39
667.57	205.97
667.71	182.56
667.85	91.28
667.99	119.37
668.13	177.88
668.27	117.03
668.41	152.13
668.56	117.03
668.70	198.95
668.84	147.45
668.98	166.18
669.12	117.03
669.26	189.58
669.40	191.92
669.54	152.13
669.68	177.88
669.82	142.77
669.96	166.18
670.10	81.92
670.25	173.20
670.39	163.84
670.53	163.84
670.67	147.45
670.81	126.39
670.95	205.97
671.09	107.66
671.23	215.33
671.37	140.43
671.51	140.43
671.65	198.95
671.79	107.66
671.93	107.66
672.07	191.92
672.21	105.32
672.35	182.56
672.49	95.96
672.63	152.13
672.77	173.20
672.91	124.05
673.05	114.69
673.19	60.85
673.33	135.75
673.47	222.35
673.61	229.37
673.75	72.56
673.89	145.11
674.03	222.35
674.17	102.98
674.31	182.56
674.45	88.94
674.59	194.26
674.73	63.19
674.87	208.31
675.01	152.13
675.15	182.56
675.29	173.20
675.43	196.60
675.56	156.82
675.70	175.54
675.84	126.39
675.98	114.69
676.12	110.01
676.26	175.54
676.40	175.54
676.54	79.58
676.68	149.79
676.82	180.22
676.96	121.71
677.10	156.82
677.23	98.30
677.37	110.01
677.51	77.24
677.65	203.63
677.79	133.41
677.93	114.69
678.07	140.43
678.21	98.30
678.34	156.82
678.48	79.58
678.62	187.24
678.76	112.35
678.90	154.48
679.04	39.79
679.18	86.60
679.31	114.69
679.45	168.52
679.59	81.92
679.73	138.09
679.87	79.58
680.00	121.71
680.14	145.11
680.28	131.07
680.42	67.88
680.56	156.82
680.70	208.31
680.83	124.05
680.97	30.43
681.11	152.13
681.25	149.79
681.39	98.30
681.52	135.75
681.66	112.35
681.80	114.69
681.94	72.56
682.07	110.01
682.21	149.79
682.35	110.01
682.49	70.22
682.62	149.79
682.76	70.22
682.90	86.60
683.04	121.71
683.17	117.03
683.31	102.98
683.45	81.92
683.59	177.88
683.72	110.01
683.86	112.35
684.00	156.82
684.13	168.52
684.27	91.28
684.41	128.73
684.55	166.18
684.68	93.62
684.82	175.54
684.96	60.85
685.09	105.32
685.23	79.58
685.37	205.97
685.50	149.79
685.64	159.16
685.78	86.60
685.91	86.60
686.05	126.39
686.19	142.77
686.32	170.86
686.46	81.92
686.60	37.45
686.73	156.82
686.87	173.20
687.01	56.17
687.14	67.88
687.28	100.64
687.42	56.17
687.55	156.82
687.69	119.37
687.82	81.92
687.96	189.58
688.10	138.09
688.23	63.19
688.37	131.07
688.50	110.01
688.64	88.94
688.78	32.77
688.91	74.90
689.05	37.45
689.18	63.19
689.32	154.48
689.46	124.05
689.59	42.13
689.73	175.54
689.86	131.07
690.00	119.37
690.13	67.88
690.27	63.19
690.41	86.60
690.54	187.24
690.68	117.03
690.81	149.79
690.95	112.35
691.08	138.09
691.22	159.16
691.35	86.60
691.49	98.30
691.62	37.45
691.76	107.66
691.89	46.81
692.03	124.05
692.16	126.39
692.30	84.26
692.43	56.17
692.57	95.96
692.70	14.04
692.84	100.64
692.97	91.28
693.11	60.85
693.24	156.82
693.38	98.30
693.51	84.26
693.65	138.09
693.78	72.56
693.92	74.90
694.05	95.96
694.19	81.92
694.32	21.06
694.45	74.90
694.59	74.90
694.72	0.00
694.86	138.09
694.99	107.66
695.13	7.02
695.26	95.96
695.39	74.90
695.53	198.95
695.66	102.98
695.80	70.22
695.93	95.96
696.07	102.98
696.20	100.64
696.33	46.81
696.47	32.77
696.60	135.75
696.73	133.41
696.87	72.56
697.00	156.82
697.14	91.28
697.27	147.45
697.40	168.52
697.54	72.56
697.67	95.96
697.80	112.35
697.94	81.92
698.07	126.39
698.21	86.60
698.34	49.15
698.47	112.35
698.61	49.15
698.74	51.49
698.87	117.03
699.01	154.48
699.14	88.94
699.27	126.39
699.40	241.08
699.54	119.37
699.67	60.85
699.80	79.58
699.94	74.90
700.07	58.51
700.20	56.17
700.34	53.83
700.47	79.58
700.60	86.60
700.73	149.79
700.87	166.18
701.00	180.22
701.13	79.58
701.26	11.70
701.40	65.54
701.53	58.51
701.66	72.56
701.79	81.92
701.93	77.24
702.06	133.41
702.19	140.43
702.32	126.39
702.46	65.54
702.59	70.22
702.72	11.70
702.85	56.17
702.99	105.32
703.12	93.62
703.25	74.90
703.38	110.01
703.51	152.13
703.65	163.84
703.78	114.69
703.91	126.39
704.04	105.32
704.17	117.03
704.31	173.20
704.44	63.19
704.57	25.75
704.70	156.82
704.83	112.35
704.96	42.13
705.10	131.07
705.23	124.05
>>>>>End Processed Spectral Data<<<<<
