SpectraSuite Data File
++++++++++++++++++++++++++++++++++++
Date: Fri Oct 04 11:51:03 GMT-05:00 2013
User: price-jones
Dark Spectrum Present: No
Reference Spectrum Present: No
Number of Sampled Component Spectra: 1
Spectrometers: USB2+H05261
Integration Time (usec): 100000 (USB2+H05261)
Spectra Averaged: 1 (USB2+H05261)
Boxcar Smoothing: 0 (USB2+H05261)
Correct for Electrical Dark: No (USB2+H05261)
Strobe/Lamp Enabled: No (USB2+H05261)
Correct for Detector Non-linearity: No (USB2+H05261)
Correct for Stray Light: No (USB2+H05261)
Number of Pixels in Processed Spectrum: 2048
>>>>>Begin Processed Spectral Data<<<<<
365.73	18.72
365.92	18.72
366.12	18.72
366.32	0.00
366.52	0.00
366.72	4.68
366.91	0.00
367.11	0.00
367.31	0.00
367.51	0.00
367.70	0.00
367.90	0.00
368.10	0.00
368.30	0.00
368.49	0.00
368.69	0.00
368.89	0.00
369.09	0.00
369.28	0.00
369.48	0.00
369.68	0.00
369.87	0.00
370.07	0.00
370.27	0.00
370.47	32.77
370.66	0.00
370.86	0.00
371.06	95.96
371.25	86.60
371.45	42.13
371.65	140.43
371.84	0.00
372.04	16.38
372.24	44.47
372.44	112.35
372.63	102.98
372.83	124.05
373.03	77.24
373.22	140.43
373.42	72.56
373.62	135.75
373.81	91.28
374.01	42.13
374.21	100.64
374.40	58.51
374.60	238.73
374.79	149.79
374.99	147.45
375.19	114.69
375.38	95.96
375.58	112.35
375.78	126.39
375.97	107.66
376.17	154.48
376.37	23.41
376.56	110.01
376.76	133.41
376.95	70.22
377.15	140.43
377.35	147.45
377.54	30.43
377.74	0.00
377.93	0.00
378.13	159.16
378.33	133.41
378.52	126.39
378.72	114.69
378.91	100.64
379.11	23.41
379.31	65.54
379.50	4.68
379.70	147.45
379.89	100.64
380.09	114.69
380.28	0.00
380.48	56.17
380.68	93.62
380.87	65.54
381.07	65.54
381.26	63.19
381.46	107.66
381.65	18.72
381.85	72.56
382.04	74.90
382.24	98.30
382.43	110.01
382.63	102.98
382.83	77.24
383.02	173.20
383.22	56.17
383.41	74.90
383.61	51.49
383.80	81.92
384.00	46.81
384.19	86.60
384.39	88.94
384.58	60.85
384.78	79.58
384.97	98.30
385.17	25.75
385.36	67.88
385.56	63.19
385.75	79.58
385.95	60.85
386.14	74.90
386.34	117.03
386.53	131.07
386.72	112.35
386.92	58.51
387.11	175.54
387.31	124.05
387.50	67.88
387.70	70.22
387.89	67.88
388.09	72.56
388.28	39.79
388.48	23.41
388.67	86.60
388.86	112.35
389.06	84.26
389.25	88.94
389.45	112.35
389.64	56.17
389.84	180.22
390.03	156.82
390.22	32.77
390.42	84.26
390.61	91.28
390.81	112.35
391.00	60.85
391.19	98.30
391.39	63.19
391.58	107.66
391.78	63.19
391.97	42.13
392.16	39.79
392.36	154.48
392.55	135.75
392.75	72.56
392.94	70.22
393.13	65.54
393.33	93.62
393.52	14.04
393.71	119.37
393.91	142.77
394.10	2.34
394.29	70.22
394.49	88.94
394.68	56.17
394.88	79.58
395.07	84.26
395.26	11.70
395.46	53.83
395.65	133.41
395.84	95.96
396.04	128.73
396.23	72.56
396.42	86.60
396.62	135.75
396.81	81.92
397.00	72.56
397.19	91.28
397.39	121.71
397.58	147.45
397.77	63.19
397.97	95.96
398.16	149.79
398.35	95.96
398.55	70.22
398.74	84.26
398.93	86.60
399.12	37.45
399.32	128.73
399.51	135.75
399.70	161.50
399.90	46.81
400.09	124.05
400.28	98.30
400.47	114.69
400.67	91.28
400.86	79.58
401.05	65.54
401.24	166.18
401.44	119.37
401.63	128.73
401.82	147.45
402.01	60.85
402.21	37.45
402.40	135.75
402.59	14.04
402.78	67.88
402.97	63.19
403.17	23.41
403.36	91.28
403.55	86.60
403.74	102.98
403.93	39.79
404.13	114.69
404.32	60.85
404.51	102.98
404.70	142.77
404.89	37.45
405.09	117.03
405.28	126.39
405.47	65.54
405.66	119.37
405.85	93.62
406.05	30.43
406.24	53.83
406.43	58.51
406.62	112.35
406.81	180.22
407.00	79.58
407.20	81.92
407.39	86.60
407.58	124.05
407.77	72.56
407.96	124.05
408.15	119.37
408.34	81.92
408.54	95.96
408.73	124.05
408.92	145.11
409.11	98.30
409.30	121.71
409.49	63.19
409.68	63.19
409.87	67.88
410.07	117.03
410.26	119.37
410.45	138.09
410.64	39.79
410.83	112.35
411.02	39.79
411.21	170.86
411.40	147.45
411.59	107.66
411.78	18.72
411.98	117.03
412.17	79.58
412.36	60.85
412.55	86.60
412.74	79.58
412.93	95.96
413.12	114.69
413.31	117.03
413.50	126.39
413.69	119.37
413.88	110.01
414.07	56.17
414.26	65.54
414.45	72.56
414.64	93.62
414.83	107.66
415.02	110.01
415.22	77.24
415.41	135.75
415.60	46.81
415.79	110.01
415.98	147.45
416.17	102.98
416.36	100.64
416.55	187.24
416.74	163.84
416.93	184.90
417.12	84.26
417.31	135.75
417.50	37.45
417.69	124.05
417.88	65.54
418.07	180.22
418.26	126.39
418.45	98.30
418.64	124.05
418.83	105.32
419.02	63.19
419.21	133.41
419.39	142.77
419.58	121.71
419.77	131.07
419.96	117.03
420.15	124.05
420.34	95.96
420.53	142.77
420.72	58.51
420.91	147.45
421.10	119.37
421.29	166.18
421.48	56.17
421.67	105.32
421.86	93.62
422.05	121.71
422.24	140.43
422.43	175.54
422.61	112.35
422.80	126.39
422.99	124.05
423.18	51.49
423.37	175.54
423.56	110.01
423.75	74.90
423.94	110.01
424.13	49.15
424.32	100.64
424.50	117.03
424.69	86.60
424.88	84.26
425.07	142.77
425.26	135.75
425.45	121.71
425.64	114.69
425.83	86.60
426.01	154.48
426.20	175.54
426.39	67.88
426.58	70.22
426.77	124.05
426.96	107.66
427.15	138.09
427.33	107.66
427.52	86.60
427.71	140.43
427.90	93.62
428.09	119.37
428.28	74.90
428.46	135.75
428.65	133.41
428.84	131.07
429.03	168.52
429.22	81.92
429.40	128.73
429.59	32.77
429.78	184.90
429.97	98.30
430.16	142.77
430.34	46.81
430.53	128.73
430.72	84.26
430.91	0.00
431.10	23.41
431.28	35.11
431.47	121.71
431.66	138.09
431.85	72.56
432.03	49.15
432.22	170.86
432.41	91.28
432.60	86.60
432.79	60.85
432.97	135.75
433.16	100.64
433.35	28.09
433.54	126.39
433.72	93.62
433.91	77.24
434.10	25.75
434.28	114.69
434.47	126.39
434.66	154.48
434.85	46.81
435.03	88.94
435.22	217.67
435.41	140.43
435.59	138.09
435.78	168.52
435.97	124.05
436.16	63.19
436.34	74.90
436.53	182.56
436.72	205.97
436.90	175.54
437.09	81.92
437.28	91.28
437.46	126.39
437.65	149.79
437.84	154.48
438.02	88.94
438.21	140.43
438.40	25.75
438.58	149.79
438.77	112.35
438.96	63.19
439.14	35.11
439.33	170.86
439.52	49.15
439.70	65.54
439.89	117.03
440.08	84.26
440.26	175.54
440.45	159.16
440.63	112.35
440.82	166.18
441.01	126.39
441.19	81.92
441.38	56.17
441.57	79.58
441.75	126.39
441.94	95.96
442.12	131.07
442.31	117.03
442.50	86.60
442.68	128.73
442.87	135.75
443.05	79.58
443.24	154.48
443.43	227.03
443.61	243.42
443.80	81.92
443.98	44.47
444.17	140.43
444.35	187.24
444.54	133.41
444.73	128.73
444.91	161.50
445.10	79.58
445.28	44.47
445.47	173.20
445.65	110.01
445.84	112.35
446.02	128.73
446.21	117.03
446.39	98.30
446.58	121.71
446.77	133.41
446.95	110.01
447.14	142.77
447.32	201.29
447.51	154.48
447.69	147.45
447.88	126.39
448.06	119.37
448.25	117.03
448.43	100.64
448.62	91.28
448.80	124.05
448.99	98.30
449.17	112.35
449.36	145.11
449.54	128.73
449.73	124.05
449.91	98.30
450.10	58.51
450.28	152.13
450.46	170.86
450.65	180.22
450.83	170.86
451.02	105.32
451.20	124.05
451.39	100.64
451.57	149.79
451.76	149.79
451.94	112.35
452.13	91.28
452.31	191.92
452.49	189.58
452.68	124.05
452.86	79.58
453.05	182.56
453.23	107.66
453.42	133.41
453.60	77.24
453.78	79.58
453.97	138.09
454.15	100.64
454.34	81.92
454.52	70.22
454.70	126.39
454.89	124.05
455.07	112.35
455.26	152.13
455.44	201.29
455.62	135.75
455.81	189.58
455.99	173.20
456.17	100.64
456.36	142.77
456.54	168.52
456.73	156.82
456.91	133.41
457.09	184.90
457.28	105.32
457.46	152.13
457.64	201.29
457.83	107.66
458.01	126.39
458.19	203.63
458.38	140.43
458.56	191.92
458.74	189.58
458.93	117.03
459.11	196.60
459.29	72.56
459.48	152.13
459.66	182.56
459.84	205.97
460.03	177.88
460.21	67.88
460.39	67.88
460.57	53.83
460.76	119.37
460.94	149.79
461.12	147.45
461.31	184.90
461.49	227.03
461.67	107.66
461.85	142.77
462.04	128.73
462.22	227.03
462.40	154.48
462.59	84.26
462.77	149.79
462.95	60.85
463.13	79.58
463.32	170.86
463.50	149.79
463.68	133.41
463.86	126.39
464.05	110.01
464.23	182.56
464.41	163.84
464.59	86.60
464.78	161.50
464.96	95.96
465.14	147.45
465.32	119.37
465.50	133.41
465.69	140.43
465.87	142.77
466.05	142.77
466.23	128.73
466.41	138.09
466.60	180.22
466.78	145.11
466.96	105.32
467.14	173.20
467.32	128.73
467.51	86.60
467.69	112.35
467.87	194.26
468.05	201.29
468.23	203.63
468.41	124.05
468.60	145.11
468.78	119.37
468.96	182.56
469.14	65.54
469.32	149.79
469.50	196.60
469.69	133.41
469.87	126.39
470.05	133.41
470.23	86.60
470.41	93.62
470.59	156.82
470.77	187.24
470.95	163.84
471.14	145.11
471.32	154.48
471.50	168.52
471.68	161.50
471.86	149.79
472.04	161.50
472.22	189.58
472.40	91.28
472.58	65.54
472.77	98.30
472.95	163.84
473.13	175.54
473.31	184.90
473.49	119.37
473.67	105.32
473.85	147.45
474.03	161.50
474.21	159.16
474.39	156.82
474.57	112.35
474.75	81.92
474.93	154.48
475.12	147.45
475.30	152.13
475.48	135.75
475.66	72.56
475.84	180.22
476.02	119.37
476.20	156.82
476.38	88.94
476.56	159.16
476.74	133.41
476.92	177.88
477.10	105.32
477.28	100.64
477.46	105.32
477.64	149.79
477.82	145.11
478.00	121.71
478.18	138.09
478.36	100.64
478.54	159.16
478.72	147.45
478.90	91.28
479.08	124.05
479.26	131.07
479.44	159.16
479.62	126.39
479.80	170.86
479.98	124.05
480.16	72.56
480.34	252.78
480.52	161.50
480.70	114.69
480.88	184.90
481.06	79.58
481.24	145.11
481.41	173.20
481.59	163.84
481.77	133.41
481.95	112.35
482.13	177.88
482.31	175.54
482.49	142.77
482.67	65.54
482.85	154.48
483.03	203.63
483.21	121.71
483.39	175.54
483.57	133.41
483.74	217.67
483.92	154.48
484.10	194.26
484.28	114.69
484.46	212.99
484.64	168.52
484.82	161.50
485.00	102.98
485.18	180.22
485.35	229.37
485.53	166.18
485.71	201.29
485.89	110.01
486.07	198.95
486.25	145.11
486.43	175.54
486.61	163.84
486.78	119.37
486.96	145.11
487.14	149.79
487.32	161.50
487.50	184.90
487.68	119.37
487.85	217.67
488.03	131.07
488.21	187.24
488.39	168.52
488.57	163.84
488.75	154.48
488.92	395.55
489.10	170.86
489.28	236.39
489.46	163.84
489.64	177.88
489.81	166.18
489.99	131.07
490.17	95.96
490.35	234.05
490.53	147.45
490.70	128.73
490.88	138.09
491.06	102.98
491.24	182.56
491.41	156.82
491.59	170.86
491.77	227.03
491.95	191.92
492.13	161.50
492.30	205.97
492.48	166.18
492.66	156.82
492.84	159.16
493.01	142.77
493.19	184.90
493.37	217.67
493.54	205.97
493.72	271.50
493.90	138.09
494.08	175.54
494.25	212.99
494.43	191.92
494.61	189.58
494.79	126.39
494.96	114.69
495.14	159.16
495.32	168.52
495.49	107.66
495.67	138.09
495.85	212.99
496.02	175.54
496.20	210.65
496.38	224.69
496.55	184.90
496.73	124.05
496.91	156.82
497.09	177.88
497.26	236.39
497.44	187.24
497.62	215.33
497.79	173.20
497.97	175.54
498.14	243.42
498.32	124.05
498.50	196.60
498.67	166.18
498.85	166.18
499.03	212.99
499.20	110.01
499.38	229.37
499.56	166.18
499.73	196.60
499.91	184.90
500.08	205.97
500.26	175.54
500.44	175.54
500.61	161.50
500.79	149.79
500.97	182.56
501.14	187.24
501.32	177.88
501.49	201.29
501.67	245.76
501.84	168.52
502.02	196.60
502.20	220.01
502.37	231.71
502.55	175.54
502.72	138.09
502.90	131.07
503.07	222.35
503.25	189.58
503.43	149.79
503.60	131.07
503.78	220.01
503.95	156.82
504.13	147.45
504.30	205.97
504.48	243.42
504.65	241.08
504.83	159.16
505.01	215.33
505.18	227.03
505.36	220.01
505.53	79.58
505.71	170.86
505.88	205.97
506.06	145.11
506.23	203.63
506.41	205.97
506.58	245.76
506.76	196.60
506.93	227.03
507.11	259.80
507.28	241.08
507.46	222.35
507.63	187.24
507.81	163.84
507.98	266.82
508.16	250.44
508.33	98.30
508.50	222.35
508.68	166.18
508.85	238.73
509.03	131.07
509.20	241.08
509.38	163.84
509.55	264.48
509.73	212.99
509.90	184.90
510.08	161.50
510.25	187.24
510.42	173.20
510.60	177.88
510.77	161.50
510.95	196.60
511.12	222.35
511.30	224.69
511.47	252.78
511.64	276.18
511.82	205.97
511.99	163.84
512.17	163.84
512.34	170.86
512.51	149.79
512.69	205.97
512.86	170.86
513.04	250.44
513.21	222.35
513.38	196.60
513.56	173.20
513.73	163.84
513.90	180.22
514.08	234.05
514.25	147.45
514.43	255.12
514.60	210.65
514.77	269.16
514.95	156.82
515.12	224.69
515.29	110.01
515.47	227.03
515.64	194.26
515.81	210.65
515.99	245.76
516.16	215.33
516.33	210.65
516.51	131.07
516.68	107.66
516.85	224.69
517.03	173.20
517.20	217.67
517.37	255.12
517.54	147.45
517.72	161.50
517.89	170.86
518.06	198.95
518.24	278.52
518.41	231.71
518.58	205.97
518.75	215.33
518.93	241.08
519.10	210.65
519.27	203.63
519.45	182.56
519.62	163.84
519.79	196.60
519.96	194.26
520.14	248.10
520.31	161.50
520.48	236.39
520.65	264.48
520.83	191.92
521.00	208.31
521.17	248.10
521.34	187.24
521.52	217.67
521.69	248.10
521.86	163.84
522.03	229.37
522.20	255.12
522.38	180.22
522.55	161.50
522.72	180.22
522.89	287.89
523.07	269.16
523.24	161.50
523.41	196.60
523.58	196.60
523.75	196.60
523.92	187.24
524.10	182.56
524.27	168.52
524.44	222.35
524.61	205.97
524.78	175.54
524.96	187.24
525.13	194.26
525.30	273.84
525.47	264.48
525.64	191.92
525.81	217.67
525.98	217.67
526.16	156.82
526.33	121.71
526.50	203.63
526.67	166.18
526.84	175.54
527.01	212.99
527.18	287.89
527.36	166.18
527.53	124.05
527.70	255.12
527.87	124.05
528.04	252.78
528.21	173.20
528.38	367.46
528.55	243.42
528.72	292.57
528.89	215.33
529.07	238.73
529.24	238.73
529.41	215.33
529.58	138.09
529.75	166.18
529.92	191.92
530.09	170.86
530.26	222.35
530.43	215.33
530.60	180.22
530.77	229.37
530.94	234.05
531.11	187.24
531.28	243.42
531.46	180.22
531.63	236.39
531.80	248.10
531.97	156.82
532.14	241.08
532.31	241.08
532.48	231.71
532.65	201.29
532.82	205.97
532.99	166.18
533.16	259.80
533.33	168.52
533.50	217.67
533.67	245.76
533.84	250.44
534.01	208.31
534.18	166.18
534.35	250.44
534.52	149.79
534.69	248.10
534.86	234.05
535.03	198.95
535.20	227.03
535.37	208.31
535.54	170.86
535.71	227.03
535.88	191.92
536.05	245.76
536.22	236.39
536.38	201.29
536.55	208.31
536.72	252.78
536.89	191.92
537.06	224.69
537.23	187.24
537.40	212.99
537.57	203.63
537.74	285.55
537.91	224.69
538.08	241.08
538.25	147.45
538.42	182.56
538.59	194.26
538.75	191.92
538.92	196.60
539.09	210.65
539.26	252.78
539.43	248.10
539.60	189.58
539.77	208.31
539.94	222.35
540.11	262.14
540.28	250.44
540.44	196.60
540.61	182.56
540.78	231.71
540.95	191.92
541.12	297.25
541.29	220.01
541.46	313.63
541.62	245.76
541.79	182.56
541.96	159.16
542.13	205.97
542.30	128.73
542.47	227.03
542.63	189.58
542.80	269.16
542.97	266.82
543.14	173.20
543.31	227.03
543.48	220.01
543.64	245.76
543.81	194.26
543.98	224.69
544.15	198.95
544.32	154.48
544.48	124.05
544.65	161.50
544.82	156.82
544.99	280.86
545.16	257.46
545.32	238.73
545.49	250.44
545.66	236.39
545.83	224.69
546.00	196.60
546.16	201.29
546.33	238.73
546.50	166.18
546.67	220.01
546.83	245.76
547.00	229.37
547.17	187.24
547.34	187.24
547.50	168.52
547.67	212.99
547.84	133.41
548.00	250.44
548.17	198.95
548.34	184.90
548.51	266.82
548.67	196.60
548.84	161.50
549.01	266.82
549.18	222.35
549.34	229.37
549.51	180.22
549.68	217.67
549.84	264.48
550.01	161.50
550.18	346.40
550.34	222.35
550.51	187.24
550.68	259.80
550.84	222.35
551.01	217.67
551.18	177.88
551.34	194.26
551.51	210.65
551.68	224.69
551.84	177.88
552.01	205.97
552.18	205.97
552.34	142.77
552.51	72.56
552.68	187.24
552.84	203.63
553.01	241.08
553.18	243.42
553.34	220.01
553.51	177.88
553.67	217.67
553.84	269.16
554.01	231.71
554.17	194.26
554.34	238.73
554.51	212.99
554.67	273.84
554.84	133.41
555.00	145.11
555.17	191.92
555.33	175.54
555.50	241.08
555.67	170.86
555.83	159.16
556.00	212.99
556.16	327.68
556.33	231.71
556.50	196.60
556.66	262.14
556.83	205.97
556.99	210.65
557.16	198.95
557.32	147.45
557.49	154.48
557.65	133.41
557.82	166.18
557.98	248.10
558.15	163.84
558.32	205.97
558.48	180.22
558.65	198.95
558.81	156.82
558.98	182.56
559.14	215.33
559.31	138.09
559.47	236.39
559.64	189.58
559.80	227.03
559.97	152.13
560.13	198.95
560.30	194.26
560.46	180.22
560.63	208.31
560.79	166.18
560.96	201.29
561.12	198.95
561.29	245.76
561.45	191.92
561.61	252.78
561.78	269.16
561.94	170.86
562.11	93.62
562.27	241.08
562.44	217.67
562.60	245.76
562.77	198.95
562.93	231.71
563.10	163.84
563.26	210.65
563.42	262.14
563.59	241.08
563.75	189.58
563.92	203.63
564.08	173.20
564.24	196.60
564.41	262.14
564.57	154.48
564.74	252.78
564.90	241.08
565.07	163.84
565.23	259.80
565.39	98.30
565.56	285.55
565.72	259.80
565.88	182.56
566.05	163.84
566.21	161.50
566.38	252.78
566.54	189.58
566.70	194.26
566.87	252.78
567.03	156.82
567.19	245.76
567.36	320.65
567.52	170.86
567.68	145.11
567.85	234.05
568.01	121.71
568.17	161.50
568.34	217.67
568.50	208.31
568.66	198.95
568.83	306.61
568.99	212.99
569.15	220.01
569.32	212.99
569.48	184.90
569.64	175.54
569.81	168.52
569.97	198.95
570.13	255.12
570.30	196.60
570.46	182.56
570.62	170.86
570.78	210.65
570.95	142.77
571.11	325.33
571.27	248.10
571.43	168.52
571.60	208.31
571.76	196.60
571.92	149.79
572.09	210.65
572.25	234.05
572.41	173.20
572.57	203.63
572.74	212.99
572.90	142.77
573.06	227.03
573.22	173.20
573.38	194.26
573.55	231.71
573.71	203.63
573.87	203.63
574.03	159.16
574.20	222.35
574.36	212.99
574.52	175.54
574.68	149.79
574.84	205.97
575.01	180.22
575.17	191.92
575.33	105.32
575.49	234.05
575.65	198.95
575.82	220.01
575.98	259.80
576.14	187.24
576.30	156.82
576.46	175.54
576.62	180.22
576.79	182.56
576.95	173.20
577.11	159.16
577.27	135.75
577.43	196.60
577.59	264.48
577.75	208.31
577.92	152.13
578.08	243.42
578.24	138.09
578.40	175.54
578.56	229.37
578.72	196.60
578.88	245.76
579.04	107.66
579.21	227.03
579.37	166.18
579.53	175.54
579.69	259.80
579.85	133.41
580.01	166.18
580.17	220.01
580.33	163.84
580.49	215.33
580.65	154.48
580.82	210.65
580.98	189.58
581.14	231.71
581.30	266.82
581.46	243.42
581.62	234.05
581.78	159.16
581.94	292.57
582.10	234.05
582.26	278.52
582.42	187.24
582.58	142.77
582.74	163.84
582.90	175.54
583.06	210.65
583.22	135.75
583.38	170.86
583.54	145.11
583.70	250.44
583.86	156.82
584.02	203.63
584.18	269.16
584.34	215.33
584.50	220.01
584.66	159.16
584.82	180.22
584.98	177.88
585.14	224.69
585.30	196.60
585.46	203.63
585.62	131.07
585.78	175.54
585.94	163.84
586.10	184.90
586.26	163.84
586.42	149.79
586.58	271.50
586.74	168.52
586.90	238.73
587.06	145.11
587.22	142.77
587.38	250.44
587.54	173.20
587.70	217.67
587.86	243.42
588.02	217.67
588.18	182.56
588.34	241.08
588.49	149.79
588.65	152.13
588.81	161.50
588.97	147.45
589.13	140.43
589.29	205.97
589.45	203.63
589.61	210.65
589.77	166.18
589.93	128.73
590.08	135.75
590.24	175.54
590.40	229.37
590.56	180.22
590.72	187.24
590.88	220.01
591.04	187.24
591.20	107.66
591.35	222.35
591.51	140.43
591.67	142.77
591.83	107.66
591.99	170.86
592.15	231.71
592.31	154.48
592.46	250.44
592.62	156.82
592.78	184.90
592.94	110.01
593.10	173.20
593.26	138.09
593.41	182.56
593.57	180.22
593.73	145.11
593.89	276.18
594.05	81.92
594.20	105.32
594.36	177.88
594.52	152.13
594.68	112.35
594.84	194.26
594.99	313.63
595.15	133.41
595.31	215.33
595.47	229.37
595.62	266.82
595.78	114.69
595.94	161.50
596.10	227.03
596.25	222.35
596.41	121.71
596.57	182.56
596.73	189.58
596.88	198.95
597.04	135.75
597.20	112.35
597.36	184.90
597.51	154.48
597.67	124.05
597.83	180.22
597.99	248.10
598.14	161.50
598.30	262.14
598.46	105.32
598.61	140.43
598.77	177.88
598.93	133.41
599.09	212.99
599.24	182.56
599.40	163.84
599.56	180.22
599.71	152.13
599.87	117.03
600.03	170.86
600.18	159.16
600.34	198.95
600.50	182.56
600.65	154.48
600.81	220.01
600.97	131.07
601.12	191.92
601.28	215.33
601.44	168.52
601.59	182.56
601.75	175.54
601.91	156.82
602.06	107.66
602.22	222.35
602.37	161.50
602.53	154.48
602.69	159.16
602.84	110.01
603.00	177.88
603.16	189.58
603.31	222.35
603.47	149.79
603.62	152.13
603.78	173.20
603.94	234.05
604.09	196.60
604.25	250.44
604.40	100.64
604.56	220.01
604.71	140.43
604.87	135.75
605.03	224.69
605.18	212.99
605.34	156.82
605.49	194.26
605.65	198.95
605.80	166.18
605.96	149.79
606.12	229.37
606.27	140.43
606.43	152.13
606.58	184.90
606.74	154.48
606.89	121.71
607.05	234.05
607.20	175.54
607.36	191.92
607.51	180.22
607.67	215.33
607.82	201.29
607.98	152.13
608.13	105.32
608.29	145.11
608.44	264.48
608.60	229.37
608.75	269.16
608.91	201.29
609.06	175.54
609.22	191.92
609.37	177.88
609.53	184.90
609.68	196.60
609.84	159.16
609.99	154.48
610.15	161.50
610.30	196.60
610.46	229.37
610.61	170.86
610.76	161.50
610.92	156.82
611.07	189.58
611.23	177.88
611.38	161.50
611.54	147.45
611.69	131.07
611.84	187.24
612.00	149.79
612.15	149.79
612.31	177.88
612.46	161.50
612.62	126.39
612.77	191.92
612.92	234.05
613.08	264.48
613.23	154.48
613.39	105.32
613.54	191.92
613.69	184.90
613.85	175.54
614.00	205.97
614.15	147.45
614.31	119.37
614.46	161.50
614.62	163.84
614.77	290.23
614.92	156.82
615.08	156.82
615.23	166.18
615.38	135.75
615.54	159.16
615.69	121.71
615.84	182.56
616.00	191.92
616.15	149.79
616.30	217.67
616.46	168.52
616.61	222.35
616.76	201.29
616.92	196.60
617.07	88.94
617.22	182.56
617.37	140.43
617.53	177.88
617.68	222.35
617.83	175.54
617.99	166.18
618.14	241.08
618.29	187.24
618.45	133.41
618.60	173.20
618.75	138.09
618.90	119.37
619.06	168.52
619.21	217.67
619.36	212.99
619.51	142.77
619.67	168.52
619.82	117.03
619.97	117.03
620.12	187.24
620.28	133.41
620.43	241.08
620.58	191.92
620.73	133.41
620.89	243.42
621.04	175.54
621.19	212.99
621.34	112.35
621.49	212.99
621.65	154.48
621.80	119.37
621.95	166.18
622.10	168.52
622.25	163.84
622.41	119.37
622.56	131.07
622.71	191.92
622.86	203.63
623.01	184.90
623.16	180.22
623.32	117.03
623.47	194.26
623.62	166.18
623.77	128.73
623.92	142.77
624.07	173.20
624.23	138.09
624.38	124.05
624.53	196.60
624.68	191.92
624.83	175.54
624.98	208.31
625.13	154.48
625.29	114.69
625.44	189.58
625.59	159.16
625.74	156.82
625.89	107.66
626.04	248.10
626.19	191.92
626.34	119.37
626.49	110.01
626.65	194.26
626.80	135.75
626.95	222.35
627.10	124.05
627.25	182.56
627.40	110.01
627.55	187.24
627.70	121.71
627.85	196.60
628.00	189.58
628.15	142.77
628.30	191.92
628.45	142.77
628.60	140.43
628.76	147.45
628.91	74.90
629.06	182.56
629.21	215.33
629.36	180.22
629.51	117.03
629.66	189.58
629.81	159.16
629.96	159.16
630.11	135.75
630.26	131.07
630.41	170.86
630.56	205.97
630.71	110.01
630.86	166.18
631.01	100.64
631.16	98.30
631.31	180.22
631.46	243.42
631.61	191.92
631.76	159.16
631.91	191.92
632.06	196.60
632.21	124.05
632.36	142.77
632.51	124.05
632.66	168.52
632.81	98.30
632.96	102.98
633.10	175.54
633.25	147.45
633.40	170.86
633.55	210.65
633.70	100.64
633.85	196.60
634.00	168.52
634.15	112.35
634.30	149.79
634.45	126.39
634.60	166.18
634.75	170.86
634.90	170.86
635.05	149.79
635.19	187.24
635.34	102.98
635.49	152.13
635.64	189.58
635.79	145.11
635.94	159.16
636.09	161.50
636.24	154.48
636.39	175.54
636.53	198.95
636.68	159.16
636.83	159.16
636.98	142.77
637.13	175.54
637.28	215.33
637.43	255.12
637.57	140.43
637.72	112.35
637.87	154.48
638.02	145.11
638.17	227.03
638.32	121.71
638.46	203.63
638.61	196.60
638.76	102.98
638.91	84.26
639.06	191.92
639.20	161.50
639.35	222.35
639.50	203.63
639.65	175.54
639.80	149.79
639.94	196.60
640.09	227.03
640.24	196.60
640.39	152.13
640.54	182.56
640.68	152.13
640.83	273.84
640.98	212.99
641.13	131.07
641.27	128.73
641.42	187.24
641.57	198.95
641.72	147.45
641.86	224.69
642.01	112.35
642.16	152.13
642.31	215.33
642.45	229.37
642.60	245.76
642.75	77.24
642.90	145.11
643.04	91.28
643.19	163.84
643.34	58.51
643.48	128.73
643.63	184.90
643.78	159.16
643.93	201.29
644.07	152.13
644.22	117.03
644.37	152.13
644.51	154.48
644.66	126.39
644.81	149.79
644.95	154.48
645.10	112.35
645.25	166.18
645.39	177.88
645.54	196.60
645.69	266.82
645.83	140.43
645.98	217.67
646.13	201.29
646.27	194.26
646.42	133.41
646.57	112.35
646.71	93.62
646.86	149.79
647.00	142.77
647.15	149.79
647.30	149.79
647.44	182.56
647.59	117.03
647.74	72.56
647.88	142.77
648.03	98.30
648.17	142.77
648.32	81.92
648.47	154.48
648.61	180.22
648.76	112.35
648.90	100.64
649.05	168.52
649.20	107.66
649.34	65.54
649.49	161.50
649.63	67.88
649.78	107.66
649.92	93.62
650.07	133.41
650.21	147.45
650.36	138.09
650.51	100.64
650.65	110.01
650.80	222.35
650.94	93.62
651.09	77.24
651.23	163.84
651.38	86.60
651.52	74.90
651.67	175.54
651.81	138.09
651.96	149.79
652.10	173.20
652.25	198.95
652.39	131.07
652.54	175.54
652.68	175.54
652.83	145.11
652.97	180.22
653.12	154.48
653.26	63.19
653.41	133.41
653.55	173.20
653.70	184.90
653.84	189.58
653.99	117.03
654.13	107.66
654.27	196.60
654.42	117.03
654.56	114.69
654.71	86.60
654.85	184.90
655.00	131.07
655.14	161.50
655.29	93.62
655.43	142.77
655.57	168.52
655.72	189.58
655.86	145.11
656.01	124.05
656.15	74.90
656.30	194.26
656.44	128.73
656.58	131.07
656.73	163.84
656.87	117.03
657.01	191.92
657.16	234.05
657.30	168.52
657.45	266.82
657.59	84.26
657.73	100.64
657.88	133.41
658.02	224.69
658.16	124.05
658.31	210.65
658.45	93.62
658.60	98.30
658.74	166.18
658.88	84.26
659.03	156.82
659.17	98.30
659.31	159.16
659.46	191.92
659.60	180.22
659.74	98.30
659.89	128.73
660.03	107.66
660.17	203.63
660.32	128.73
660.46	114.69
660.60	77.24
660.74	161.50
660.89	79.58
661.03	194.26
661.17	170.86
661.32	138.09
661.46	145.11
661.60	77.24
661.74	49.15
661.89	196.60
662.03	58.51
662.17	133.41
662.31	187.24
662.46	95.96
662.60	79.58
662.74	133.41
662.88	119.37
663.03	100.64
663.17	88.94
663.31	98.30
663.45	154.48
663.60	114.69
663.74	156.82
663.88	81.92
664.02	138.09
664.17	177.88
664.31	98.30
664.45	121.71
664.59	138.09
664.73	117.03
664.88	112.35
665.02	110.01
665.16	95.96
665.30	161.50
665.44	145.11
665.59	149.79
665.73	145.11
665.87	63.19
666.01	114.69
666.15	220.01
666.29	138.09
666.44	191.92
666.58	152.13
666.72	161.50
666.86	194.26
667.00	53.83
667.14	72.56
667.28	159.16
667.43	121.71
667.57	107.66
667.71	182.56
667.85	131.07
667.99	187.24
668.13	154.48
668.27	161.50
668.41	107.66
668.56	98.30
668.70	201.29
668.84	163.84
668.98	154.48
669.12	107.66
669.26	135.75
669.40	252.78
669.54	152.13
669.68	175.54
669.82	152.13
669.96	119.37
670.10	138.09
670.25	205.97
670.39	84.26
670.53	74.90
670.67	159.16
670.81	126.39
670.95	91.28
671.09	121.71
671.23	138.09
671.37	86.60
671.51	88.94
671.65	117.03
671.79	107.66
671.93	124.05
672.07	154.48
672.21	184.90
672.35	152.13
672.49	238.73
672.63	86.60
672.77	95.96
672.91	189.58
673.05	203.63
673.19	149.79
673.33	147.45
673.47	203.63
673.61	198.95
673.75	138.09
673.89	142.77
674.03	117.03
674.17	173.20
674.31	166.18
674.45	95.96
674.59	110.01
674.73	98.30
674.87	110.01
675.01	135.75
675.15	124.05
675.29	128.73
675.43	142.77
675.56	154.48
675.70	131.07
675.84	168.52
675.98	133.41
676.12	56.17
676.26	84.26
676.40	156.82
676.54	70.22
676.68	121.71
676.82	114.69
676.96	131.07
677.10	147.45
677.23	142.77
677.37	110.01
677.51	128.73
677.65	220.01
677.79	154.48
677.93	124.05
678.07	142.77
678.21	182.56
678.34	107.66
678.48	84.26
678.62	138.09
678.76	88.94
678.90	145.11
679.04	67.88
679.18	117.03
679.31	126.39
679.45	84.26
679.59	86.60
679.73	140.43
679.87	98.30
680.00	102.98
680.14	124.05
680.28	194.26
680.42	65.54
680.56	112.35
680.70	168.52
680.83	163.84
680.97	98.30
681.11	88.94
681.25	88.94
681.39	154.48
681.52	100.64
681.66	180.22
681.80	154.48
681.94	91.28
682.07	133.41
682.21	145.11
682.35	133.41
682.49	107.66
682.62	191.92
682.76	74.90
682.90	110.01
683.04	51.49
683.17	212.99
683.31	170.86
683.45	135.75
683.59	191.92
683.72	142.77
683.86	166.18
684.00	91.28
684.13	135.75
684.27	177.88
684.41	126.39
684.55	161.50
684.68	81.92
684.82	112.35
684.96	184.90
685.09	88.94
685.23	86.60
685.37	110.01
685.50	112.35
685.64	208.31
685.78	121.71
685.91	159.16
686.05	156.82
686.19	93.62
686.32	39.79
686.46	121.71
686.60	117.03
686.73	138.09
686.87	74.90
687.01	124.05
687.14	86.60
687.28	86.60
687.42	126.39
687.55	112.35
687.69	110.01
687.82	152.13
687.96	70.22
688.10	140.43
688.23	163.84
688.37	138.09
688.50	128.73
688.64	65.54
688.78	72.56
688.91	18.72
689.05	46.81
689.18	117.03
689.32	149.79
689.46	72.56
689.59	201.29
689.73	112.35
689.86	133.41
690.00	51.49
690.13	63.19
690.27	53.83
690.41	91.28
690.54	138.09
690.68	95.96
690.81	84.26
690.95	44.47
691.08	147.45
691.22	60.85
691.35	65.54
691.49	117.03
691.62	126.39
691.76	56.17
691.89	110.01
692.03	100.64
692.16	93.62
692.30	168.52
692.43	65.54
692.57	131.07
692.70	56.17
692.84	100.64
692.97	77.24
693.11	105.32
693.24	67.88
693.38	112.35
693.51	117.03
693.65	107.66
693.78	67.88
693.92	86.60
694.05	110.01
694.19	133.41
694.32	91.28
694.45	110.01
694.59	77.24
694.72	77.24
694.86	124.05
694.99	119.37
695.13	119.37
695.26	79.58
695.39	102.98
695.53	168.52
695.66	91.28
695.80	58.51
695.93	102.98
696.07	91.28
696.20	42.13
696.33	86.60
696.47	74.90
696.60	131.07
696.73	77.24
696.87	135.75
697.00	180.22
697.14	84.26
697.27	98.30
697.40	220.01
697.54	65.54
697.67	93.62
697.80	135.75
697.94	79.58
698.07	102.98
698.21	145.11
698.34	159.16
698.47	91.28
698.61	70.22
698.74	177.88
698.87	128.73
699.01	152.13
699.14	79.58
699.27	142.77
699.40	203.63
699.54	133.41
699.67	105.32
699.80	0.00
699.94	86.60
700.07	107.66
700.20	173.20
700.34	9.36
700.47	86.60
700.60	67.88
700.73	72.56
700.87	145.11
701.00	119.37
701.13	135.75
701.26	88.94
701.40	149.79
701.53	114.69
701.66	128.73
701.79	159.16
701.93	98.30
702.06	72.56
702.19	63.19
702.32	133.41
702.46	60.85
702.59	100.64
702.72	74.90
702.85	117.03
702.99	142.77
703.12	135.75
703.25	74.90
703.38	131.07
703.51	154.48
703.65	77.24
703.78	63.19
703.91	114.69
704.04	81.92
704.17	32.77
704.31	39.79
704.44	98.30
704.57	145.11
704.70	126.39
704.83	124.05
704.96	58.51
705.10	112.35
705.23	105.32
>>>>>End Processed Spectral Data<<<<<
