SpectraSuite Data File
++++++++++++++++++++++++++++++++++++
Date: Fri Oct 04 11:51:06 GMT-05:00 2013
User: price-jones
Dark Spectrum Present: No
Reference Spectrum Present: No
Number of Sampled Component Spectra: 1
Spectrometers: USB2+H05261
Integration Time (usec): 100000 (USB2+H05261)
Spectra Averaged: 1 (USB2+H05261)
Boxcar Smoothing: 0 (USB2+H05261)
Correct for Electrical Dark: No (USB2+H05261)
Strobe/Lamp Enabled: No (USB2+H05261)
Correct for Detector Non-linearity: No (USB2+H05261)
Correct for Stray Light: No (USB2+H05261)
Number of Pixels in Processed Spectrum: 2048
>>>>>Begin Processed Spectral Data<<<<<
365.73	11.70
365.92	11.70
366.12	11.70
366.32	0.00
366.52	0.00
366.72	0.00
366.91	0.00
367.11	0.00
367.31	0.00
367.51	0.00
367.70	0.00
367.90	0.00
368.10	0.00
368.30	0.00
368.49	0.00
368.69	0.00
368.89	0.00
369.09	0.00
369.28	0.00
369.48	0.00
369.68	0.00
369.87	0.00
370.07	0.00
370.27	0.00
370.47	28.09
370.66	2.34
370.86	18.72
371.06	37.45
371.25	114.69
371.45	30.43
371.65	81.92
371.84	32.77
372.04	95.96
372.24	93.62
372.44	0.00
372.63	30.43
372.83	135.75
373.03	56.17
373.22	79.58
373.42	166.18
373.62	117.03
373.81	72.56
374.01	112.35
374.21	63.19
374.40	77.24
374.60	70.22
374.79	86.60
374.99	51.49
375.19	79.58
375.38	135.75
375.58	46.81
375.78	114.69
375.97	98.30
376.17	105.32
376.37	77.24
376.56	124.05
376.76	67.88
376.95	135.75
377.15	117.03
377.35	93.62
377.54	53.83
377.74	72.56
377.93	100.64
378.13	100.64
378.33	58.51
378.52	159.16
378.72	32.77
378.91	35.11
379.11	112.35
379.31	100.64
379.50	4.68
379.70	124.05
379.89	105.32
380.09	49.15
380.28	100.64
380.48	86.60
380.68	49.15
380.87	72.56
381.07	32.77
381.26	124.05
381.46	84.26
381.65	140.43
381.85	128.73
382.04	124.05
382.24	100.64
382.43	39.79
382.63	44.47
382.83	107.66
383.02	163.84
383.22	112.35
383.41	51.49
383.61	74.90
383.80	0.00
384.00	23.41
384.19	105.32
384.39	147.45
384.58	7.02
384.78	107.66
384.97	56.17
385.17	114.69
385.36	72.56
385.56	121.71
385.75	72.56
385.95	18.72
386.14	93.62
386.34	72.56
386.53	110.01
386.72	177.88
386.92	182.56
387.11	28.09
387.31	126.39
387.50	84.26
387.70	126.39
387.89	56.17
388.09	105.32
388.28	88.94
388.48	51.49
388.67	110.01
388.86	88.94
389.06	28.09
389.25	56.17
389.45	140.43
389.64	119.37
389.84	39.79
390.03	102.98
390.22	117.03
390.42	58.51
390.61	28.09
390.81	128.73
391.00	138.09
391.19	28.09
391.39	110.01
391.58	124.05
391.78	56.17
391.97	44.47
392.16	77.24
392.36	70.22
392.55	95.96
392.75	93.62
392.94	93.62
393.13	121.71
393.33	81.92
393.52	30.43
393.71	81.92
393.91	56.17
394.10	110.01
394.29	37.45
394.49	67.88
394.68	107.66
394.88	67.88
395.07	105.32
395.26	51.49
395.46	81.92
395.65	81.92
395.84	74.90
396.04	152.13
396.23	74.90
396.42	124.05
396.62	88.94
396.81	77.24
397.00	102.98
397.19	114.69
397.39	110.01
397.58	84.26
397.77	105.32
397.97	46.81
398.16	91.28
398.35	58.51
398.55	74.90
398.74	112.35
398.93	67.88
399.12	21.06
399.32	159.16
399.51	140.43
399.70	88.94
399.90	112.35
400.09	124.05
400.28	86.60
400.47	49.15
400.67	91.28
400.86	159.16
401.05	70.22
401.24	187.24
401.44	124.05
401.63	86.60
401.82	156.82
402.01	156.82
402.21	65.54
402.40	182.56
402.59	46.81
402.78	100.64
402.97	110.01
403.17	93.62
403.36	84.26
403.55	100.64
403.74	100.64
403.93	35.11
404.13	74.90
404.32	98.30
404.51	88.94
404.70	114.69
404.89	91.28
405.09	142.77
405.28	133.41
405.47	72.56
405.66	147.45
405.85	107.66
406.05	70.22
406.24	86.60
406.43	51.49
406.62	91.28
406.81	93.62
407.00	93.62
407.20	65.54
407.39	93.62
407.58	44.47
407.77	112.35
407.96	145.11
408.15	117.03
408.34	53.83
408.54	74.90
408.73	91.28
408.92	30.43
409.11	91.28
409.30	100.64
409.49	95.96
409.68	21.06
409.87	112.35
410.07	74.90
410.26	84.26
410.45	70.22
410.64	135.75
410.83	63.19
411.02	95.96
411.21	147.45
411.40	119.37
411.59	124.05
411.78	93.62
411.98	121.71
412.17	100.64
412.36	67.88
412.55	79.58
412.74	93.62
412.93	133.41
413.12	63.19
413.31	145.11
413.50	138.09
413.69	65.54
413.88	105.32
414.07	131.07
414.26	121.71
414.45	128.73
414.64	56.17
414.83	161.50
415.02	117.03
415.22	124.05
415.41	168.52
415.60	37.45
415.79	44.47
415.98	126.39
416.17	112.35
416.36	159.16
416.55	51.49
416.74	91.28
416.93	140.43
417.12	98.30
417.31	140.43
417.50	102.98
417.69	112.35
417.88	133.41
418.07	138.09
418.26	37.45
418.45	21.06
418.64	124.05
418.83	154.48
419.02	138.09
419.21	161.50
419.39	142.77
419.58	95.96
419.77	88.94
419.96	88.94
420.15	170.86
420.34	102.98
420.53	128.73
420.72	140.43
420.91	105.32
421.10	58.51
421.29	49.15
421.48	84.26
421.67	180.22
421.86	65.54
422.05	93.62
422.24	77.24
422.43	28.09
422.61	18.72
422.80	147.45
422.99	95.96
423.18	112.35
423.37	140.43
423.56	135.75
423.75	166.18
423.94	149.79
424.13	142.77
424.32	110.01
424.50	220.01
424.69	100.64
424.88	145.11
425.07	42.13
425.26	84.26
425.45	95.96
425.64	100.64
425.83	74.90
426.01	114.69
426.20	145.11
426.39	18.72
426.58	79.58
426.77	145.11
426.96	201.29
427.15	152.13
427.33	63.19
427.52	126.39
427.71	112.35
427.90	182.56
428.09	51.49
428.28	88.94
428.46	58.51
428.65	124.05
428.84	58.51
429.03	173.20
429.22	152.13
429.40	100.64
429.59	102.98
429.78	177.88
429.97	100.64
430.16	44.47
430.34	91.28
430.53	95.96
430.72	191.92
430.91	100.64
431.10	53.83
431.28	44.47
431.47	133.41
431.66	170.86
431.85	117.03
432.03	117.03
432.22	154.48
432.41	128.73
432.60	163.84
432.79	70.22
432.97	166.18
433.16	91.28
433.35	65.54
433.54	70.22
433.72	133.41
433.91	91.28
434.10	126.39
434.28	156.82
434.47	159.16
434.66	161.50
434.85	107.66
435.03	105.32
435.22	88.94
435.41	135.75
435.59	86.60
435.78	74.90
435.97	161.50
436.16	138.09
436.34	163.84
436.53	154.48
436.72	135.75
436.90	142.77
437.09	152.13
437.28	107.66
437.46	170.86
437.65	119.37
437.84	182.56
438.02	135.75
438.21	102.98
438.40	177.88
438.58	145.11
438.77	16.38
438.96	112.35
439.14	105.32
439.33	161.50
439.52	67.88
439.70	119.37
439.89	170.86
440.08	124.05
440.26	88.94
440.45	156.82
440.63	147.45
440.82	154.48
441.01	121.71
441.19	100.64
441.38	112.35
441.57	98.30
441.75	121.71
441.94	86.60
442.12	126.39
442.31	117.03
442.50	140.43
442.68	84.26
442.87	152.13
443.05	142.77
443.24	60.85
443.43	154.48
443.61	159.16
443.80	91.28
443.98	46.81
444.17	131.07
444.35	142.77
444.54	49.15
444.73	84.26
444.91	124.05
445.10	72.56
445.28	117.03
445.47	149.79
445.65	86.60
445.84	93.62
446.02	23.41
446.21	70.22
446.39	126.39
446.58	117.03
446.77	147.45
446.95	135.75
447.14	194.26
447.32	194.26
447.51	126.39
447.69	196.60
447.88	161.50
448.06	156.82
448.25	152.13
448.43	147.45
448.62	121.71
448.80	124.05
448.99	105.32
449.17	166.18
449.36	100.64
449.54	110.01
449.73	81.92
449.91	224.69
450.10	121.71
450.28	259.80
450.46	156.82
450.65	159.16
450.83	152.13
451.02	112.35
451.20	117.03
451.39	142.77
451.57	166.18
451.76	173.20
451.94	180.22
452.13	93.62
452.31	163.84
452.49	102.98
452.68	131.07
452.86	86.60
453.05	194.26
453.23	168.52
453.42	152.13
453.60	117.03
453.78	98.30
453.97	72.56
454.15	86.60
454.34	140.43
454.52	114.69
454.70	114.69
454.89	91.28
455.07	72.56
455.26	147.45
455.44	166.18
455.62	91.28
455.81	112.35
455.99	152.13
456.17	205.97
456.36	95.96
456.54	105.32
456.73	126.39
456.91	145.11
457.09	248.10
457.28	100.64
457.46	142.77
457.64	187.24
457.83	91.28
458.01	124.05
458.19	135.75
458.38	114.69
458.56	112.35
458.74	112.35
458.93	72.56
459.11	175.54
459.29	180.22
459.48	173.20
459.66	128.73
459.84	147.45
460.03	149.79
460.21	110.01
460.39	145.11
460.57	124.05
460.76	124.05
460.94	88.94
461.12	147.45
461.31	149.79
461.49	173.20
461.67	175.54
461.85	107.66
462.04	161.50
462.22	554.71
462.40	149.79
462.59	191.92
462.77	112.35
462.95	173.20
463.13	156.82
463.32	156.82
463.50	140.43
463.68	117.03
463.86	126.39
464.05	102.98
464.23	194.26
464.41	177.88
464.59	100.64
464.78	140.43
464.96	126.39
465.14	196.60
465.32	124.05
465.50	128.73
465.69	229.37
465.87	168.52
466.05	170.86
466.23	88.94
466.41	154.48
466.60	149.79
466.78	187.24
466.96	154.48
467.14	154.48
467.32	152.13
467.51	105.32
467.69	81.92
467.87	163.84
468.05	135.75
468.23	147.45
468.41	159.16
468.60	114.69
468.78	91.28
468.96	105.32
469.14	166.18
469.32	77.24
469.50	140.43
469.69	184.90
469.87	170.86
470.05	145.11
470.23	163.84
470.41	187.24
470.59	84.26
470.77	112.35
470.95	156.82
471.14	168.52
471.32	100.64
471.50	114.69
471.68	124.05
471.86	121.71
472.04	131.07
472.22	147.45
472.40	173.20
472.58	229.37
472.77	91.28
472.95	95.96
473.13	196.60
473.31	166.18
473.49	117.03
473.67	93.62
473.85	166.18
474.03	152.13
474.21	119.37
474.39	140.43
474.57	203.63
474.75	152.13
474.93	133.41
475.12	128.73
475.30	110.01
475.48	166.18
475.66	147.45
475.84	110.01
476.02	124.05
476.20	142.77
476.38	140.43
476.56	107.66
476.74	121.71
476.92	98.30
477.10	128.73
477.28	124.05
477.46	173.20
477.64	117.03
477.82	102.98
478.00	154.48
478.18	60.85
478.36	180.22
478.54	107.66
478.72	159.16
478.90	173.20
479.08	170.86
479.26	159.16
479.44	135.75
479.62	177.88
479.80	180.22
479.98	145.11
480.16	163.84
480.34	177.88
480.52	98.30
480.70	135.75
480.88	119.37
481.06	180.22
481.24	205.97
481.41	105.32
481.59	105.32
481.77	100.64
481.95	124.05
482.13	194.26
482.31	135.75
482.49	133.41
482.67	126.39
482.85	177.88
483.03	140.43
483.21	152.13
483.39	140.43
483.57	208.31
483.74	149.79
483.92	98.30
484.10	119.37
484.28	250.44
484.46	208.31
484.64	175.54
484.82	189.58
485.00	170.86
485.18	168.52
485.35	177.88
485.53	102.98
485.71	152.13
485.89	170.86
486.07	210.65
486.25	177.88
486.43	241.08
486.61	194.26
486.78	234.05
486.96	166.18
487.14	184.90
487.32	182.56
487.50	187.24
487.68	117.03
487.85	117.03
488.03	175.54
488.21	241.08
488.39	147.45
488.57	152.13
488.75	105.32
488.92	369.80
489.10	147.45
489.28	229.37
489.46	102.98
489.64	149.79
489.81	285.55
489.99	189.58
490.17	135.75
490.35	264.48
490.53	168.52
490.70	138.09
490.88	180.22
491.06	166.18
491.24	175.54
491.41	198.95
491.59	198.95
491.77	156.82
491.95	147.45
492.13	91.28
492.30	140.43
492.48	182.56
492.66	154.48
492.84	159.16
493.01	194.26
493.19	117.03
493.37	241.08
493.54	194.26
493.72	292.57
493.90	194.26
494.08	147.45
494.25	156.82
494.43	224.69
494.61	203.63
494.79	161.50
494.96	166.18
495.14	205.97
495.32	79.58
495.49	215.33
495.67	222.35
495.85	126.39
496.02	154.48
496.20	184.90
496.38	191.92
496.55	84.26
496.73	250.44
496.91	166.18
497.09	180.22
497.26	224.69
497.44	285.55
497.62	138.09
497.79	173.20
497.97	107.66
498.14	170.86
498.32	191.92
498.50	173.20
498.67	140.43
498.85	215.33
499.03	161.50
499.20	224.69
499.38	161.50
499.56	135.75
499.73	255.12
499.91	166.18
500.08	236.39
500.26	152.13
500.44	173.20
500.61	205.97
500.79	161.50
500.97	250.44
501.14	189.58
501.32	154.48
501.49	133.41
501.67	194.26
501.84	119.37
502.02	203.63
502.20	224.69
502.37	210.65
502.55	189.58
502.72	159.16
502.90	271.50
503.07	257.46
503.25	194.26
503.43	161.50
503.60	98.30
503.78	166.18
503.95	201.29
504.13	98.30
504.30	241.08
504.48	245.76
504.65	231.71
504.83	191.92
505.01	227.03
505.18	168.52
505.36	191.92
505.53	175.54
505.71	149.79
505.88	273.84
506.06	184.90
506.23	220.01
506.41	119.37
506.58	224.69
506.76	149.79
506.93	156.82
507.11	142.77
507.28	163.84
507.46	168.52
507.63	138.09
507.81	170.86
507.98	187.24
508.16	131.07
508.33	212.99
508.50	168.52
508.68	177.88
508.85	245.76
509.03	140.43
509.20	173.20
509.38	292.57
509.55	252.78
509.73	159.16
509.90	166.18
510.08	182.56
510.25	208.31
510.42	269.16
510.60	208.31
510.77	135.75
510.95	177.88
511.12	152.13
511.30	205.97
511.47	262.14
511.64	280.86
511.82	217.67
511.99	194.26
512.17	182.56
512.34	196.60
512.51	138.09
512.69	152.13
512.86	170.86
513.04	166.18
513.21	229.37
513.38	142.77
513.56	205.97
513.73	252.78
513.90	170.86
514.08	266.82
514.25	180.22
514.43	210.65
514.60	189.58
514.77	140.43
514.95	231.71
515.12	212.99
515.29	201.29
515.47	210.65
515.64	161.50
515.81	161.50
515.99	238.73
516.16	229.37
516.33	140.43
516.51	262.14
516.68	117.03
516.85	142.77
517.03	154.48
517.20	182.56
517.37	182.56
517.54	266.82
517.72	234.05
517.89	243.42
518.06	208.31
518.24	299.59
518.41	276.18
518.58	252.78
518.75	212.99
518.93	191.92
519.10	222.35
519.27	222.35
519.45	182.56
519.62	262.14
519.79	241.08
519.96	224.69
520.14	229.37
520.31	215.33
520.48	117.03
520.65	198.95
520.83	227.03
521.00	248.10
521.17	156.82
521.34	208.31
521.52	203.63
521.69	257.46
521.86	175.54
522.03	189.58
522.20	262.14
522.38	135.75
522.55	194.26
522.72	177.88
522.89	208.31
523.07	266.82
523.24	227.03
523.41	241.08
523.58	252.78
523.75	315.97
523.92	227.03
524.10	227.03
524.27	215.33
524.44	234.05
524.61	245.76
524.78	140.43
524.96	189.58
525.13	255.12
525.30	255.12
525.47	220.01
525.64	180.22
525.81	149.79
525.98	124.05
526.16	257.46
526.33	173.20
526.50	159.16
526.67	191.92
526.84	154.48
527.01	180.22
527.18	224.69
527.36	266.82
527.53	166.18
527.70	201.29
527.87	180.22
528.04	250.44
528.21	173.20
528.38	149.79
528.55	224.69
528.72	299.59
528.89	299.59
529.07	180.22
529.24	142.77
529.41	250.44
529.58	210.65
529.75	187.24
529.92	255.12
530.09	257.46
530.26	262.14
530.43	269.16
530.60	149.79
530.77	234.05
530.94	191.92
531.11	257.46
531.28	208.31
531.46	182.56
531.63	238.73
531.80	208.31
531.97	252.78
532.14	259.80
532.31	273.84
532.48	229.37
532.65	248.10
532.82	184.90
532.99	182.56
533.16	245.76
533.33	100.64
533.50	184.90
533.67	234.05
533.84	201.29
534.01	166.18
534.18	187.24
534.35	217.67
534.52	264.48
534.69	262.14
534.86	273.84
535.03	175.54
535.20	156.82
535.37	145.11
535.54	224.69
535.71	224.69
535.88	184.90
536.05	238.73
536.22	187.24
536.38	147.45
536.55	271.50
536.72	294.91
536.89	175.54
537.06	182.56
537.23	173.20
537.40	257.46
537.57	163.84
537.74	222.35
537.91	180.22
538.08	191.92
538.25	276.18
538.42	252.78
538.59	217.67
538.75	205.97
538.92	250.44
539.09	243.42
539.26	203.63
539.43	220.01
539.60	159.16
539.77	210.65
539.94	198.95
540.11	222.35
540.28	259.80
540.44	255.12
540.61	180.22
540.78	248.10
540.95	191.92
541.12	278.52
541.29	217.67
541.46	346.40
541.62	224.69
541.79	210.65
541.96	119.37
542.13	252.78
542.30	142.77
542.47	248.10
542.63	212.99
542.80	191.92
542.97	236.39
543.14	222.35
543.31	252.78
543.48	166.18
543.64	187.24
543.81	250.44
543.98	191.92
544.15	189.58
544.32	107.66
544.48	173.20
544.65	189.58
544.82	215.33
544.99	301.93
545.16	259.80
545.32	198.95
545.49	212.99
545.66	252.78
545.83	224.69
546.00	154.48
546.16	168.52
546.33	187.24
546.50	170.86
546.67	175.54
546.83	210.65
547.00	266.82
547.17	203.63
547.34	259.80
547.50	252.78
547.67	306.61
547.84	173.20
548.00	168.52
548.17	220.01
548.34	241.08
548.51	220.01
548.67	248.10
548.84	140.43
549.01	194.26
549.18	187.24
549.34	250.44
549.51	252.78
549.68	252.78
549.84	163.84
550.01	229.37
550.18	320.65
550.34	205.97
550.51	128.73
550.68	198.95
550.84	180.22
551.01	215.33
551.18	170.86
551.34	229.37
551.51	229.37
551.68	177.88
551.84	262.14
552.01	191.92
552.18	250.44
552.34	224.69
552.51	201.29
552.68	142.77
552.84	163.84
553.01	215.33
553.18	220.01
553.34	163.84
553.51	114.69
553.67	196.60
553.84	177.88
554.01	278.52
554.17	170.86
554.34	189.58
554.51	210.65
554.67	210.65
554.84	152.13
555.00	205.97
555.17	203.63
555.33	203.63
555.50	208.31
555.67	266.82
555.83	159.16
556.00	168.52
556.16	376.83
556.33	210.65
556.50	215.33
556.66	159.16
556.83	194.26
556.99	184.90
557.16	269.16
557.32	152.13
557.49	175.54
557.65	203.63
557.82	170.86
557.98	252.78
558.15	180.22
558.32	168.52
558.48	252.78
558.65	142.77
558.81	149.79
558.98	220.01
559.14	184.90
559.31	198.95
559.47	222.35
559.64	191.92
559.80	217.67
559.97	133.41
560.13	241.08
560.30	154.48
560.46	196.60
560.63	215.33
560.79	220.01
560.96	173.20
561.12	166.18
561.29	163.84
561.45	227.03
561.61	163.84
561.78	322.99
561.94	212.99
562.11	177.88
562.27	205.97
562.44	224.69
562.60	266.82
562.77	252.78
562.93	252.78
563.10	168.52
563.26	175.54
563.42	269.16
563.59	163.84
563.75	229.37
563.92	205.97
564.08	163.84
564.24	182.56
564.41	231.71
564.57	189.58
564.74	175.54
564.90	224.69
565.07	184.90
565.23	245.76
565.39	234.05
565.56	215.33
565.72	189.58
565.88	91.28
566.05	271.50
566.21	161.50
566.38	166.18
566.54	264.48
566.70	224.69
566.87	194.26
567.03	184.90
567.19	177.88
567.36	236.39
567.52	159.16
567.68	255.12
567.85	241.08
568.01	173.20
568.17	133.41
568.34	138.09
568.50	220.01
568.66	170.86
568.83	248.10
568.99	184.90
569.15	231.71
569.32	135.75
569.48	205.97
569.64	182.56
569.81	152.13
569.97	189.58
570.13	210.65
570.30	128.73
570.46	159.16
570.62	182.56
570.78	222.35
570.95	182.56
571.11	208.31
571.27	203.63
571.43	180.22
571.60	184.90
571.76	210.65
571.92	173.20
572.09	191.92
572.25	196.60
572.41	117.03
572.57	184.90
572.74	231.71
572.90	229.37
573.06	248.10
573.22	241.08
573.38	273.84
573.55	205.97
573.71	283.20
573.87	203.63
574.03	191.92
574.20	217.67
574.36	266.82
574.52	159.16
574.68	184.90
574.84	180.22
575.01	201.29
575.17	177.88
575.33	191.92
575.49	191.92
575.65	212.99
575.82	215.33
575.98	222.35
576.14	203.63
576.30	175.54
576.46	180.22
576.62	173.20
576.79	142.77
576.95	287.89
577.11	177.88
577.27	110.01
577.43	184.90
577.59	241.08
577.75	215.33
577.92	156.82
578.08	135.75
578.24	161.50
578.40	205.97
578.56	166.18
578.72	212.99
578.88	208.31
579.04	203.63
579.21	203.63
579.37	222.35
579.53	229.37
579.69	243.42
579.85	203.63
580.01	212.99
580.17	220.01
580.33	212.99
580.49	203.63
580.65	196.60
580.82	229.37
580.98	180.22
581.14	196.60
581.30	215.33
581.46	196.60
581.62	145.11
581.78	227.03
581.94	252.78
582.10	117.03
582.26	161.50
582.42	205.97
582.58	187.24
582.74	180.22
582.90	210.65
583.06	212.99
583.22	236.39
583.38	170.86
583.54	205.97
583.70	173.20
583.86	198.95
584.02	198.95
584.18	217.67
584.34	191.92
584.50	217.67
584.66	238.73
584.82	189.58
584.98	163.84
585.14	241.08
585.30	222.35
585.46	205.97
585.62	234.05
585.78	187.24
585.94	243.42
586.10	147.45
586.26	177.88
586.42	241.08
586.58	180.22
586.74	201.29
586.90	149.79
587.06	262.14
587.22	131.07
587.38	180.22
587.54	166.18
587.70	170.86
587.86	187.24
588.02	170.86
588.18	154.48
588.34	140.43
588.49	112.35
588.65	133.41
588.81	114.69
588.97	175.54
589.13	159.16
589.29	166.18
589.45	210.65
589.61	201.29
589.77	180.22
589.93	170.86
590.08	224.69
590.24	112.35
590.40	126.39
590.56	142.77
590.72	234.05
590.88	191.92
591.04	194.26
591.20	245.76
591.35	198.95
591.51	149.79
591.67	131.07
591.83	180.22
591.99	152.13
592.15	217.67
592.31	229.37
592.46	124.05
592.62	224.69
592.78	126.39
592.94	184.90
593.10	262.14
593.26	203.63
593.41	203.63
593.57	215.33
593.73	117.03
593.89	187.24
594.05	166.18
594.20	110.01
594.36	142.77
594.52	110.01
594.68	182.56
594.84	208.31
594.99	227.03
595.15	187.24
595.31	257.46
595.47	245.76
595.62	203.63
595.78	212.99
595.94	138.09
596.10	245.76
596.25	191.92
596.41	234.05
596.57	147.45
596.73	166.18
596.88	227.03
597.04	138.09
597.20	166.18
597.36	142.77
597.51	180.22
597.67	198.95
597.83	147.45
597.99	196.60
598.14	140.43
598.30	257.46
598.46	198.95
598.61	248.10
598.77	227.03
598.93	198.95
599.09	236.39
599.24	236.39
599.40	194.26
599.56	238.73
599.71	159.16
599.87	145.11
600.03	159.16
600.18	135.75
600.34	168.52
600.50	138.09
600.65	187.24
600.81	152.13
600.97	110.01
601.12	147.45
601.28	231.71
601.44	229.37
601.59	135.75
601.75	145.11
601.91	262.14
602.06	227.03
602.22	269.16
602.37	264.48
602.53	152.13
602.69	152.13
602.84	112.35
603.00	243.42
603.16	255.12
603.31	175.54
603.47	220.01
603.62	152.13
603.78	184.90
603.94	203.63
604.09	177.88
604.25	159.16
604.40	168.52
604.56	110.01
604.71	138.09
604.87	168.52
605.03	257.46
605.18	91.28
605.34	201.29
605.49	266.82
605.65	156.82
605.80	161.50
605.96	175.54
606.12	154.48
606.27	201.29
606.43	175.54
606.58	196.60
606.74	159.16
606.89	149.79
607.05	208.31
607.20	166.18
607.36	184.90
607.51	152.13
607.67	175.54
607.82	131.07
607.98	273.84
608.13	170.86
608.29	191.92
608.44	255.12
608.60	163.84
608.75	231.71
608.91	121.71
609.06	248.10
609.22	198.95
609.37	140.43
609.53	173.20
609.68	184.90
609.84	147.45
609.99	117.03
610.15	177.88
610.30	140.43
610.46	208.31
610.61	205.97
610.76	149.79
610.92	156.82
611.07	161.50
611.23	196.60
611.38	231.71
611.54	173.20
611.69	175.54
611.84	110.01
612.00	224.69
612.15	173.20
612.31	191.92
612.46	196.60
612.62	220.01
612.77	166.18
612.92	191.92
613.08	222.35
613.23	229.37
613.39	121.71
613.54	142.77
613.69	231.71
613.85	210.65
614.00	177.88
614.15	283.20
614.31	187.24
614.46	107.66
614.62	117.03
614.77	166.18
614.92	180.22
615.08	198.95
615.23	180.22
615.38	198.95
615.54	173.20
615.69	180.22
615.84	163.84
616.00	166.18
616.15	163.84
616.30	175.54
616.46	81.92
616.61	159.16
616.76	198.95
616.92	133.41
617.07	133.41
617.22	100.64
617.37	93.62
617.53	231.71
617.68	135.75
617.83	142.77
617.99	248.10
618.14	212.99
618.29	194.26
618.45	95.96
618.60	198.95
618.75	264.48
618.90	105.32
619.06	119.37
619.21	198.95
619.36	212.99
619.51	163.84
619.67	149.79
619.82	203.63
619.97	173.20
620.12	234.05
620.28	145.11
620.43	163.84
620.58	189.58
620.73	138.09
620.89	112.35
621.04	84.26
621.19	182.56
621.34	173.20
621.49	187.24
621.65	229.37
621.80	175.54
621.95	159.16
622.10	168.52
622.25	128.73
622.41	224.69
622.56	168.52
622.71	187.24
622.86	119.37
623.01	236.39
623.16	182.56
623.32	159.16
623.47	147.45
623.62	182.56
623.77	177.88
623.92	135.75
624.07	189.58
624.23	133.41
624.38	159.16
624.53	138.09
624.68	220.01
624.83	159.16
624.98	187.24
625.13	140.43
625.29	131.07
625.44	100.64
625.59	149.79
625.74	180.22
625.89	154.48
626.04	140.43
626.19	163.84
626.34	170.86
626.49	205.97
626.65	208.31
626.80	187.24
626.95	177.88
627.10	147.45
627.25	180.22
627.40	163.84
627.55	86.60
627.70	220.01
627.85	142.77
628.00	173.20
628.15	131.07
628.30	191.92
628.45	180.22
628.60	135.75
628.76	182.56
628.91	220.01
629.06	142.77
629.21	175.54
629.36	175.54
629.51	119.37
629.66	105.32
629.81	238.73
629.96	196.60
630.11	187.24
630.26	145.11
630.41	138.09
630.56	175.54
630.71	121.71
630.86	79.58
631.01	161.50
631.16	119.37
631.31	124.05
631.46	161.50
631.61	88.94
631.76	180.22
631.91	110.01
632.06	180.22
632.21	180.22
632.36	161.50
632.51	110.01
632.66	166.18
632.81	168.52
632.96	140.43
633.10	159.16
633.25	177.88
633.40	161.50
633.55	262.14
633.70	114.69
633.85	194.26
634.00	161.50
634.15	124.05
634.30	149.79
634.45	177.88
634.60	231.71
634.75	180.22
634.90	95.96
635.05	121.71
635.19	220.01
635.34	49.15
635.49	163.84
635.64	196.60
635.79	159.16
635.94	194.26
636.09	201.29
636.24	133.41
636.39	105.32
636.53	210.65
636.68	208.31
636.83	147.45
636.98	208.31
637.13	138.09
637.28	117.03
637.43	250.44
637.57	81.92
637.72	166.18
637.87	149.79
638.02	173.20
638.17	201.29
638.32	177.88
638.46	107.66
638.61	161.50
638.76	133.41
638.91	170.86
639.06	100.64
639.20	217.67
639.35	152.13
639.50	133.41
639.65	152.13
639.80	138.09
639.94	145.11
640.09	133.41
640.24	168.52
640.39	88.94
640.54	177.88
640.68	166.18
640.83	201.29
640.98	145.11
641.13	119.37
641.27	145.11
641.42	114.69
641.57	126.39
641.72	142.77
641.86	124.05
642.01	95.96
642.16	159.16
642.31	177.88
642.45	201.29
642.60	217.67
642.75	187.24
642.90	124.05
643.04	126.39
643.19	177.88
643.34	147.45
643.48	152.13
643.63	121.71
643.78	220.01
643.93	180.22
644.07	166.18
644.22	128.73
644.37	102.98
644.51	205.97
644.66	147.45
644.81	133.41
644.95	208.31
645.10	159.16
645.25	138.09
645.39	161.50
645.54	77.24
645.69	191.92
645.83	49.15
645.98	187.24
646.13	187.24
646.27	175.54
646.42	135.75
646.57	86.60
646.71	187.24
646.86	180.22
647.00	128.73
647.15	98.30
647.30	112.35
647.44	180.22
647.59	79.58
647.74	168.52
647.88	177.88
648.03	126.39
648.17	168.52
648.32	79.58
648.47	149.79
648.61	208.31
648.76	156.82
648.90	79.58
649.05	147.45
649.20	128.73
649.34	191.92
649.49	142.77
649.63	131.07
649.78	168.52
649.92	163.84
650.07	147.45
650.21	222.35
650.36	189.58
650.51	84.26
650.65	126.39
650.80	119.37
650.94	196.60
651.09	170.86
651.23	117.03
651.38	67.88
651.52	152.13
651.67	147.45
651.81	163.84
651.96	161.50
652.10	142.77
652.25	154.48
652.39	175.54
652.54	133.41
652.68	184.90
652.83	177.88
652.97	166.18
653.12	119.37
653.26	95.96
653.41	145.11
653.55	114.69
653.70	168.52
653.84	156.82
653.99	145.11
654.13	184.90
654.27	117.03
654.42	98.30
654.56	152.13
654.71	98.30
654.85	128.73
655.00	84.26
655.14	65.54
655.29	100.64
655.43	177.88
655.57	173.20
655.72	145.11
655.86	149.79
656.01	124.05
656.15	156.82
656.30	135.75
656.44	159.16
656.58	51.49
656.73	74.90
656.87	110.01
657.01	149.79
657.16	196.60
657.30	203.63
657.45	203.63
657.59	128.73
657.73	121.71
657.88	161.50
658.02	152.13
658.16	177.88
658.31	124.05
658.45	100.64
658.60	46.81
658.74	140.43
658.88	182.56
659.03	152.13
659.17	220.01
659.31	105.32
659.46	117.03
659.60	72.56
659.74	110.01
659.89	117.03
660.03	131.07
660.17	203.63
660.32	126.39
660.46	161.50
660.60	100.64
660.74	135.75
660.89	124.05
661.03	177.88
661.17	72.56
661.32	147.45
661.46	227.03
661.60	161.50
661.74	191.92
661.89	107.66
662.03	198.95
662.17	107.66
662.31	107.66
662.46	140.43
662.60	236.39
662.74	234.05
662.88	110.01
663.03	98.30
663.17	159.16
663.31	161.50
663.45	121.71
663.60	91.28
663.74	81.92
663.88	86.60
664.02	173.20
664.17	187.24
664.31	145.11
664.45	124.05
664.59	156.82
664.73	86.60
664.88	194.26
665.02	166.18
665.16	180.22
665.30	149.79
665.44	191.92
665.59	156.82
665.73	152.13
665.87	124.05
666.01	194.26
666.15	114.69
666.29	86.60
666.44	182.56
666.58	170.86
666.72	79.58
666.86	42.13
667.00	100.64
667.14	138.09
667.28	117.03
667.43	182.56
667.57	100.64
667.71	100.64
667.85	133.41
667.99	114.69
668.13	182.56
668.27	72.56
668.41	86.60
668.56	140.43
668.70	117.03
668.84	81.92
668.98	91.28
669.12	102.98
669.26	91.28
669.40	229.37
669.54	152.13
669.68	124.05
669.82	168.52
669.96	131.07
670.10	114.69
670.25	88.94
670.39	110.01
670.53	105.32
670.67	184.90
670.81	117.03
670.95	166.18
671.09	128.73
671.23	121.71
671.37	147.45
671.51	131.07
671.65	131.07
671.79	110.01
671.93	194.26
672.07	184.90
672.21	175.54
672.35	135.75
672.49	191.92
672.63	117.03
672.77	135.75
672.91	93.62
673.05	91.28
673.19	191.92
673.33	140.43
673.47	184.90
673.61	147.45
673.75	166.18
673.89	170.86
674.03	187.24
674.17	145.11
674.31	163.84
674.45	166.18
674.59	198.95
674.73	93.62
674.87	175.54
675.01	142.77
675.15	42.13
675.29	140.43
675.43	173.20
675.56	215.33
675.70	203.63
675.84	170.86
675.98	102.98
676.12	124.05
676.26	84.26
676.40	51.49
676.54	135.75
676.68	98.30
676.82	201.29
676.96	42.13
677.10	234.05
677.23	0.00
677.37	93.62
677.51	107.66
677.65	187.24
677.79	145.11
677.93	100.64
678.07	79.58
678.21	58.51
678.34	159.16
678.48	67.88
678.62	142.77
678.76	93.62
678.90	187.24
679.04	79.58
679.18	152.13
679.31	70.22
679.45	91.28
679.59	147.45
679.73	37.45
679.87	84.26
680.00	180.22
680.14	163.84
680.28	39.79
680.42	102.98
680.56	170.86
680.70	105.32
680.83	121.71
680.97	121.71
681.11	70.22
681.25	182.56
681.39	131.07
681.52	119.37
681.66	133.41
681.80	117.03
681.94	145.11
682.07	175.54
682.21	159.16
682.35	58.51
682.49	32.77
682.62	168.52
682.76	86.60
682.90	72.56
683.04	140.43
683.17	110.01
683.31	95.96
683.45	159.16
683.59	70.22
683.72	107.66
683.86	140.43
684.00	51.49
684.13	128.73
684.27	93.62
684.41	131.07
684.55	84.26
684.68	191.92
684.82	159.16
684.96	126.39
685.09	156.82
685.23	100.64
685.37	119.37
685.50	79.58
685.64	112.35
685.78	16.38
685.91	166.18
686.05	147.45
686.19	117.03
686.32	77.24
686.46	112.35
686.60	58.51
686.73	124.05
686.87	128.73
687.01	49.15
687.14	56.17
687.28	74.90
687.42	79.58
687.55	98.30
687.69	133.41
687.82	23.41
687.96	142.77
688.10	191.92
688.23	100.64
688.37	154.48
688.50	182.56
688.64	95.96
688.78	74.90
688.91	107.66
689.05	117.03
689.18	131.07
689.32	107.66
689.46	9.36
689.59	110.01
689.73	154.48
689.86	175.54
690.00	84.26
690.13	88.94
690.27	131.07
690.41	112.35
690.54	86.60
690.68	84.26
690.81	135.75
690.95	161.50
691.08	91.28
691.22	98.30
691.35	28.09
691.49	32.77
691.62	70.22
691.76	58.51
691.89	105.32
692.03	86.60
692.16	56.17
692.30	187.24
692.43	23.41
692.57	77.24
692.70	140.43
692.84	145.11
692.97	100.64
693.11	67.88
693.24	110.01
693.38	131.07
693.51	138.09
693.65	163.84
693.78	98.30
693.92	110.01
694.05	98.30
694.19	135.75
694.32	91.28
694.45	114.69
694.59	81.92
694.72	84.26
694.86	149.79
694.99	93.62
695.13	117.03
695.26	107.66
695.39	121.71
695.53	112.35
695.66	21.06
695.80	147.45
695.93	60.85
696.07	79.58
696.20	107.66
696.33	72.56
696.47	46.81
696.60	46.81
696.73	110.01
696.87	63.19
697.00	107.66
697.14	56.17
697.27	124.05
697.40	175.54
697.54	72.56
697.67	135.75
697.80	131.07
697.94	152.13
698.07	63.19
698.21	51.49
698.34	93.62
698.47	121.71
698.61	81.92
698.74	152.13
698.87	161.50
699.01	107.66
699.14	210.65
699.27	180.22
699.40	173.20
699.54	67.88
699.67	0.00
699.80	56.17
699.94	117.03
700.07	135.75
700.20	140.43
700.34	98.30
700.47	93.62
700.60	81.92
700.73	133.41
700.87	168.52
701.00	119.37
701.13	156.82
701.26	170.86
701.40	119.37
701.53	51.49
701.66	198.95
701.79	88.94
701.93	110.01
702.06	194.26
702.19	110.01
702.32	133.41
702.46	46.81
702.59	42.13
702.72	65.54
702.85	126.39
702.99	88.94
703.12	191.92
703.25	138.09
703.38	65.54
703.51	152.13
703.65	35.11
703.78	63.19
703.91	84.26
704.04	154.48
704.17	53.83
704.31	42.13
704.44	0.00
704.57	93.62
704.70	60.85
704.83	138.09
704.96	124.05
705.10	124.05
705.23	147.45
>>>>>End Processed Spectral Data<<<<<
