SpectraSuite Data File
++++++++++++++++++++++++++++++++++++
Date: Fri Oct 04 11:51:05 GMT-05:00 2013
User: price-jones
Dark Spectrum Present: No
Reference Spectrum Present: No
Number of Sampled Component Spectra: 1
Spectrometers: USB2+H05261
Integration Time (usec): 100000 (USB2+H05261)
Spectra Averaged: 1 (USB2+H05261)
Boxcar Smoothing: 0 (USB2+H05261)
Correct for Electrical Dark: No (USB2+H05261)
Strobe/Lamp Enabled: No (USB2+H05261)
Correct for Detector Non-linearity: No (USB2+H05261)
Correct for Stray Light: No (USB2+H05261)
Number of Pixels in Processed Spectrum: 2048
>>>>>Begin Processed Spectral Data<<<<<
365.73	0.00
365.92	0.00
366.12	0.00
366.32	0.00
366.52	0.00
366.72	0.00
366.91	0.00
367.11	0.00
367.31	0.00
367.51	0.00
367.70	0.00
367.90	0.00
368.10	0.00
368.30	0.00
368.49	0.00
368.69	0.00
368.89	0.00
369.09	0.00
369.28	0.00
369.48	0.00
369.68	0.00
369.87	0.00
370.07	11.70
370.27	0.00
370.47	0.00
370.66	0.00
370.86	4.68
371.06	39.79
371.25	65.54
371.45	65.54
371.65	67.88
371.84	58.51
372.04	74.90
372.24	23.41
372.44	51.49
372.63	95.96
372.83	81.92
373.03	32.77
373.22	46.81
373.42	81.92
373.62	100.64
373.81	49.15
374.01	159.16
374.21	175.54
374.40	170.86
374.60	170.86
374.79	131.07
374.99	53.83
375.19	98.30
375.38	121.71
375.58	65.54
375.78	147.45
375.97	102.98
376.17	159.16
376.37	161.50
376.56	58.51
376.76	147.45
376.95	117.03
377.15	149.79
377.35	81.92
377.54	114.69
377.74	79.58
377.93	114.69
378.13	152.13
378.33	95.96
378.52	119.37
378.72	65.54
378.91	128.73
379.11	21.06
379.31	117.03
379.50	84.26
379.70	74.90
379.89	63.19
380.09	95.96
380.28	46.81
380.48	126.39
380.68	105.32
380.87	79.58
381.07	156.82
381.26	53.83
381.46	110.01
381.65	63.19
381.85	168.52
382.04	70.22
382.24	100.64
382.43	23.41
382.63	58.51
382.83	100.64
383.02	102.98
383.22	147.45
383.41	46.81
383.61	0.00
383.80	84.26
384.00	93.62
384.19	37.45
384.39	86.60
384.58	37.45
384.78	147.45
384.97	60.85
385.17	67.88
385.36	77.24
385.56	63.19
385.75	60.85
385.95	110.01
386.14	86.60
386.34	72.56
386.53	65.54
386.72	133.41
386.92	102.98
387.11	95.96
387.31	60.85
387.50	100.64
387.70	51.49
387.89	0.00
388.09	25.75
388.28	30.43
388.48	49.15
388.67	37.45
388.86	53.83
389.06	107.66
389.25	93.62
389.45	121.71
389.64	46.81
389.84	117.03
390.03	51.49
390.22	117.03
390.42	65.54
390.61	102.98
390.81	72.56
391.00	133.41
391.19	67.88
391.39	102.98
391.58	124.05
391.78	128.73
391.97	95.96
392.16	102.98
392.36	110.01
392.55	100.64
392.75	56.17
392.94	42.13
393.13	88.94
393.33	77.24
393.52	44.47
393.71	60.85
393.91	44.47
394.10	51.49
394.29	102.98
394.49	86.60
394.68	72.56
394.88	65.54
395.07	138.09
395.26	128.73
395.46	177.88
395.65	110.01
395.84	91.28
396.04	152.13
396.23	149.79
396.42	86.60
396.62	77.24
396.81	95.96
397.00	42.13
397.19	138.09
397.39	67.88
397.58	46.81
397.77	84.26
397.97	112.35
398.16	84.26
398.35	102.98
398.55	49.15
398.74	142.77
398.93	91.28
399.12	117.03
399.32	156.82
399.51	39.79
399.70	72.56
399.90	135.75
400.09	175.54
400.28	110.01
400.47	88.94
400.67	86.60
400.86	126.39
401.05	168.52
401.24	91.28
401.44	107.66
401.63	147.45
401.82	124.05
402.01	65.54
402.21	140.43
402.40	133.41
402.59	147.45
402.78	107.66
402.97	77.24
403.17	65.54
403.36	77.24
403.55	53.83
403.74	84.26
403.93	91.28
404.13	145.11
404.32	159.16
404.51	173.20
404.70	102.98
404.89	60.85
405.09	128.73
405.28	53.83
405.47	51.49
405.66	46.81
405.85	126.39
406.05	117.03
406.24	110.01
406.43	70.22
406.62	105.32
406.81	133.41
407.00	58.51
407.20	77.24
407.39	98.30
407.58	35.11
407.77	84.26
407.96	133.41
408.15	126.39
408.34	128.73
408.54	138.09
408.73	119.37
408.92	156.82
409.11	79.58
409.30	142.77
409.49	46.81
409.68	100.64
409.87	84.26
410.07	98.30
410.26	177.88
410.45	114.69
410.64	32.77
410.83	112.35
411.02	156.82
411.21	119.37
411.40	53.83
411.59	110.01
411.78	79.58
411.98	140.43
412.17	93.62
412.36	133.41
412.55	51.49
412.74	100.64
412.93	119.37
413.12	126.39
413.31	156.82
413.50	102.98
413.69	177.88
413.88	177.88
414.07	86.60
414.26	133.41
414.45	0.00
414.64	88.94
414.83	180.22
415.02	95.96
415.22	81.92
415.41	63.19
415.60	126.39
415.79	95.96
415.98	135.75
416.17	140.43
416.36	93.62
416.55	126.39
416.74	91.28
416.93	175.54
417.12	110.01
417.31	126.39
417.50	93.62
417.69	191.92
417.88	30.43
418.07	159.16
418.26	147.45
418.45	98.30
418.64	159.16
418.83	88.94
419.02	187.24
419.21	84.26
419.39	131.07
419.58	93.62
419.77	110.01
419.96	28.09
420.15	133.41
420.34	121.71
420.53	63.19
420.72	110.01
420.91	53.83
421.10	102.98
421.29	149.79
421.48	121.71
421.67	142.77
421.86	63.19
422.05	135.75
422.24	67.88
422.43	147.45
422.61	67.88
422.80	91.28
422.99	84.26
423.18	133.41
423.37	102.98
423.56	124.05
423.75	74.90
423.94	95.96
424.13	107.66
424.32	67.88
424.50	79.58
424.69	124.05
424.88	138.09
425.07	79.58
425.26	119.37
425.45	145.11
425.64	91.28
425.83	114.69
426.01	114.69
426.20	107.66
426.39	175.54
426.58	93.62
426.77	60.85
426.96	114.69
427.15	114.69
427.33	95.96
427.52	44.47
427.71	32.77
427.90	126.39
428.09	84.26
428.28	86.60
428.46	159.16
428.65	187.24
428.84	70.22
429.03	58.51
429.22	126.39
429.40	72.56
429.59	88.94
429.78	114.69
429.97	159.16
430.16	88.94
430.34	49.15
430.53	100.64
430.72	77.24
430.91	117.03
431.10	84.26
431.28	102.98
431.47	138.09
431.66	105.32
431.85	81.92
432.03	86.60
432.22	142.77
432.41	110.01
432.60	77.24
432.79	100.64
432.97	138.09
433.16	168.52
433.35	152.13
433.54	212.99
433.72	117.03
433.91	154.48
434.10	58.51
434.28	156.82
434.47	105.32
434.66	170.86
434.85	58.51
435.03	63.19
435.22	140.43
435.41	102.98
435.59	35.11
435.78	163.84
435.97	100.64
436.16	149.79
436.34	77.24
436.53	166.18
436.72	191.92
436.90	133.41
437.09	95.96
437.28	112.35
437.46	102.98
437.65	152.13
437.84	112.35
438.02	147.45
438.21	100.64
438.40	117.03
438.58	86.60
438.77	114.69
438.96	79.58
439.14	70.22
439.33	149.79
439.52	133.41
439.70	138.09
439.89	79.58
440.08	79.58
440.26	74.90
440.45	140.43
440.63	124.05
440.82	210.65
441.01	203.63
441.19	28.09
441.38	107.66
441.57	142.77
441.75	175.54
441.94	156.82
442.12	128.73
442.31	70.22
442.50	133.41
442.68	224.69
442.87	79.58
443.05	105.32
443.24	135.75
443.43	163.84
443.61	81.92
443.80	128.73
443.98	168.52
444.17	110.01
444.35	126.39
444.54	175.54
444.73	110.01
444.91	208.31
445.10	100.64
445.28	119.37
445.47	156.82
445.65	91.28
445.84	131.07
446.02	77.24
446.21	145.11
446.39	72.56
446.58	203.63
446.77	112.35
446.95	126.39
447.14	107.66
447.32	175.54
447.51	107.66
447.69	138.09
447.88	53.83
448.06	154.48
448.25	147.45
448.43	72.56
448.62	91.28
448.80	84.26
448.99	147.45
449.17	102.98
449.36	102.98
449.54	140.43
449.73	72.56
449.91	152.13
450.10	163.84
450.28	196.60
450.46	196.60
450.65	161.50
450.83	145.11
451.02	231.71
451.20	74.90
451.39	159.16
451.57	182.56
451.76	128.73
451.94	140.43
452.13	166.18
452.31	72.56
452.49	110.01
452.68	177.88
452.86	133.41
453.05	177.88
453.23	145.11
453.42	56.17
453.60	110.01
453.78	107.66
453.97	91.28
454.15	67.88
454.34	133.41
454.52	93.62
454.70	93.62
454.89	107.66
455.07	81.92
455.26	159.16
455.44	177.88
455.62	77.24
455.81	88.94
455.99	156.82
456.17	107.66
456.36	138.09
456.54	142.77
456.73	65.54
456.91	93.62
457.09	84.26
457.28	135.75
457.46	74.90
457.64	131.07
457.83	105.32
458.01	147.45
458.19	86.60
458.38	159.16
458.56	135.75
458.74	135.75
458.93	58.51
459.11	156.82
459.29	131.07
459.48	201.29
459.66	203.63
459.84	170.86
460.03	222.35
460.21	95.96
460.39	152.13
460.57	126.39
460.76	117.03
460.94	100.64
461.12	140.43
461.31	135.75
461.49	128.73
461.67	152.13
461.85	173.20
462.04	147.45
462.22	587.47
462.40	95.96
462.59	205.97
462.77	60.85
462.95	53.83
463.13	133.41
463.32	112.35
463.50	168.52
463.68	63.19
463.86	154.48
464.05	149.79
464.23	145.11
464.41	128.73
464.59	152.13
464.78	133.41
464.96	102.98
465.14	138.09
465.32	77.24
465.50	114.69
465.69	131.07
465.87	159.16
466.05	166.18
466.23	79.58
466.41	133.41
466.60	93.62
466.78	119.37
466.96	110.01
467.14	168.52
467.32	110.01
467.51	98.30
467.69	156.82
467.87	149.79
468.05	126.39
468.23	161.50
468.41	98.30
468.60	133.41
468.78	159.16
468.96	159.16
469.14	131.07
469.32	147.45
469.50	133.41
469.69	147.45
469.87	88.94
470.05	105.32
470.23	84.26
470.41	88.94
470.59	110.01
470.77	201.29
470.95	154.48
471.14	154.48
471.32	105.32
471.50	163.84
471.68	74.90
471.86	140.43
472.04	177.88
472.22	180.22
472.40	168.52
472.58	107.66
472.77	131.07
472.95	112.35
473.13	198.95
473.31	180.22
473.49	149.79
473.67	117.03
473.85	161.50
474.03	191.92
474.21	156.82
474.39	227.03
474.57	215.33
474.75	198.95
474.93	117.03
475.12	84.26
475.30	161.50
475.48	184.90
475.66	196.60
475.84	159.16
476.02	124.05
476.20	163.84
476.38	170.86
476.56	238.73
476.74	168.52
476.92	177.88
477.10	149.79
477.28	184.90
477.46	93.62
477.64	147.45
477.82	121.71
478.00	227.03
478.18	152.13
478.36	117.03
478.54	191.92
478.72	110.01
478.90	138.09
479.08	175.54
479.26	152.13
479.44	107.66
479.62	124.05
479.80	222.35
479.98	184.90
480.16	161.50
480.34	135.75
480.52	126.39
480.70	163.84
480.88	114.69
481.06	149.79
481.24	173.20
481.41	88.94
481.59	182.56
481.77	173.20
481.95	156.82
482.13	152.13
482.31	161.50
482.49	154.48
482.67	142.77
482.85	241.08
483.03	163.84
483.21	170.86
483.39	149.79
483.57	187.24
483.74	170.86
483.92	135.75
484.10	88.94
484.28	79.58
484.46	187.24
484.64	154.48
484.82	142.77
485.00	180.22
485.18	220.01
485.35	187.24
485.53	159.16
485.71	191.92
485.89	147.45
486.07	149.79
486.25	248.10
486.43	124.05
486.61	126.39
486.78	224.69
486.96	112.35
487.14	168.52
487.32	191.92
487.50	102.98
487.68	154.48
487.85	126.39
488.03	152.13
488.21	283.20
488.39	168.52
488.57	161.50
488.75	145.11
488.92	425.98
489.10	175.54
489.28	241.08
489.46	142.77
489.64	187.24
489.81	117.03
489.99	175.54
490.17	187.24
490.35	182.56
490.53	175.54
490.70	222.35
490.88	159.16
491.06	149.79
491.24	77.24
491.41	140.43
491.59	187.24
491.77	236.39
491.95	117.03
492.13	152.13
492.30	156.82
492.48	138.09
492.66	189.58
492.84	220.01
493.01	250.44
493.19	163.84
493.37	180.22
493.54	241.08
493.72	121.71
493.90	222.35
494.08	159.16
494.25	163.84
494.43	201.29
494.61	77.24
494.79	166.18
494.96	187.24
495.14	140.43
495.32	187.24
495.49	184.90
495.67	173.20
495.85	205.97
496.02	135.75
496.20	156.82
496.38	215.33
496.55	201.29
496.73	203.63
496.91	161.50
497.09	250.44
497.26	128.73
497.44	205.97
497.62	208.31
497.79	187.24
497.97	241.08
498.14	166.18
498.32	168.52
498.50	198.95
498.67	196.60
498.85	145.11
499.03	154.48
499.20	163.84
499.38	124.05
499.56	159.16
499.73	187.24
499.91	203.63
500.08	191.92
500.26	124.05
500.44	175.54
500.61	187.24
500.79	236.39
500.97	173.20
501.14	210.65
501.32	201.29
501.49	198.95
501.67	100.64
501.84	205.97
502.02	210.65
502.20	189.58
502.37	182.56
502.55	196.60
502.72	124.05
502.90	126.39
503.07	135.75
503.25	166.18
503.43	236.39
503.60	177.88
503.78	173.20
503.95	154.48
504.13	175.54
504.30	208.31
504.48	229.37
504.65	243.42
504.83	142.77
505.01	189.58
505.18	238.73
505.36	133.41
505.53	145.11
505.71	229.37
505.88	205.97
506.06	175.54
506.23	191.92
506.41	168.52
506.58	168.52
506.76	173.20
506.93	194.26
507.11	196.60
507.28	149.79
507.46	220.01
507.63	180.22
507.81	177.88
507.98	156.82
508.16	203.63
508.33	210.65
508.50	177.88
508.68	107.66
508.85	166.18
509.03	147.45
509.20	168.52
509.38	292.57
509.55	292.57
509.73	227.03
509.90	110.01
510.08	220.01
510.25	210.65
510.42	173.20
510.60	154.48
510.77	283.20
510.95	224.69
511.12	126.39
511.30	142.77
511.47	238.73
511.64	194.26
511.82	276.18
511.99	152.13
512.17	196.60
512.34	170.86
512.51	149.79
512.69	201.29
512.86	257.46
513.04	231.71
513.21	238.73
513.38	217.67
513.56	215.33
513.73	140.43
513.90	217.67
514.08	205.97
514.25	238.73
514.43	252.78
514.60	154.48
514.77	145.11
514.95	152.13
515.12	168.52
515.29	220.01
515.47	271.50
515.64	229.37
515.81	205.97
515.99	236.39
516.16	180.22
516.33	205.97
516.51	154.48
516.68	203.63
516.85	196.60
517.03	166.18
517.20	255.12
517.37	241.08
517.54	180.22
517.72	234.05
517.89	138.09
518.06	238.73
518.24	257.46
518.41	241.08
518.58	126.39
518.75	126.39
518.93	215.33
519.10	201.29
519.27	194.26
519.45	191.92
519.62	196.60
519.79	205.97
519.96	198.95
520.14	173.20
520.31	243.42
520.48	252.78
520.65	156.82
520.83	205.97
521.00	273.84
521.17	145.11
521.34	187.24
521.52	205.97
521.69	198.95
521.86	184.90
522.03	184.90
522.20	259.80
522.38	187.24
522.55	131.07
522.72	220.01
522.89	198.95
523.07	227.03
523.24	187.24
523.41	243.42
523.58	215.33
523.75	227.03
523.92	187.24
524.10	175.54
524.27	236.39
524.44	182.56
524.61	278.52
524.78	212.99
524.96	180.22
525.13	234.05
525.30	147.45
525.47	273.84
525.64	231.71
525.81	189.58
525.98	220.01
526.16	215.33
526.33	187.24
526.50	175.54
526.67	177.88
526.84	133.41
527.01	198.95
527.18	208.31
527.36	205.97
527.53	133.41
527.70	208.31
527.87	145.11
528.04	276.18
528.21	217.67
528.38	210.65
528.55	234.05
528.72	236.39
528.89	271.50
529.07	177.88
529.24	222.35
529.41	259.80
529.58	269.16
529.75	269.16
529.92	327.68
530.09	187.24
530.26	194.26
530.43	315.97
530.60	191.92
530.77	269.16
530.94	175.54
531.11	187.24
531.28	152.13
531.46	166.18
531.63	217.67
531.80	124.05
531.97	180.22
532.14	201.29
532.31	264.48
532.48	215.33
532.65	337.04
532.82	264.48
532.99	166.18
533.16	170.86
533.33	259.80
533.50	180.22
533.67	191.92
533.84	170.86
534.01	234.05
534.18	205.97
534.35	236.39
534.52	280.86
534.69	299.59
534.86	224.69
535.03	170.86
535.20	210.65
535.37	234.05
535.54	271.50
535.71	234.05
535.88	266.82
536.05	166.18
536.22	229.37
536.38	196.60
536.55	243.42
536.72	205.97
536.89	168.52
537.06	168.52
537.23	154.48
537.40	177.88
537.57	210.65
537.74	245.76
537.91	236.39
538.08	215.33
538.25	276.18
538.42	140.43
538.59	180.22
538.75	217.67
538.92	191.92
539.09	208.31
539.26	201.29
539.43	198.95
539.60	194.26
539.77	187.24
539.94	262.14
540.11	191.92
540.28	166.18
540.44	257.46
540.61	224.69
540.78	180.22
540.95	156.82
541.12	273.84
541.29	142.77
541.46	152.13
541.62	224.69
541.79	224.69
541.96	182.56
542.13	229.37
542.30	189.58
542.47	198.95
542.63	175.54
542.80	173.20
542.97	220.01
543.14	191.92
543.31	170.86
543.48	250.44
543.64	194.26
543.81	236.39
543.98	224.69
544.15	201.29
544.32	236.39
544.48	198.95
544.65	184.90
544.82	227.03
544.99	166.18
545.16	234.05
545.32	196.60
545.49	210.65
545.66	234.05
545.83	170.86
546.00	229.37
546.16	170.86
546.33	189.58
546.50	196.60
546.67	252.78
546.83	187.24
547.00	210.65
547.17	147.45
547.34	133.41
547.50	173.20
547.67	138.09
547.84	215.33
548.00	250.44
548.17	175.54
548.34	131.07
548.51	201.29
548.67	248.10
548.84	229.37
549.01	241.08
549.18	201.29
549.34	229.37
549.51	217.67
549.68	308.95
549.84	222.35
550.01	156.82
550.18	299.59
550.34	315.97
550.51	220.01
550.68	241.08
550.84	128.73
551.01	189.58
551.18	229.37
551.34	187.24
551.51	156.82
551.68	161.50
551.84	201.29
552.01	184.90
552.18	168.52
552.34	187.24
552.51	250.44
552.68	149.79
552.84	194.26
553.01	189.58
553.18	257.46
553.34	238.73
553.51	220.01
553.67	208.31
553.84	360.44
554.01	234.05
554.17	161.50
554.34	194.26
554.51	255.12
554.67	259.80
554.84	285.55
555.00	255.12
555.17	173.20
555.33	257.46
555.50	182.56
555.67	182.56
555.83	198.95
556.00	135.75
556.16	421.30
556.33	276.18
556.50	250.44
556.66	259.80
556.83	168.52
556.99	159.16
557.16	201.29
557.32	110.01
557.49	147.45
557.65	189.58
557.82	170.86
557.98	191.92
558.15	149.79
558.32	154.48
558.48	191.92
558.65	191.92
558.81	177.88
558.98	180.22
559.14	208.31
559.31	236.39
559.47	203.63
559.64	142.77
559.80	170.86
559.97	215.33
560.13	203.63
560.30	175.54
560.46	189.58
560.63	217.67
560.79	177.88
560.96	208.31
561.12	215.33
561.29	217.67
561.45	152.13
561.61	236.39
561.78	304.27
561.94	168.52
562.11	273.84
562.27	283.20
562.44	210.65
562.60	196.60
562.77	187.24
562.93	238.73
563.10	175.54
563.26	198.95
563.42	124.05
563.59	203.63
563.75	156.82
563.92	304.27
564.08	196.60
564.24	241.08
564.41	346.40
564.57	196.60
564.74	173.20
564.90	180.22
565.07	163.84
565.23	224.69
565.39	208.31
565.56	210.65
565.72	227.03
565.88	273.84
566.05	227.03
566.21	198.95
566.38	201.29
566.54	189.58
566.70	175.54
566.87	196.60
567.03	234.05
567.19	196.60
567.36	149.79
567.52	203.63
567.68	217.67
567.85	182.56
568.01	170.86
568.17	208.31
568.34	156.82
568.50	191.92
568.66	175.54
568.83	245.76
568.99	168.52
569.15	205.97
569.32	182.56
569.48	231.71
569.64	220.01
569.81	224.69
569.97	191.92
570.13	198.95
570.30	220.01
570.46	201.29
570.62	234.05
570.78	175.54
570.95	215.33
571.11	194.26
571.27	203.63
571.43	126.39
571.60	170.86
571.76	128.73
571.92	198.95
572.09	170.86
572.25	229.37
572.41	208.31
572.57	198.95
572.74	205.97
572.90	210.65
573.06	170.86
573.22	196.60
573.38	184.90
573.55	131.07
573.71	262.14
573.87	184.90
574.03	156.82
574.20	177.88
574.36	212.99
574.52	201.29
574.68	231.71
574.84	212.99
575.01	269.16
575.17	159.16
575.33	163.84
575.49	276.18
575.65	217.67
575.82	250.44
575.98	189.58
576.14	203.63
576.30	187.24
576.46	208.31
576.62	194.26
576.79	175.54
576.95	262.14
577.11	177.88
577.27	152.13
577.43	205.97
577.59	276.18
577.75	220.01
577.92	138.09
578.08	203.63
578.24	161.50
578.40	196.60
578.56	229.37
578.72	229.37
578.88	243.42
579.04	257.46
579.21	198.95
579.37	191.92
579.53	184.90
579.69	215.33
579.85	119.37
580.01	205.97
580.17	231.71
580.33	189.58
580.49	243.42
580.65	119.37
580.82	189.58
580.98	245.76
581.14	102.98
581.30	203.63
581.46	177.88
581.62	220.01
581.78	161.50
581.94	220.01
582.10	212.99
582.26	140.43
582.42	107.66
582.58	182.56
582.74	102.98
582.90	217.67
583.06	156.82
583.22	203.63
583.38	215.33
583.54	166.18
583.70	231.71
583.86	114.69
584.02	234.05
584.18	215.33
584.34	234.05
584.50	177.88
584.66	187.24
584.82	189.58
584.98	198.95
585.14	163.84
585.30	245.76
585.46	184.90
585.62	145.11
585.78	194.26
585.94	184.90
586.10	114.69
586.26	227.03
586.42	203.63
586.58	191.92
586.74	234.05
586.90	110.01
587.06	180.22
587.22	163.84
587.38	227.03
587.54	205.97
587.70	227.03
587.86	210.65
588.02	173.20
588.18	149.79
588.34	168.52
588.49	95.96
588.65	149.79
588.81	173.20
588.97	152.13
589.13	182.56
589.29	140.43
589.45	180.22
589.61	187.24
589.77	170.86
589.93	220.01
590.08	128.73
590.24	63.19
590.40	126.39
590.56	147.45
590.72	159.16
590.88	131.07
591.04	210.65
591.20	208.31
591.35	156.82
591.51	201.29
591.67	107.66
591.83	168.52
591.99	163.84
592.15	187.24
592.31	182.56
592.46	210.65
592.62	205.97
592.78	222.35
592.94	229.37
593.10	133.41
593.26	138.09
593.41	278.52
593.57	205.97
593.73	145.11
593.89	184.90
594.05	114.69
594.20	142.77
594.36	161.50
594.52	210.65
594.68	198.95
594.84	177.88
594.99	189.58
595.15	222.35
595.31	191.92
595.47	194.26
595.62	107.66
595.78	205.97
595.94	145.11
596.10	224.69
596.25	112.35
596.41	196.60
596.57	191.92
596.73	180.22
596.88	100.64
597.04	147.45
597.20	205.97
597.36	168.52
597.51	112.35
597.67	175.54
597.83	212.99
597.99	224.69
598.14	149.79
598.30	208.31
598.46	217.67
598.61	212.99
598.77	156.82
598.93	147.45
599.09	140.43
599.24	229.37
599.40	177.88
599.56	184.90
599.71	145.11
599.87	170.86
600.03	205.97
600.18	140.43
600.34	196.60
600.50	170.86
600.65	170.86
600.81	112.35
600.97	191.92
601.12	177.88
601.28	252.78
601.44	182.56
601.59	166.18
601.75	184.90
601.91	166.18
602.06	201.29
602.22	271.50
602.37	166.18
602.53	241.08
602.69	177.88
602.84	140.43
603.00	189.58
603.16	269.16
603.31	205.97
603.47	177.88
603.62	124.05
603.78	152.13
603.94	224.69
604.09	236.39
604.25	182.56
604.40	175.54
604.56	159.16
604.71	212.99
604.87	156.82
605.03	222.35
605.18	145.11
605.34	227.03
605.49	220.01
605.65	182.56
605.80	154.48
605.96	220.01
606.12	205.97
606.27	180.22
606.43	201.29
606.58	205.97
606.74	196.60
606.89	131.07
607.05	182.56
607.20	177.88
607.36	163.84
607.51	102.98
607.67	142.77
607.82	145.11
607.98	196.60
608.13	145.11
608.29	161.50
608.44	222.35
608.60	175.54
608.75	276.18
608.91	161.50
609.06	177.88
609.22	224.69
609.37	166.18
609.53	177.88
609.68	154.48
609.84	133.41
609.99	121.71
610.15	236.39
610.30	152.13
610.46	180.22
610.61	257.46
610.76	168.52
610.92	238.73
611.07	173.20
611.23	215.33
611.38	161.50
611.54	177.88
611.69	234.05
611.84	145.11
612.00	229.37
612.15	168.52
612.31	194.26
612.46	138.09
612.62	210.65
612.77	170.86
612.92	208.31
613.08	250.44
613.23	175.54
613.39	220.01
613.54	220.01
613.69	135.75
613.85	234.05
614.00	100.64
614.15	189.58
614.31	152.13
614.46	180.22
614.62	191.92
614.77	182.56
614.92	184.90
615.08	196.60
615.23	212.99
615.38	159.16
615.54	168.52
615.69	250.44
615.84	168.52
616.00	142.77
616.15	170.86
616.30	156.82
616.46	201.29
616.61	91.28
616.76	147.45
616.92	182.56
617.07	114.69
617.22	168.52
617.37	145.11
617.53	224.69
617.68	147.45
617.83	194.26
617.99	191.92
618.14	168.52
618.29	161.50
618.45	131.07
618.60	77.24
618.75	170.86
618.90	194.26
619.06	159.16
619.21	203.63
619.36	198.95
619.51	135.75
619.67	93.62
619.82	154.48
619.97	147.45
620.12	168.52
620.28	147.45
620.43	177.88
620.58	266.82
620.73	126.39
620.89	184.90
621.04	227.03
621.19	208.31
621.34	189.58
621.49	95.96
621.65	154.48
621.80	138.09
621.95	177.88
622.10	205.97
622.25	189.58
622.41	170.86
622.56	159.16
622.71	189.58
622.86	208.31
623.01	196.60
623.16	161.50
623.32	161.50
623.47	229.37
623.62	93.62
623.77	161.50
623.92	107.66
624.07	74.90
624.23	121.71
624.38	156.82
624.53	112.35
624.68	156.82
624.83	182.56
624.98	241.08
625.13	159.16
625.29	117.03
625.44	166.18
625.59	173.20
625.74	161.50
625.89	224.69
626.04	163.84
626.19	86.60
626.34	182.56
626.49	128.73
626.65	128.73
626.80	53.83
626.95	208.31
627.10	84.26
627.25	163.84
627.40	154.48
627.55	177.88
627.70	98.30
627.85	100.64
628.00	81.92
628.15	114.69
628.30	159.16
628.45	142.77
628.60	138.09
628.76	194.26
628.91	119.37
629.06	187.24
629.21	121.71
629.36	238.73
629.51	124.05
629.66	140.43
629.81	112.35
629.96	189.58
630.11	166.18
630.26	175.54
630.41	180.22
630.56	161.50
630.71	102.98
630.86	173.20
631.01	163.84
631.16	140.43
631.31	229.37
631.46	138.09
631.61	119.37
631.76	161.50
631.91	205.97
632.06	110.01
632.21	182.56
632.36	182.56
632.51	198.95
632.66	166.18
632.81	112.35
632.96	175.54
633.10	121.71
633.25	231.71
633.40	170.86
633.55	140.43
633.70	135.75
633.85	107.66
634.00	142.77
634.15	79.58
634.30	121.71
634.45	184.90
634.60	224.69
634.75	126.39
634.90	131.07
635.05	182.56
635.19	145.11
635.34	133.41
635.49	161.50
635.64	133.41
635.79	81.92
635.94	208.31
636.09	156.82
636.24	152.13
636.39	110.01
636.53	187.24
636.68	117.03
636.83	138.09
636.98	189.58
637.13	173.20
637.28	222.35
637.43	173.20
637.57	175.54
637.72	175.54
637.87	107.66
638.02	187.24
638.17	217.67
638.32	175.54
638.46	201.29
638.61	198.95
638.76	77.24
638.91	198.95
639.06	147.45
639.20	161.50
639.35	173.20
639.50	126.39
639.65	149.79
639.80	175.54
639.94	110.01
640.09	138.09
640.24	224.69
640.39	131.07
640.54	102.98
640.68	177.88
640.83	217.67
640.98	205.97
641.13	128.73
641.27	168.52
641.42	205.97
641.57	149.79
641.72	189.58
641.86	191.92
642.01	91.28
642.16	72.56
642.31	180.22
642.45	224.69
642.60	128.73
642.75	107.66
642.90	135.75
643.04	124.05
643.19	156.82
643.34	191.92
643.48	166.18
643.63	187.24
643.78	154.48
643.93	180.22
644.07	180.22
644.22	107.66
644.37	156.82
644.51	180.22
644.66	135.75
644.81	156.82
644.95	238.73
645.10	128.73
645.25	156.82
645.39	194.26
645.54	173.20
645.69	222.35
645.83	72.56
645.98	95.96
646.13	180.22
646.27	198.95
646.42	161.50
646.57	147.45
646.71	128.73
646.86	145.11
647.00	124.05
647.15	203.63
647.30	128.73
647.44	98.30
647.59	93.62
647.74	147.45
647.88	198.95
648.03	100.64
648.17	98.30
648.32	51.49
648.47	131.07
648.61	180.22
648.76	126.39
648.90	91.28
649.05	117.03
649.20	117.03
649.34	112.35
649.49	98.30
649.63	117.03
649.78	149.79
649.92	154.48
650.07	105.32
650.21	102.98
650.36	215.33
650.51	140.43
650.65	173.20
650.80	187.24
650.94	194.26
651.09	220.01
651.23	196.60
651.38	156.82
651.52	128.73
651.67	138.09
651.81	203.63
651.96	189.58
652.10	140.43
652.25	114.69
652.39	217.67
652.54	140.43
652.68	119.37
652.83	117.03
652.97	166.18
653.12	175.54
653.26	86.60
653.41	198.95
653.55	93.62
653.70	145.11
653.84	56.17
653.99	142.77
654.13	135.75
654.27	102.98
654.42	112.35
654.56	156.82
654.71	196.60
654.85	79.58
655.00	110.01
655.14	133.41
655.29	110.01
655.43	88.94
655.57	126.39
655.72	121.71
655.86	191.92
656.01	175.54
656.15	121.71
656.30	110.01
656.44	156.82
656.58	112.35
656.73	133.41
656.87	156.82
657.01	98.30
657.16	102.98
657.30	154.48
657.45	135.75
657.59	98.30
657.73	194.26
657.88	145.11
658.02	259.80
658.16	145.11
658.31	133.41
658.45	152.13
658.60	126.39
658.74	117.03
658.88	117.03
659.03	110.01
659.17	152.13
659.31	91.28
659.46	154.48
659.60	110.01
659.74	128.73
659.89	152.13
660.03	60.85
660.17	189.58
660.32	105.32
660.46	98.30
660.60	140.43
660.74	182.56
660.89	177.88
661.03	98.30
661.17	84.26
661.32	138.09
661.46	95.96
661.60	126.39
661.74	138.09
661.89	187.24
662.03	88.94
662.17	128.73
662.31	161.50
662.46	102.98
662.60	177.88
662.74	184.90
662.88	149.79
663.03	170.86
663.17	95.96
663.31	91.28
663.45	149.79
663.60	126.39
663.74	110.01
663.88	159.16
664.02	191.92
664.17	56.17
664.31	163.84
664.45	67.88
664.59	119.37
664.73	198.95
664.88	142.77
665.02	175.54
665.16	145.11
665.30	166.18
665.44	74.90
665.59	100.64
665.73	135.75
665.87	63.19
666.01	88.94
666.15	93.62
666.29	126.39
666.44	154.48
666.58	229.37
666.72	102.98
666.86	140.43
667.00	184.90
667.14	79.58
667.28	102.98
667.43	124.05
667.57	170.86
667.71	191.92
667.85	180.22
667.99	217.67
668.13	170.86
668.27	110.01
668.41	180.22
668.56	170.86
668.70	201.29
668.84	128.73
668.98	100.64
669.12	102.98
669.26	177.88
669.40	198.95
669.54	110.01
669.68	135.75
669.82	126.39
669.96	138.09
670.10	88.94
670.25	124.05
670.39	128.73
670.53	159.16
670.67	198.95
670.81	166.18
670.95	203.63
671.09	196.60
671.23	163.84
671.37	182.56
671.51	145.11
671.65	126.39
671.79	140.43
671.93	65.54
672.07	187.24
672.21	70.22
672.35	140.43
672.49	93.62
672.63	67.88
672.77	138.09
672.91	84.26
673.05	145.11
673.19	133.41
673.33	152.13
673.47	112.35
673.61	74.90
673.75	154.48
673.89	135.75
674.03	135.75
674.17	70.22
674.31	161.50
674.45	138.09
674.59	102.98
674.73	147.45
674.87	91.28
675.01	198.95
675.15	208.31
675.29	102.98
675.43	159.16
675.56	236.39
675.70	173.20
675.84	74.90
675.98	142.77
676.12	84.26
676.26	205.97
676.40	105.32
676.54	126.39
676.68	135.75
676.82	184.90
676.96	102.98
677.10	67.88
677.23	77.24
677.37	201.29
677.51	56.17
677.65	203.63
677.79	128.73
677.93	84.26
678.07	142.77
678.21	79.58
678.34	102.98
678.48	42.13
678.62	112.35
678.76	88.94
678.90	100.64
679.04	117.03
679.18	81.92
679.31	107.66
679.45	110.01
679.59	152.13
679.73	117.03
679.87	56.17
680.00	163.84
680.14	175.54
680.28	152.13
680.42	124.05
680.56	126.39
680.70	121.71
680.83	170.86
680.97	100.64
681.11	159.16
681.25	182.56
681.39	156.82
681.52	133.41
681.66	180.22
681.80	180.22
681.94	126.39
682.07	119.37
682.21	95.96
682.35	154.48
682.49	91.28
682.62	156.82
682.76	95.96
682.90	95.96
683.04	93.62
683.17	121.71
683.31	131.07
683.45	147.45
683.59	95.96
683.72	100.64
683.86	119.37
684.00	93.62
684.13	121.71
684.27	142.77
684.41	107.66
684.55	112.35
684.68	135.75
684.82	102.98
684.96	135.75
685.09	159.16
685.23	98.30
685.37	114.69
685.50	100.64
685.64	210.65
685.78	84.26
685.91	84.26
686.05	147.45
686.19	124.05
686.32	147.45
686.46	110.01
686.60	16.38
686.73	145.11
686.87	72.56
687.01	100.64
687.14	110.01
687.28	79.58
687.42	88.94
687.55	65.54
687.69	105.32
687.82	114.69
687.96	46.81
688.10	189.58
688.23	114.69
688.37	180.22
688.50	135.75
688.64	161.50
688.78	105.32
688.91	112.35
689.05	25.75
689.18	23.41
689.32	79.58
689.46	175.54
689.59	128.73
689.73	161.50
689.86	58.51
690.00	114.69
690.13	114.69
690.27	119.37
690.41	142.77
690.54	117.03
690.68	212.99
690.81	126.39
690.95	93.62
691.08	105.32
691.22	84.26
691.35	161.50
691.49	79.58
691.62	51.49
691.76	53.83
691.89	145.11
692.03	124.05
692.16	119.37
692.30	63.19
692.43	152.13
692.57	72.56
692.70	159.16
692.84	145.11
692.97	133.41
693.11	51.49
693.24	91.28
693.38	32.77
693.51	102.98
693.65	79.58
693.78	32.77
693.92	121.71
694.05	65.54
694.19	39.79
694.32	135.75
694.45	98.30
694.59	95.96
694.72	119.37
694.86	147.45
694.99	98.30
695.13	102.98
695.26	126.39
695.39	39.79
695.53	140.43
695.66	147.45
695.80	77.24
695.93	91.28
696.07	131.07
696.20	63.19
696.33	98.30
696.47	91.28
696.60	91.28
696.73	126.39
696.87	117.03
697.00	126.39
697.14	168.52
697.27	114.69
697.40	184.90
697.54	110.01
697.67	60.85
697.80	98.30
697.94	121.71
698.07	95.96
698.21	84.26
698.34	124.05
698.47	93.62
698.61	35.11
698.74	112.35
698.87	100.64
699.01	107.66
699.14	74.90
699.27	77.24
699.40	187.24
699.54	86.60
699.67	110.01
699.80	117.03
699.94	77.24
700.07	91.28
700.20	107.66
700.34	149.79
700.47	60.85
700.60	93.62
700.73	105.32
700.87	63.19
701.00	128.73
701.13	65.54
701.26	77.24
701.40	124.05
701.53	77.24
701.66	65.54
701.79	110.01
701.93	177.88
702.06	133.41
702.19	56.17
702.32	74.90
702.46	121.71
702.59	112.35
702.72	110.01
702.85	95.96
702.99	98.30
703.12	156.82
703.25	145.11
703.38	72.56
703.51	117.03
703.65	126.39
703.78	145.11
703.91	152.13
704.04	121.71
704.17	159.16
704.31	124.05
704.44	105.32
704.57	86.60
704.70	79.58
704.83	60.85
704.96	98.30
705.10	93.62
705.23	51.49
>>>>>End Processed Spectral Data<<<<<
