SpectraSuite Data File
++++++++++++++++++++++++++++++++++++
Date: Fri Oct 04 11:51:04 GMT-05:00 2013
User: price-jones
Dark Spectrum Present: No
Reference Spectrum Present: No
Number of Sampled Component Spectra: 1
Spectrometers: USB2+H05261
Integration Time (usec): 100000 (USB2+H05261)
Spectra Averaged: 1 (USB2+H05261)
Boxcar Smoothing: 0 (USB2+H05261)
Correct for Electrical Dark: No (USB2+H05261)
Strobe/Lamp Enabled: No (USB2+H05261)
Correct for Detector Non-linearity: No (USB2+H05261)
Correct for Stray Light: No (USB2+H05261)
Number of Pixels in Processed Spectrum: 2048
>>>>>Begin Processed Spectral Data<<<<<
365.73	30.43
365.92	30.43
366.12	30.43
366.32	0.00
366.52	0.00
366.72	0.00
366.91	0.00
367.11	0.00
367.31	0.00
367.51	0.00
367.70	0.00
367.90	0.00
368.10	0.00
368.30	0.00
368.49	0.00
368.69	0.00
368.89	0.00
369.09	0.00
369.28	0.00
369.48	0.00
369.68	0.00
369.87	0.00
370.07	0.00
370.27	42.13
370.47	4.68
370.66	0.00
370.86	4.68
371.06	16.38
371.25	63.19
371.45	42.13
371.65	42.13
371.84	53.83
372.04	28.09
372.24	67.88
372.44	77.24
372.63	86.60
372.83	86.60
373.03	81.92
373.22	30.43
373.42	84.26
373.62	112.35
373.81	84.26
374.01	131.07
374.21	100.64
374.40	79.58
374.60	107.66
374.79	91.28
374.99	121.71
375.19	56.17
375.38	100.64
375.58	114.69
375.78	63.19
375.97	142.77
376.17	100.64
376.37	81.92
376.56	51.49
376.76	65.54
376.95	114.69
377.15	142.77
377.35	21.06
377.54	67.88
377.74	173.20
377.93	44.47
378.13	124.05
378.33	88.94
378.52	72.56
378.72	131.07
378.91	100.64
379.11	72.56
379.31	16.38
379.50	117.03
379.70	51.49
379.89	112.35
380.09	14.04
380.28	60.85
380.48	30.43
380.68	35.11
380.87	35.11
381.07	124.05
381.26	102.98
381.46	35.11
381.65	91.28
381.85	0.00
382.04	86.60
382.24	138.09
382.43	14.04
382.63	42.13
382.83	32.77
383.02	91.28
383.22	131.07
383.41	63.19
383.61	35.11
383.80	9.36
384.00	28.09
384.19	60.85
384.39	88.94
384.58	11.70
384.78	63.19
384.97	91.28
385.17	91.28
385.36	46.81
385.56	74.90
385.75	74.90
385.95	84.26
386.14	42.13
386.34	23.41
386.53	142.77
386.72	124.05
386.92	93.62
387.11	110.01
387.31	28.09
387.50	46.81
387.70	86.60
387.89	100.64
388.09	105.32
388.28	46.81
388.48	53.83
388.67	119.37
388.86	65.54
389.06	135.75
389.25	46.81
389.45	46.81
389.64	58.51
389.84	110.01
390.03	145.11
390.22	147.45
390.42	84.26
390.61	65.54
390.81	86.60
391.00	142.77
391.19	93.62
391.39	88.94
391.58	46.81
391.78	14.04
391.97	91.28
392.16	81.92
392.36	79.58
392.55	84.26
392.75	63.19
392.94	65.54
393.13	121.71
393.33	86.60
393.52	72.56
393.71	133.41
393.91	98.30
394.10	84.26
394.29	145.11
394.49	105.32
394.68	95.96
394.88	112.35
395.07	152.13
395.26	131.07
395.46	140.43
395.65	142.77
395.84	65.54
396.04	107.66
396.23	53.83
396.42	88.94
396.62	91.28
396.81	114.69
397.00	105.32
397.19	88.94
397.39	51.49
397.58	74.90
397.77	98.30
397.97	81.92
398.16	117.03
398.35	93.62
398.55	53.83
398.74	46.81
398.93	105.32
399.12	140.43
399.32	88.94
399.51	95.96
399.70	140.43
399.90	84.26
400.09	81.92
400.28	35.11
400.47	95.96
400.67	107.66
400.86	79.58
401.05	70.22
401.24	105.32
401.44	81.92
401.63	86.60
401.82	93.62
402.01	51.49
402.21	60.85
402.40	119.37
402.59	56.17
402.78	79.58
402.97	42.13
403.17	77.24
403.36	70.22
403.55	170.86
403.74	95.96
403.93	145.11
404.13	67.88
404.32	91.28
404.51	70.22
404.70	173.20
404.89	44.47
405.09	154.48
405.28	119.37
405.47	49.15
405.66	114.69
405.85	100.64
406.05	105.32
406.24	121.71
406.43	133.41
406.62	72.56
406.81	182.56
407.00	133.41
407.20	133.41
407.39	88.94
407.58	105.32
407.77	177.88
407.96	227.03
408.15	110.01
408.34	133.41
408.54	107.66
408.73	135.75
408.92	107.66
409.11	46.81
409.30	98.30
409.49	0.00
409.68	131.07
409.87	91.28
410.07	110.01
410.26	124.05
410.45	49.15
410.64	124.05
410.83	140.43
411.02	145.11
411.21	86.60
411.40	163.84
411.59	77.24
411.78	74.90
411.98	119.37
412.17	138.09
412.36	117.03
412.55	114.69
412.74	28.09
412.93	131.07
413.12	100.64
413.31	142.77
413.50	79.58
413.69	93.62
413.88	112.35
414.07	107.66
414.26	95.96
414.45	88.94
414.64	63.19
414.83	84.26
415.02	102.98
415.22	117.03
415.41	196.60
415.60	93.62
415.79	95.96
415.98	135.75
416.17	77.24
416.36	149.79
416.55	60.85
416.74	161.50
416.93	182.56
417.12	107.66
417.31	86.60
417.50	60.85
417.69	196.60
417.88	93.62
418.07	98.30
418.26	63.19
418.45	161.50
418.64	91.28
418.83	79.58
419.02	110.01
419.21	107.66
419.39	124.05
419.58	86.60
419.77	28.09
419.96	95.96
420.15	79.58
420.34	194.26
420.53	112.35
420.72	93.62
420.91	49.15
421.10	88.94
421.29	88.94
421.48	131.07
421.67	161.50
421.86	81.92
422.05	53.83
422.24	138.09
422.43	128.73
422.61	105.32
422.80	67.88
422.99	56.17
423.18	91.28
423.37	177.88
423.56	95.96
423.75	140.43
423.94	98.30
424.13	152.13
424.32	124.05
424.50	91.28
424.69	126.39
424.88	84.26
425.07	131.07
425.26	147.45
425.45	135.75
425.64	98.30
425.83	98.30
426.01	138.09
426.20	74.90
426.39	91.28
426.58	114.69
426.77	84.26
426.96	88.94
427.15	140.43
427.33	107.66
427.52	119.37
427.71	95.96
427.90	156.82
428.09	93.62
428.28	81.92
428.46	39.79
428.65	95.96
428.84	58.51
429.03	126.39
429.22	91.28
429.40	114.69
429.59	126.39
429.78	84.26
429.97	44.47
430.16	107.66
430.34	128.73
430.53	140.43
430.72	32.77
430.91	212.99
431.10	107.66
431.28	88.94
431.47	102.98
431.66	72.56
431.85	56.17
432.03	84.26
432.22	180.22
432.41	147.45
432.60	126.39
432.79	112.35
432.97	88.94
433.16	142.77
433.35	154.48
433.54	100.64
433.72	124.05
433.91	70.22
434.10	114.69
434.28	93.62
434.47	81.92
434.66	98.30
434.85	88.94
435.03	142.77
435.22	201.29
435.41	198.95
435.59	58.51
435.78	77.24
435.97	177.88
436.16	201.29
436.34	119.37
436.53	187.24
436.72	117.03
436.90	152.13
437.09	107.66
437.28	107.66
437.46	128.73
437.65	180.22
437.84	63.19
438.02	107.66
438.21	187.24
438.40	121.71
438.58	142.77
438.77	91.28
438.96	177.88
439.14	117.03
439.33	117.03
439.52	105.32
439.70	152.13
439.89	126.39
440.08	100.64
440.26	133.41
440.45	105.32
440.63	131.07
440.82	84.26
441.01	138.09
441.19	93.62
441.38	119.37
441.57	81.92
441.75	126.39
441.94	72.56
442.12	173.20
442.31	102.98
442.50	110.01
442.68	131.07
442.87	154.48
443.05	126.39
443.24	74.90
443.43	107.66
443.61	168.52
443.80	173.20
443.98	79.58
444.17	161.50
444.35	184.90
444.54	156.82
444.73	84.26
444.91	168.52
445.10	49.15
445.28	86.60
445.47	119.37
445.65	77.24
445.84	124.05
446.02	142.77
446.21	187.24
446.39	88.94
446.58	173.20
446.77	138.09
446.95	49.15
447.14	170.86
447.32	124.05
447.51	145.11
447.69	196.60
447.88	152.13
448.06	163.84
448.25	138.09
448.43	42.13
448.62	126.39
448.80	121.71
448.99	77.24
449.17	166.18
449.36	154.48
449.54	189.58
449.73	119.37
449.91	126.39
450.10	124.05
450.28	138.09
450.46	241.08
450.65	121.71
450.83	135.75
451.02	170.86
451.20	128.73
451.39	149.79
451.57	65.54
451.76	182.56
451.94	135.75
452.13	184.90
452.31	84.26
452.49	156.82
452.68	100.64
452.86	166.18
453.05	128.73
453.23	156.82
453.42	140.43
453.60	39.79
453.78	140.43
453.97	74.90
454.15	124.05
454.34	138.09
454.52	88.94
454.70	201.29
454.89	152.13
455.07	140.43
455.26	161.50
455.44	107.66
455.62	67.88
455.81	117.03
455.99	100.64
456.17	163.84
456.36	128.73
456.54	58.51
456.73	124.05
456.91	88.94
457.09	170.86
457.28	72.56
457.46	149.79
457.64	205.97
457.83	212.99
458.01	142.77
458.19	117.03
458.38	152.13
458.56	98.30
458.74	84.26
458.93	16.38
459.11	135.75
459.29	70.22
459.48	166.18
459.66	161.50
459.84	170.86
460.03	231.71
460.21	184.90
460.39	121.71
460.57	177.88
460.76	152.13
460.94	191.92
461.12	177.88
461.31	191.92
461.49	149.79
461.67	133.41
461.85	142.77
462.04	119.37
462.22	334.70
462.40	184.90
462.59	276.18
462.77	205.97
462.95	114.69
463.13	177.88
463.32	121.71
463.50	86.60
463.68	170.86
463.86	98.30
464.05	147.45
464.23	117.03
464.41	67.88
464.59	121.71
464.78	119.37
464.96	95.96
465.14	124.05
465.32	77.24
465.50	212.99
465.69	163.84
465.87	84.26
466.05	124.05
466.23	81.92
466.41	128.73
466.60	173.20
466.78	79.58
466.96	149.79
467.14	152.13
467.32	149.79
467.51	201.29
467.69	147.45
467.87	163.84
468.05	191.92
468.23	105.32
468.41	105.32
468.60	159.16
468.78	220.01
468.96	243.42
469.14	154.48
469.32	117.03
469.50	140.43
469.69	95.96
469.87	173.20
470.05	95.96
470.23	112.35
470.41	145.11
470.59	100.64
470.77	205.97
470.95	121.71
471.14	187.24
471.32	117.03
471.50	121.71
471.68	102.98
471.86	135.75
472.04	100.64
472.22	126.39
472.40	105.32
472.58	149.79
472.77	102.98
472.95	117.03
473.13	177.88
473.31	210.65
473.49	152.13
473.67	65.54
473.85	149.79
474.03	182.56
474.21	149.79
474.39	114.69
474.57	140.43
474.75	173.20
474.93	131.07
475.12	77.24
475.30	180.22
475.48	147.45
475.66	119.37
475.84	117.03
476.02	173.20
476.20	166.18
476.38	35.11
476.56	196.60
476.74	140.43
476.92	133.41
477.10	128.73
477.28	156.82
477.46	152.13
477.64	175.54
477.82	175.54
478.00	126.39
478.18	138.09
478.36	173.20
478.54	93.62
478.72	100.64
478.90	145.11
479.08	168.52
479.26	187.24
479.44	170.86
479.62	128.73
479.80	98.30
479.98	173.20
480.16	119.37
480.34	168.52
480.52	128.73
480.70	198.95
480.88	133.41
481.06	145.11
481.24	133.41
481.41	105.32
481.59	105.32
481.77	184.90
481.95	182.56
482.13	191.92
482.31	135.75
482.49	191.92
482.67	163.84
482.85	98.30
483.03	175.54
483.21	191.92
483.39	131.07
483.57	175.54
483.74	182.56
483.92	142.77
484.10	117.03
484.28	205.97
484.46	140.43
484.64	119.37
484.82	161.50
485.00	170.86
485.18	161.50
485.35	140.43
485.53	121.71
485.71	236.39
485.89	138.09
486.07	187.24
486.25	227.03
486.43	131.07
486.61	138.09
486.78	152.13
486.96	187.24
487.14	128.73
487.32	102.98
487.50	117.03
487.68	149.79
487.85	175.54
488.03	198.95
488.21	156.82
488.39	191.92
488.57	154.48
488.75	208.31
488.92	482.15
489.10	88.94
489.28	182.56
489.46	131.07
489.64	175.54
489.81	161.50
489.99	175.54
490.17	149.79
490.35	231.71
490.53	149.79
490.70	112.35
490.88	147.45
491.06	170.86
491.24	201.29
491.41	205.97
491.59	98.30
491.77	105.32
491.95	131.07
492.13	170.86
492.30	290.23
492.48	177.88
492.66	117.03
492.84	152.13
493.01	140.43
493.19	168.52
493.37	126.39
493.54	210.65
493.72	177.88
493.90	220.01
494.08	189.58
494.25	191.92
494.43	220.01
494.61	128.73
494.79	114.69
494.96	168.52
495.14	205.97
495.32	156.82
495.49	212.99
495.67	163.84
495.85	175.54
496.02	70.22
496.20	203.63
496.38	152.13
496.55	180.22
496.73	222.35
496.91	173.20
497.09	208.31
497.26	117.03
497.44	208.31
497.62	215.33
497.79	175.54
497.97	177.88
498.14	210.65
498.32	187.24
498.50	142.77
498.67	175.54
498.85	229.37
499.03	182.56
499.20	145.11
499.38	147.45
499.56	194.26
499.73	231.71
499.91	194.26
500.08	166.18
500.26	126.39
500.44	187.24
500.61	166.18
500.79	110.01
500.97	198.95
501.14	191.92
501.32	194.26
501.49	245.76
501.67	255.12
501.84	266.82
502.02	166.18
502.20	184.90
502.37	217.67
502.55	110.01
502.72	182.56
502.90	100.64
503.07	191.92
503.25	215.33
503.43	121.71
503.60	184.90
503.78	124.05
503.95	133.41
504.13	170.86
504.30	245.76
504.48	217.67
504.65	182.56
504.83	187.24
505.01	168.52
505.18	248.10
505.36	173.20
505.53	217.67
505.71	212.99
505.88	262.14
506.06	170.86
506.23	210.65
506.41	156.82
506.58	203.63
506.76	234.05
506.93	117.03
507.11	156.82
507.28	159.16
507.46	173.20
507.63	194.26
507.81	175.54
507.98	198.95
508.16	170.86
508.33	133.41
508.50	201.29
508.68	159.16
508.85	238.73
509.03	152.13
509.20	227.03
509.38	191.92
509.55	175.54
509.73	215.33
509.90	163.84
510.08	133.41
510.25	173.20
510.42	184.90
510.60	173.20
510.77	208.31
510.95	217.67
511.12	159.16
511.30	201.29
511.47	142.77
511.64	205.97
511.82	227.03
511.99	212.99
512.17	194.26
512.34	119.37
512.51	222.35
512.69	166.18
512.86	252.78
513.04	191.92
513.21	252.78
513.38	119.37
513.56	210.65
513.73	229.37
513.90	142.77
514.08	159.16
514.25	156.82
514.43	241.08
514.60	173.20
514.77	203.63
514.95	205.97
515.12	117.03
515.29	180.22
515.47	173.20
515.64	201.29
515.81	210.65
515.99	212.99
516.16	222.35
516.33	159.16
516.51	262.14
516.68	175.54
516.85	119.37
517.03	236.39
517.20	126.39
517.37	163.84
517.54	168.52
517.72	196.60
517.89	187.24
518.06	147.45
518.24	166.18
518.41	212.99
518.58	189.58
518.75	147.45
518.93	191.92
519.10	147.45
519.27	191.92
519.45	180.22
519.62	229.37
519.79	217.67
519.96	159.16
520.14	262.14
520.31	236.39
520.48	208.31
520.65	180.22
520.83	198.95
521.00	229.37
521.17	238.73
521.34	203.63
521.52	234.05
521.69	147.45
521.86	241.08
522.03	194.26
522.20	210.65
522.38	135.75
522.55	201.29
522.72	138.09
522.89	168.52
523.07	280.86
523.24	222.35
523.41	201.29
523.58	234.05
523.75	252.78
523.92	238.73
524.10	184.90
524.27	175.54
524.44	224.69
524.61	229.37
524.78	212.99
524.96	238.73
525.13	273.84
525.30	315.97
525.47	311.29
525.64	184.90
525.81	203.63
525.98	212.99
526.16	133.41
526.33	198.95
526.50	215.33
526.67	180.22
526.84	147.45
527.01	161.50
527.18	255.12
527.36	227.03
527.53	198.95
527.70	215.33
527.87	205.97
528.04	294.91
528.21	217.67
528.38	313.63
528.55	306.61
528.72	252.78
528.89	259.80
529.07	194.26
529.24	182.56
529.41	210.65
529.58	131.07
529.75	250.44
529.92	215.33
530.09	220.01
530.26	234.05
530.43	196.60
530.60	264.48
530.77	156.82
530.94	147.45
531.11	231.71
531.28	222.35
531.46	177.88
531.63	198.95
531.80	283.20
531.97	177.88
532.14	215.33
532.31	184.90
532.48	163.84
532.65	222.35
532.82	262.14
532.99	170.86
533.16	177.88
533.33	215.33
533.50	229.37
533.67	220.01
533.84	180.22
534.01	149.79
534.18	220.01
534.35	248.10
534.52	250.44
534.69	175.54
534.86	184.90
535.03	212.99
535.20	236.39
535.37	191.92
535.54	149.79
535.71	182.56
535.88	271.50
536.05	238.73
536.22	194.26
536.38	170.86
536.55	231.71
536.72	210.65
536.89	196.60
537.06	252.78
537.23	182.56
537.40	212.99
537.57	198.95
537.74	238.73
537.91	215.33
538.08	182.56
538.25	205.97
538.42	231.71
538.59	194.26
538.75	175.54
538.92	182.56
539.09	194.26
539.26	170.86
539.43	255.12
539.60	191.92
539.77	227.03
539.94	184.90
540.11	189.58
540.28	250.44
540.44	227.03
540.61	241.08
540.78	203.63
540.95	182.56
541.12	217.67
541.29	191.92
541.46	191.92
541.62	248.10
541.79	189.58
541.96	175.54
542.13	159.16
542.30	227.03
542.47	182.56
542.63	208.31
542.80	170.86
542.97	271.50
543.14	170.86
543.31	257.46
543.48	212.99
543.64	135.75
543.81	198.95
543.98	205.97
544.15	147.45
544.32	140.43
544.48	163.84
544.65	212.99
544.82	196.60
544.99	217.67
545.16	182.56
545.32	161.50
545.49	229.37
545.66	147.45
545.83	220.01
546.00	187.24
546.16	142.77
546.33	290.23
546.50	250.44
546.67	236.39
546.83	224.69
547.00	175.54
547.17	201.29
547.34	191.92
547.50	170.86
547.67	236.39
547.84	252.78
548.00	170.86
548.17	98.30
548.34	175.54
548.51	248.10
548.67	245.76
548.84	250.44
549.01	210.65
549.18	290.23
549.34	175.54
549.51	154.48
549.68	250.44
549.84	159.16
550.01	168.52
550.18	255.12
550.34	255.12
550.51	182.56
550.68	212.99
550.84	217.67
551.01	290.23
551.18	222.35
551.34	273.84
551.51	196.60
551.68	227.03
551.84	191.92
552.01	231.71
552.18	184.90
552.34	194.26
552.51	220.01
552.68	182.56
552.84	231.71
553.01	198.95
553.18	222.35
553.34	140.43
553.51	161.50
553.67	301.93
553.84	259.80
554.01	294.91
554.17	236.39
554.34	154.48
554.51	212.99
554.67	210.65
554.84	252.78
555.00	259.80
555.17	266.82
555.33	301.93
555.50	262.14
555.67	217.67
555.83	159.16
556.00	173.20
556.16	388.53
556.33	238.73
556.50	238.73
556.66	203.63
556.83	161.50
556.99	154.48
557.16	224.69
557.32	241.08
557.49	184.90
557.65	212.99
557.82	180.22
557.98	222.35
558.15	95.96
558.32	252.78
558.48	191.92
558.65	191.92
558.81	243.42
558.98	215.33
559.14	227.03
559.31	245.76
559.47	217.67
559.64	180.22
559.80	245.76
559.97	231.71
560.13	131.07
560.30	140.43
560.46	224.69
560.63	264.48
560.79	229.37
560.96	114.69
561.12	180.22
561.29	241.08
561.45	191.92
561.61	227.03
561.78	330.02
561.94	285.55
562.11	191.92
562.27	208.31
562.44	152.13
562.60	220.01
562.77	212.99
562.93	245.76
563.10	234.05
563.26	191.92
563.42	259.80
563.59	257.46
563.75	196.60
563.92	210.65
564.08	313.63
564.24	212.99
564.41	266.82
564.57	107.66
564.74	203.63
564.90	105.32
565.07	175.54
565.23	201.29
565.39	175.54
565.56	201.29
565.72	154.48
565.88	203.63
566.05	252.78
566.21	159.16
566.38	191.92
566.54	217.67
566.70	196.60
566.87	191.92
567.03	212.99
567.19	166.18
567.36	245.76
567.52	177.88
567.68	201.29
567.85	220.01
568.01	187.24
568.17	245.76
568.34	177.88
568.50	159.16
568.66	147.45
568.83	234.05
568.99	161.50
569.15	236.39
569.32	248.10
569.48	189.58
569.64	131.07
569.81	140.43
569.97	278.52
570.13	166.18
570.30	220.01
570.46	191.92
570.62	184.90
570.78	189.58
570.95	119.37
571.11	220.01
571.27	196.60
571.43	147.45
571.60	196.60
571.76	177.88
571.92	184.90
572.09	163.84
572.25	196.60
572.41	196.60
572.57	198.95
572.74	152.13
572.90	187.24
573.06	248.10
573.22	194.26
573.38	175.54
573.55	301.93
573.71	227.03
573.87	236.39
574.03	154.48
574.20	128.73
574.36	220.01
574.52	227.03
574.68	159.16
574.84	201.29
575.01	154.48
575.17	273.84
575.33	131.07
575.49	161.50
575.65	220.01
575.82	236.39
575.98	308.95
576.14	231.71
576.30	131.07
576.46	166.18
576.62	177.88
576.79	138.09
576.95	166.18
577.11	191.92
577.27	241.08
577.43	175.54
577.59	145.11
577.75	145.11
577.92	138.09
578.08	121.71
578.24	173.20
578.40	229.37
578.56	215.33
578.72	259.80
578.88	189.58
579.04	210.65
579.21	166.18
579.37	98.30
579.53	163.84
579.69	149.79
579.85	182.56
580.01	189.58
580.17	198.95
580.33	163.84
580.49	152.13
580.65	229.37
580.82	133.41
580.98	175.54
581.14	182.56
581.30	182.56
581.46	205.97
581.62	224.69
581.78	196.60
581.94	203.63
582.10	229.37
582.26	201.29
582.42	138.09
582.58	231.71
582.74	201.29
582.90	224.69
583.06	196.60
583.22	222.35
583.38	161.50
583.54	159.16
583.70	259.80
583.86	182.56
584.02	147.45
584.18	142.77
584.34	126.39
584.50	236.39
584.66	163.84
584.82	149.79
584.98	222.35
585.14	187.24
585.30	180.22
585.46	184.90
585.62	170.86
585.78	191.92
585.94	140.43
586.10	191.92
586.26	238.73
586.42	269.16
586.58	166.18
586.74	198.95
586.90	159.16
587.06	175.54
587.22	220.01
587.38	161.50
587.54	173.20
587.70	234.05
587.86	234.05
588.02	168.52
588.18	163.84
588.34	133.41
588.49	121.71
588.65	135.75
588.81	196.60
588.97	177.88
589.13	98.30
589.29	145.11
589.45	133.41
589.61	170.86
589.77	196.60
589.93	140.43
590.08	210.65
590.24	166.18
590.40	156.82
590.56	175.54
590.72	191.92
590.88	131.07
591.04	177.88
591.20	210.65
591.35	210.65
591.51	149.79
591.67	154.48
591.83	138.09
591.99	210.65
592.15	191.92
592.31	201.29
592.46	156.82
592.62	154.48
592.78	205.97
592.94	184.90
593.10	163.84
593.26	138.09
593.41	208.31
593.57	98.30
593.73	126.39
593.89	105.32
594.05	170.86
594.20	196.60
594.36	220.01
594.52	205.97
594.68	126.39
594.84	166.18
594.99	187.24
595.15	173.20
595.31	194.26
595.47	177.88
595.62	191.92
595.78	170.86
595.94	135.75
596.10	149.79
596.25	149.79
596.41	198.95
596.57	182.56
596.73	161.50
596.88	189.58
597.04	175.54
597.20	241.08
597.36	184.90
597.51	121.71
597.67	100.64
597.83	252.78
597.99	208.31
598.14	201.29
598.30	191.92
598.46	182.56
598.61	201.29
598.77	131.07
598.93	196.60
599.09	196.60
599.24	152.13
599.40	182.56
599.56	156.82
599.71	208.31
599.87	266.82
600.03	140.43
600.18	175.54
600.34	184.90
600.50	147.45
600.65	159.16
600.81	196.60
600.97	163.84
601.12	133.41
601.28	173.20
601.44	187.24
601.59	215.33
601.75	187.24
601.91	145.11
602.06	205.97
602.22	220.01
602.37	201.29
602.53	147.45
602.69	234.05
602.84	180.22
603.00	236.39
603.16	189.58
603.31	180.22
603.47	196.60
603.62	140.43
603.78	201.29
603.94	198.95
604.09	196.60
604.25	184.90
604.40	229.37
604.56	147.45
604.71	180.22
604.87	173.20
605.03	128.73
605.18	145.11
605.34	212.99
605.49	147.45
605.65	210.65
605.80	201.29
605.96	147.45
606.12	170.86
606.27	215.33
606.43	131.07
606.58	236.39
606.74	220.01
606.89	227.03
607.05	114.69
607.20	147.45
607.36	194.26
607.51	196.60
607.67	250.44
607.82	205.97
607.98	212.99
608.13	117.03
608.29	201.29
608.44	238.73
608.60	168.52
608.75	203.63
608.91	215.33
609.06	170.86
609.22	210.65
609.37	147.45
609.53	128.73
609.68	107.66
609.84	145.11
609.99	180.22
610.15	189.58
610.30	93.62
610.46	241.08
610.61	191.92
610.76	173.20
610.92	198.95
611.07	175.54
611.23	234.05
611.38	238.73
611.54	187.24
611.69	194.26
611.84	180.22
612.00	203.63
612.15	182.56
612.31	220.01
612.46	175.54
612.62	191.92
612.77	229.37
612.92	154.48
613.08	156.82
613.23	212.99
613.39	124.05
613.54	245.76
613.69	163.84
613.85	154.48
614.00	182.56
614.15	168.52
614.31	126.39
614.46	163.84
614.62	145.11
614.77	168.52
614.92	135.75
615.08	227.03
615.23	194.26
615.38	119.37
615.54	117.03
615.69	159.16
615.84	110.01
616.00	156.82
616.15	149.79
616.30	95.96
616.46	187.24
616.61	194.26
616.76	145.11
616.92	170.86
617.07	140.43
617.22	220.01
617.37	124.05
617.53	149.79
617.68	131.07
617.83	163.84
617.99	182.56
618.14	191.92
618.29	222.35
618.45	201.29
618.60	156.82
618.75	95.96
618.90	95.96
619.06	173.20
619.21	224.69
619.36	252.78
619.51	121.71
619.67	168.52
619.82	138.09
619.97	100.64
620.12	138.09
620.28	112.35
620.43	147.45
620.58	187.24
620.73	189.58
620.89	227.03
621.04	131.07
621.19	252.78
621.34	159.16
621.49	198.95
621.65	131.07
621.80	163.84
621.95	159.16
622.10	177.88
622.25	121.71
622.41	156.82
622.56	166.18
622.71	180.22
622.86	182.56
623.01	182.56
623.16	191.92
623.32	175.54
623.47	133.41
623.62	124.05
623.77	149.79
623.92	184.90
624.07	142.77
624.23	191.92
624.38	161.50
624.53	236.39
624.68	189.58
624.83	222.35
624.98	182.56
625.13	152.13
625.29	201.29
625.44	243.42
625.59	201.29
625.74	140.43
625.89	198.95
626.04	93.62
626.19	180.22
626.34	145.11
626.49	201.29
626.65	175.54
626.80	81.92
626.95	250.44
627.10	203.63
627.25	147.45
627.40	102.98
627.55	133.41
627.70	110.01
627.85	182.56
628.00	131.07
628.15	161.50
628.30	161.50
628.45	133.41
628.60	124.05
628.76	114.69
628.91	231.71
629.06	140.43
629.21	245.76
629.36	81.92
629.51	133.41
629.66	269.16
629.81	175.54
629.96	98.30
630.11	173.20
630.26	145.11
630.41	208.31
630.56	191.92
630.71	138.09
630.86	67.88
631.01	112.35
631.16	135.75
631.31	215.33
631.46	140.43
631.61	168.52
631.76	175.54
631.91	198.95
632.06	201.29
632.21	156.82
632.36	187.24
632.51	102.98
632.66	175.54
632.81	110.01
632.96	114.69
633.10	112.35
633.25	156.82
633.40	152.13
633.55	196.60
633.70	161.50
633.85	154.48
634.00	107.66
634.15	142.77
634.30	184.90
634.45	170.86
634.60	110.01
634.75	105.32
634.90	191.92
635.05	217.67
635.19	81.92
635.34	168.52
635.49	119.37
635.64	170.86
635.79	180.22
635.94	102.98
636.09	189.58
636.24	177.88
636.39	142.77
636.53	208.31
636.68	184.90
636.83	173.20
636.98	119.37
637.13	133.41
637.28	194.26
637.43	149.79
637.57	72.56
637.72	149.79
637.87	168.52
638.02	182.56
638.17	138.09
638.32	182.56
638.46	177.88
638.61	194.26
638.76	175.54
638.91	145.11
639.06	161.50
639.20	187.24
639.35	152.13
639.50	149.79
639.65	205.97
639.80	215.33
639.94	187.24
640.09	182.56
640.24	234.05
640.39	93.62
640.54	133.41
640.68	147.45
640.83	161.50
640.98	138.09
641.13	112.35
641.27	117.03
641.42	138.09
641.57	212.99
641.72	86.60
641.86	161.50
642.01	177.88
642.16	173.20
642.31	114.69
642.45	224.69
642.60	149.79
642.75	156.82
642.90	166.18
643.04	194.26
643.19	163.84
643.34	184.90
643.48	152.13
643.63	159.16
643.78	159.16
643.93	210.65
644.07	124.05
644.22	133.41
644.37	159.16
644.51	161.50
644.66	161.50
644.81	114.69
644.95	121.71
645.10	114.69
645.25	121.71
645.39	161.50
645.54	112.35
645.69	224.69
645.83	147.45
645.98	168.52
646.13	98.30
646.27	177.88
646.42	79.58
646.57	117.03
646.71	79.58
646.86	187.24
647.00	114.69
647.15	124.05
647.30	128.73
647.44	156.82
647.59	121.71
647.74	84.26
647.88	168.52
648.03	159.16
648.17	135.75
648.32	175.54
648.47	184.90
648.61	98.30
648.76	102.98
648.90	145.11
649.05	88.94
649.20	105.32
649.34	117.03
649.49	110.01
649.63	166.18
649.78	177.88
649.92	227.03
650.07	210.65
650.21	114.69
650.36	149.79
650.51	79.58
650.65	248.10
650.80	187.24
650.94	114.69
651.09	121.71
651.23	133.41
651.38	119.37
651.52	145.11
651.67	74.90
651.81	159.16
651.96	124.05
652.10	166.18
652.25	119.37
652.39	91.28
652.54	156.82
652.68	105.32
652.83	152.13
652.97	203.63
653.12	147.45
653.26	152.13
653.41	180.22
653.55	98.30
653.70	152.13
653.84	93.62
653.99	112.35
654.13	102.98
654.27	145.11
654.42	142.77
654.56	112.35
654.71	124.05
654.85	105.32
655.00	119.37
655.14	93.62
655.29	105.32
655.43	81.92
655.57	147.45
655.72	147.45
655.86	180.22
656.01	77.24
656.15	208.31
656.30	166.18
656.44	79.58
656.58	67.88
656.73	180.22
656.87	133.41
657.01	107.66
657.16	170.86
657.30	170.86
657.45	212.99
657.59	149.79
657.73	98.30
657.88	135.75
658.02	124.05
658.16	102.98
658.31	74.90
658.45	147.45
658.60	145.11
658.74	102.98
658.88	142.77
659.03	74.90
659.17	77.24
659.31	149.79
659.46	117.03
659.60	135.75
659.74	124.05
659.89	135.75
660.03	175.54
660.17	196.60
660.32	191.92
660.46	166.18
660.60	117.03
660.74	112.35
660.89	100.64
661.03	149.79
661.17	133.41
661.32	81.92
661.46	133.41
661.60	126.39
661.74	135.75
661.89	168.52
662.03	131.07
662.17	93.62
662.31	88.94
662.46	74.90
662.60	147.45
662.74	168.52
662.88	102.98
663.03	161.50
663.17	84.26
663.31	110.01
663.45	100.64
663.60	198.95
663.74	77.24
663.88	77.24
664.02	182.56
664.17	147.45
664.31	124.05
664.45	140.43
664.59	201.29
664.73	114.69
664.88	128.73
665.02	117.03
665.16	112.35
665.30	208.31
665.44	168.52
665.59	70.22
665.73	159.16
665.87	175.54
666.01	119.37
666.15	128.73
666.29	152.13
666.44	112.35
666.58	166.18
666.72	189.58
666.86	154.48
667.00	65.54
667.14	149.79
667.28	117.03
667.43	269.16
667.57	145.11
667.71	194.26
667.85	142.77
667.99	128.73
668.13	173.20
668.27	161.50
668.41	65.54
668.56	159.16
668.70	191.92
668.84	173.20
668.98	133.41
669.12	138.09
669.26	121.71
669.40	149.79
669.54	208.31
669.68	180.22
669.82	191.92
669.96	126.39
670.10	117.03
670.25	184.90
670.39	138.09
670.53	152.13
670.67	112.35
670.81	79.58
670.95	166.18
671.09	131.07
671.23	135.75
671.37	124.05
671.51	170.86
671.65	131.07
671.79	126.39
671.93	114.69
672.07	220.01
672.21	170.86
672.35	138.09
672.49	170.86
672.63	119.37
672.77	145.11
672.91	88.94
673.05	84.26
673.19	163.84
673.33	46.81
673.47	140.43
673.61	112.35
673.75	159.16
673.89	168.52
674.03	245.76
674.17	74.90
674.31	184.90
674.45	140.43
674.59	102.98
674.73	51.49
674.87	163.84
675.01	170.86
675.15	119.37
675.29	110.01
675.43	161.50
675.56	198.95
675.70	138.09
675.84	74.90
675.98	161.50
676.12	65.54
676.26	140.43
676.40	91.28
676.54	203.63
676.68	152.13
676.82	126.39
676.96	138.09
677.10	138.09
677.23	105.32
677.37	37.45
677.51	100.64
677.65	98.30
677.79	112.35
677.93	173.20
678.07	121.71
678.21	149.79
678.34	147.45
678.48	147.45
678.62	161.50
678.76	142.77
678.90	72.56
679.04	149.79
679.18	128.73
679.31	100.64
679.45	100.64
679.59	149.79
679.73	107.66
679.87	135.75
680.00	79.58
680.14	161.50
680.28	112.35
680.42	119.37
680.56	128.73
680.70	124.05
680.83	142.77
680.97	124.05
681.11	133.41
681.25	93.62
681.39	135.75
681.52	77.24
681.66	133.41
681.80	133.41
681.94	191.92
682.07	121.71
682.21	126.39
682.35	98.30
682.49	79.58
682.62	177.88
682.76	114.69
682.90	114.69
683.04	95.96
683.17	86.60
683.31	140.43
683.45	110.01
683.59	149.79
683.72	156.82
683.86	140.43
684.00	152.13
684.13	168.52
684.27	180.22
684.41	173.20
684.55	107.66
684.68	124.05
684.82	140.43
684.96	114.69
685.09	74.90
685.23	84.26
685.37	46.81
685.50	173.20
685.64	142.77
685.78	86.60
685.91	121.71
686.05	161.50
686.19	119.37
686.32	63.19
686.46	112.35
686.60	63.19
686.73	156.82
686.87	88.94
687.01	81.92
687.14	18.72
687.28	114.69
687.42	72.56
687.55	182.56
687.69	119.37
687.82	93.62
687.96	37.45
688.10	173.20
688.23	112.35
688.37	208.31
688.50	131.07
688.64	110.01
688.78	72.56
688.91	126.39
689.05	135.75
689.18	107.66
689.32	32.77
689.46	107.66
689.59	91.28
689.73	112.35
689.86	88.94
690.00	124.05
690.13	138.09
690.27	138.09
690.41	98.30
690.54	112.35
690.68	88.94
690.81	147.45
690.95	117.03
691.08	170.86
691.22	86.60
691.35	77.24
691.49	67.88
691.62	163.84
691.76	107.66
691.89	14.04
692.03	126.39
692.16	107.66
692.30	88.94
692.43	79.58
692.57	91.28
692.70	72.56
692.84	102.98
692.97	180.22
693.11	91.28
693.24	100.64
693.38	91.28
693.51	110.01
693.65	142.77
693.78	84.26
693.92	56.17
694.05	74.90
694.19	166.18
694.32	114.69
694.45	86.60
694.59	65.54
694.72	110.01
694.86	46.81
694.99	117.03
695.13	39.79
695.26	49.15
695.39	86.60
695.53	184.90
695.66	152.13
695.80	168.52
695.93	112.35
696.07	32.77
696.20	119.37
696.33	53.83
696.47	46.81
696.60	100.64
696.73	117.03
696.87	46.81
697.00	110.01
697.14	100.64
697.27	91.28
697.40	128.73
697.54	159.16
697.67	133.41
697.80	84.26
697.94	98.30
698.07	112.35
698.21	81.92
698.34	74.90
698.47	84.26
698.61	72.56
698.74	93.62
698.87	175.54
699.01	107.66
699.14	105.32
699.27	77.24
699.40	203.63
699.54	86.60
699.67	65.54
699.80	81.92
699.94	58.51
700.07	88.94
700.20	124.05
700.34	124.05
700.47	102.98
700.60	63.19
700.73	72.56
700.87	196.60
701.00	126.39
701.13	72.56
701.26	173.20
701.40	105.32
701.53	100.64
701.66	128.73
701.79	81.92
701.93	63.19
702.06	72.56
702.19	88.94
702.32	126.39
702.46	21.06
702.59	110.01
702.72	63.19
702.85	84.26
702.99	105.32
703.12	133.41
703.25	110.01
703.38	67.88
703.51	156.82
703.65	30.43
703.78	112.35
703.91	107.66
704.04	147.45
704.17	63.19
704.31	0.00
704.44	91.28
704.57	58.51
704.70	201.29
704.83	23.41
704.96	32.77
705.10	42.13
705.23	65.54
>>>>>End Processed Spectral Data<<<<<
